SpectraSuite Data File
++++++++++++++++++++++++++++++++++++
Date: Tue May 03 11:24:39 CEST 2016
User: root
Dark Spectrum Present: No
Reference Spectrum Present: No
Number of Sampled Component Spectra: 1
Spectrometers: USB4C02835
Integration Time (usec): 100000 (USB4C02835)
Spectra Averaged: 1 (USB4C02835)
Boxcar Smoothing: 0 (USB4C02835)
Correct for Electrical Dark: No (USB4C02835)
Strobe/Lamp Enabled: No (USB4C02835)
Correct for Detector Non-linearity: No (USB4C02835)
Correct for Stray Light: No (USB4C02835)
Number of Pixels in Processed Spectrum: 3648
>>>>>Begin Processed Spectral Data<<<<<
177.47	1243.12
177.69	1243.12
177.91	1243.12
178.13	1196.01
178.36	1236.97
178.58	1394.67
178.80	1335.28
179.02	1333.23
179.24	1376.24
179.46	1308.65
179.68	1378.28
179.90	1400.81
180.13	1427.43
180.35	1372.14
180.57	1337.32
180.79	1329.13
181.01	1372.14
181.23	1402.86
181.45	1425.39
181.67	1380.33
181.90	1361.90
182.12	1347.56
182.34	1341.42
182.56	1372.14
182.78	1316.84
183.00	1345.52
183.22	1355.76
183.44	1245.16
183.66	1447.91
183.89	1449.96
184.11	1361.90
184.33	1366.00
184.55	1413.10
184.77	1413.10
184.99	1290.22
185.21	1372.14
185.43	1439.72
185.65	1347.56
185.87	1400.81
186.10	1429.48
186.32	1456.11
186.54	1366.00
186.76	1345.52
186.98	1343.47
187.20	1378.28
187.42	1347.56
187.64	1406.95
187.86	1368.04
188.08	1402.86
188.30	1400.81
188.52	1390.57
188.75	1366.00
188.97	1386.47
189.19	1374.19
189.41	1382.38
189.63	1411.05
189.85	1376.24
190.07	1337.32
190.29	1333.23
190.51	1417.19
190.73	1333.23
190.95	1433.58
191.17	1445.87
191.39	1343.47
191.61	1335.28
191.84	1404.91
192.06	1318.89
192.28	1273.84
192.50	1490.92
192.72	1370.09
192.94	1359.85
193.16	1396.71
193.38	1320.94
193.60	1314.80
193.82	1368.04
194.04	1433.58
194.26	1458.15
194.48	1386.47
194.70	1380.33
194.92	1347.56
195.14	1347.56
195.36	1314.80
195.58	1402.86
195.80	1372.14
196.02	1366.00
196.24	1277.93
196.46	1310.70
196.69	1343.47
196.91	1437.67
197.13	1411.05
197.35	1325.04
197.57	1337.32
197.79	1406.95
198.01	1476.59
198.23	1396.71
198.45	1368.04
198.67	1386.47
198.89	1366.00
199.11	1368.04
199.33	1341.42
199.55	1284.08
199.77	1406.95
199.99	1394.67
200.21	1331.18
200.43	1384.43
200.65	1322.99
200.87	1312.75
201.09	1347.56
201.31	1284.08
201.53	1394.67
201.75	1435.63
201.97	1372.14
202.19	1322.99
202.41	1417.19
202.63	1431.53
202.85	1398.76
203.07	1404.91
203.29	1359.85
203.51	1322.99
203.73	1386.47
203.95	1429.48
204.17	1409.00
204.39	1372.14
204.61	1351.66
204.83	1308.65
205.05	1386.47
205.27	1384.43
205.49	1396.71
205.71	1413.10
205.93	1400.81
206.15	1337.32
206.37	1363.95
206.59	1327.08
206.81	1269.74
207.03	1392.62
207.25	1339.37
207.47	1404.91
207.69	1355.76
207.91	1347.56
208.13	1445.87
208.34	1327.08
208.56	1355.76
208.78	1458.15
209.00	1341.42
209.22	1394.67
209.44	1376.24
209.66	1386.47
209.88	1359.85
210.10	1329.13
210.32	1368.04
210.54	1384.43
210.76	1290.22
210.98	1320.94
211.20	1245.16
211.42	1378.28
211.64	1409.00
211.86	1353.71
212.08	1437.67
212.30	1318.89
212.52	1306.60
212.74	1394.67
212.96	1462.25
213.17	1409.00
213.39	1320.94
213.61	1437.67
213.83	1445.87
214.05	1370.09
214.27	1351.66
214.49	1300.46
214.71	1372.14
214.93	1388.52
215.15	1366.00
215.37	1443.82
215.59	1327.08
215.81	1421.29
216.03	1429.48
216.24	1306.60
216.46	1374.19
216.68	1464.30
216.90	1411.05
217.12	1429.48
217.34	1409.00
217.56	1404.91
217.78	1492.97
218.00	1310.70
218.22	1472.49
218.44	1378.28
218.66	1345.52
218.87	1449.96
219.09	1443.82
219.31	1361.90
219.53	1347.56
219.75	1361.90
219.97	1380.33
220.19	1411.05
220.41	1349.61
220.63	1331.18
220.85	1411.05
221.06	1396.71
221.28	1423.34
221.50	1384.43
221.72	1378.28
221.94	1402.86
222.16	1325.04
222.38	1402.86
222.60	1386.47
222.82	1349.61
223.03	1462.25
223.25	1263.60
223.47	1392.62
223.69	1404.91
223.91	1386.47
224.13	1363.95
224.35	1318.89
224.57	1337.32
224.78	1361.90
225.00	1300.46
225.22	1357.80
225.44	1337.32
225.66	1402.86
225.88	1320.94
226.10	1355.76
226.32	1392.62
226.53	1386.47
226.75	1355.76
226.97	1312.75
227.19	1396.71
227.41	1337.32
227.63	1282.03
227.85	1335.28
228.06	1458.15
228.28	1282.03
228.50	1458.15
228.72	1327.08
228.94	1331.18
229.16	1343.47
229.37	1312.75
229.59	1296.36
229.81	1486.83
230.03	1310.70
230.25	1306.60
230.47	1347.56
230.69	1329.13
230.90	1361.90
231.12	1294.32
231.34	1363.95
231.56	1396.71
231.78	1337.32
232.00	1345.52
232.21	1355.76
232.43	1318.89
232.65	1331.18
232.87	1388.52
233.09	1351.66
233.30	1357.80
233.52	1394.67
233.74	1390.57
233.96	1312.75
234.18	1363.95
234.40	1355.76
234.61	1429.48
234.83	1300.46
235.05	1325.04
235.27	1443.82
235.49	1411.05
235.70	1497.07
235.92	1409.00
236.14	1382.38
236.36	1435.63
236.58	1308.65
236.79	1521.64
237.01	1370.09
237.23	1417.19
237.45	1452.01
237.67	1331.18
237.88	1404.91
238.10	1409.00
238.32	1382.38
238.54	1331.18
238.76	1298.41
238.97	1343.47
239.19	1337.32
239.41	1390.57
239.63	1376.24
239.85	1376.24
240.06	1366.00
240.28	1325.04
240.50	1454.06
240.72	1372.14
240.93	1353.71
241.15	1409.00
241.37	1318.89
241.59	1486.83
241.81	1376.24
242.02	1351.66
242.24	1308.65
242.46	1380.33
242.68	1282.03
242.89	1339.37
243.11	1437.67
243.33	1355.76
243.55	1478.63
243.76	1331.18
243.98	1341.42
244.20	1355.76
244.42	1345.52
244.64	1423.34
244.85	1290.22
245.07	1312.75
245.29	1497.07
245.51	1441.77
245.72	1345.52
245.94	1499.11
246.16	1441.77
246.38	1400.81
246.59	1318.89
246.81	1314.80
247.03	1320.94
247.24	1325.04
247.46	1349.61
247.68	1353.71
247.90	1368.04
248.11	1370.09
248.33	1466.35
248.55	1343.47
248.77	1394.67
248.98	1439.72
249.20	1460.20
249.42	1306.60
249.64	1396.71
249.85	1376.24
250.07	1349.61
250.29	1378.28
250.50	1382.38
250.72	1363.95
250.94	1437.67
251.16	1425.39
251.37	1427.43
251.59	1345.52
251.81	1288.17
252.02	1488.87
252.24	1413.10
252.46	1435.63
252.68	1423.34
252.89	1322.99
253.11	1308.65
253.33	1386.47
253.54	1466.35
253.76	1275.88
253.98	1316.84
254.20	1312.75
254.41	1345.52
254.63	1351.66
254.85	1322.99
255.06	1382.38
255.28	1372.14
255.50	1331.18
255.71	1374.19
255.93	1417.19
256.15	1347.56
256.36	1404.91
256.58	1347.56
256.80	1443.82
257.02	1400.81
257.23	1411.05
257.45	1368.04
257.67	1384.43
257.88	1398.76
258.10	1415.15
258.32	1394.67
258.53	1386.47
258.75	1398.76
258.97	1384.43
259.18	1355.76
259.40	1400.81
259.62	1380.33
259.83	1372.14
260.05	1378.28
260.27	1441.77
260.48	1372.14
260.70	1333.23
260.92	1363.95
261.13	1435.63
261.35	1341.42
261.57	1419.24
261.78	1325.04
262.00	1359.85
262.22	1333.23
262.43	1363.95
262.65	1355.76
262.86	1300.46
263.08	1419.24
263.30	1392.62
263.51	1277.93
263.73	1341.42
263.95	1517.54
264.16	1417.19
264.38	1329.13
264.60	1316.84
264.81	1382.38
265.03	1345.52
265.25	1478.63
265.46	1447.91
265.68	1363.95
265.89	1351.66
266.11	1411.05
266.33	1370.09
266.54	1460.20
266.76	1406.95
266.98	1431.53
267.19	1454.06
267.41	1404.91
267.62	1406.95
267.84	1269.74
268.06	1355.76
268.27	1392.62
268.49	1427.43
268.70	1361.90
268.92	1347.56
269.14	1277.93
269.35	1316.84
269.57	1347.56
269.79	1390.57
270.00	1390.57
270.22	1492.97
270.43	1306.60
270.65	1298.41
270.87	1345.52
271.08	1341.42
271.30	1419.24
271.51	1341.42
271.73	1333.23
271.95	1376.24
272.16	1308.65
272.38	1392.62
272.59	1402.86
272.81	1400.81
273.02	1398.76
273.24	1384.43
273.46	1366.00
273.67	1361.90
273.89	1370.09
274.10	1302.51
274.32	1409.00
274.54	1390.57
274.75	1441.77
274.97	1355.76
275.18	1310.70
275.40	1353.71
275.61	1320.94
275.83	1392.62
276.05	1310.70
276.26	1464.30
276.48	1355.76
276.69	1345.52
276.91	1335.28
277.12	1433.58
277.34	1421.29
277.55	1386.47
277.77	1382.38
277.99	1378.28
278.20	1308.65
278.42	1308.65
278.63	1351.66
278.85	1351.66
279.06	1345.52
279.28	1347.56
279.49	1415.15
279.71	1419.24
279.93	1411.05
280.14	1396.71
280.36	1320.94
280.57	1353.71
280.79	1425.39
281.00	1331.18
281.22	1341.42
281.43	1322.99
281.65	1232.88
281.86	1298.41
282.08	1435.63
282.29	1380.33
282.51	1378.28
282.73	1335.28
282.94	1304.56
283.16	1378.28
283.37	1404.91
283.59	1335.28
283.80	1370.09
284.02	1325.04
284.23	1306.60
284.45	1347.56
284.66	1298.41
284.88	1390.57
285.09	1376.24
285.31	1353.71
285.52	1460.20
285.74	1310.70
285.95	1417.19
286.17	1409.00
286.38	1359.85
286.60	1308.65
286.81	1421.29
287.03	1439.72
287.24	1388.52
287.46	1376.24
287.67	1292.27
287.89	1423.34
288.10	1327.08
288.32	1318.89
288.53	1419.24
288.75	1366.00
288.96	1355.76
289.18	1298.41
289.39	1269.74
289.61	1456.11
289.82	1425.39
290.04	1427.43
290.25	1220.59
290.47	1357.80
290.68	1406.95
290.90	1400.81
291.11	1261.55
291.33	1396.71
291.54	1339.37
291.76	1320.94
291.97	1400.81
292.18	1437.67
292.40	1353.71
292.61	1355.76
292.83	1521.64
293.04	1433.58
293.26	1353.71
293.47	1431.53
293.69	1347.56
293.90	1331.18
294.12	1382.38
294.33	1361.90
294.55	1382.38
294.76	1396.71
294.97	1431.53
295.19	1454.06
295.40	1368.04
295.62	1427.43
295.83	1404.91
296.05	1316.84
296.26	1425.39
296.48	1302.51
296.69	1271.79
296.90	1353.71
297.12	1382.38
297.33	1347.56
297.55	1374.19
297.76	1347.56
297.98	1411.05
298.19	1429.48
298.41	1431.53
298.62	1396.71
298.83	1425.39
299.05	1378.28
299.26	1355.76
299.48	1376.24
299.69	1404.91
299.90	1394.67
300.12	1318.89
300.33	1361.90
300.55	1427.43
300.76	1372.14
300.98	1284.08
301.19	1376.24
301.40	1370.09
301.62	1363.95
301.83	1417.19
302.05	1370.09
302.26	1351.66
302.47	1316.84
302.69	1320.94
302.90	1374.19
303.12	1320.94
303.33	1402.86
303.54	1513.45
303.76	1386.47
303.97	1314.80
304.19	1443.82
304.40	1351.66
304.61	1372.14
304.83	1400.81
305.04	1355.76
305.26	1413.10
305.47	1353.71
305.68	1347.56
305.90	1228.78
306.11	1284.08
306.33	1329.13
306.54	1363.95
306.75	1284.08
306.97	1273.84
307.18	1343.47
307.39	1359.85
307.61	1396.71
307.82	1355.76
308.04	1409.00
308.25	1349.61
308.46	1400.81
308.68	1413.10
308.89	1370.09
309.10	1363.95
309.32	1435.63
309.53	1372.14
309.74	1413.10
309.96	1363.95
310.17	1415.15
310.39	1347.56
310.60	1374.19
310.81	1415.15
311.03	1249.26
311.24	1388.52
311.45	1312.75
311.67	1437.67
311.88	1368.04
312.09	1314.80
312.31	1286.12
312.52	1400.81
312.73	1341.42
312.95	1372.14
313.16	1322.99
313.37	1390.57
313.59	1394.67
313.80	1429.48
314.01	1402.86
314.23	1355.76
314.44	1325.04
314.65	1290.22
314.87	1320.94
315.08	1339.37
315.29	1333.23
315.51	1357.80
315.72	1322.99
315.93	1429.48
316.15	1427.43
316.36	1378.28
316.57	1304.56
316.79	1425.39
317.00	1372.14
317.21	1464.30
317.43	1318.89
317.64	1357.80
317.85	1402.86
318.07	1394.67
318.28	1492.97
318.49	1564.65
318.70	1662.95
318.92	1564.65
319.13	1519.59
319.34	1585.13
319.56	1454.06
319.77	1447.91
319.98	1488.87
320.20	1513.45
320.41	1429.48
320.62	1406.95
320.83	1341.42
321.05	1476.59
321.26	1337.32
321.47	1394.67
321.69	1388.52
321.90	1294.32
322.11	1411.05
322.32	1384.43
322.54	1456.11
322.75	1409.00
322.96	1372.14
323.18	1331.18
323.39	1349.61
323.60	1302.51
323.81	1388.52
324.03	1286.12
324.24	1363.95
324.45	1386.47
324.66	1345.52
324.88	1406.95
325.09	1370.09
325.30	1343.47
325.52	1345.52
325.73	1361.90
325.94	1361.90
326.15	1341.42
326.37	1466.35
326.58	1409.00
326.79	1327.08
327.00	1392.62
327.22	1331.18
327.43	1398.76
327.64	1337.32
327.85	1368.04
328.07	1308.65
328.28	1404.91
328.49	1359.85
328.70	1320.94
328.92	1351.66
329.13	1302.51
329.34	1413.10
329.55	1378.28
329.76	1449.96
329.98	1396.71
330.19	1382.38
330.40	1374.19
330.61	1320.94
330.83	1413.10
331.04	1396.71
331.25	1327.08
331.46	1417.19
331.68	1261.55
331.89	1394.67
332.10	1390.57
332.31	1345.52
332.52	1398.76
332.74	1419.24
332.95	1415.15
333.16	1382.38
333.37	1464.30
333.58	1345.52
333.80	1382.38
334.01	1359.85
334.22	1409.00
334.43	1312.75
334.64	1351.66
334.86	1306.60
335.07	1314.80
335.28	1413.10
335.49	1359.85
335.70	1380.33
335.92	1421.29
336.13	1521.64
336.34	1349.61
336.55	1386.47
336.76	1425.39
336.98	1335.28
337.19	1335.28
337.40	1392.62
337.61	1404.91
337.82	1392.62
338.04	1417.19
338.25	1361.90
338.46	1400.81
338.67	1363.95
338.88	1300.46
339.09	1331.18
339.31	1380.33
339.52	1343.47
339.73	1322.99
339.94	1411.05
340.15	1486.83
340.36	1355.76
340.58	1429.48
340.79	1325.04
341.00	1370.09
341.21	1361.90
341.42	1419.24
341.63	1306.60
341.85	1376.24
342.06	1368.04
342.27	1316.84
342.48	1466.35
342.69	1366.00
342.90	1380.33
343.12	1456.11
343.33	1380.33
343.54	1392.62
343.75	1482.73
343.96	1368.04
344.17	1404.91
344.38	1343.47
344.60	1419.24
344.81	1255.40
345.02	1468.39
345.23	1456.11
345.44	1488.87
345.65	1366.00
345.86	1370.09
346.07	1396.71
346.29	1370.09
346.50	1374.19
346.71	1400.81
346.92	1368.04
347.13	1406.95
347.34	1425.39
347.55	1421.29
347.76	1447.91
347.98	1374.19
348.19	1345.52
348.40	1449.96
348.61	1320.94
348.82	1486.83
349.03	1382.38
349.24	1316.84
349.45	1380.33
349.66	1355.76
349.88	1370.09
350.09	1322.99
350.30	1392.62
350.51	1390.57
350.72	1368.04
350.93	1337.32
351.14	1349.61
351.35	1406.95
351.56	1378.28
351.77	1419.24
351.99	1447.91
352.20	1443.82
352.41	1419.24
352.62	1392.62
352.83	1406.95
353.04	1357.80
353.25	1335.28
353.46	1380.33
353.67	1415.15
353.88	1288.17
354.09	1325.04
354.30	1441.77
354.52	1351.66
354.73	1366.00
354.94	1343.47
355.15	1347.56
355.36	1445.87
355.57	1396.71
355.78	1363.95
355.99	1331.18
356.20	1314.80
356.41	1349.61
356.62	1445.87
356.83	1361.90
357.04	1419.24
357.25	1335.28
357.46	1376.24
357.68	1355.76
357.89	1386.47
358.10	1320.94
358.31	1409.00
358.52	1353.71
358.73	1376.24
358.94	1452.01
359.15	1368.04
359.36	1417.19
359.57	1335.28
359.78	1376.24
359.99	1355.76
360.20	1402.86
360.41	1421.29
360.62	1413.10
360.83	1384.43
361.04	1470.44
361.25	1402.86
361.46	1398.76
361.67	1339.37
361.88	1443.82
362.09	1394.67
362.30	1437.67
362.51	1368.04
362.72	1409.00
362.93	1456.11
363.14	1423.34
363.35	1476.59
363.56	1298.41
363.78	1396.71
363.99	1425.39
364.20	1296.36
364.41	1372.14
364.62	1355.76
364.83	1384.43
365.04	1392.62
365.25	1376.24
365.46	1378.28
365.67	1359.85
365.88	1388.52
366.09	1298.41
366.30	1372.14
366.51	1355.76
366.72	1314.80
366.93	1312.75
367.14	1335.28
367.35	1427.43
367.56	1361.90
367.77	1441.77
367.98	1347.56
368.18	1386.47
368.39	1394.67
368.60	1394.67
368.81	1294.32
369.02	1345.52
369.23	1288.17
369.44	1288.17
369.65	1419.24
369.86	1404.91
370.07	1351.66
370.28	1388.52
370.49	1437.67
370.70	1335.28
370.91	1327.08
371.12	1359.85
371.33	1290.22
371.54	1335.28
371.75	1419.24
371.96	1370.09
372.17	1294.32
372.38	1361.90
372.59	1388.52
372.80	1368.04
373.01	1380.33
373.22	1306.60
373.43	1400.81
373.64	1327.08
373.85	1437.67
374.06	1390.57
374.26	1419.24
374.47	1345.52
374.68	1454.06
374.89	1384.43
375.10	1361.90
375.31	1429.48
375.52	1363.95
375.73	1394.67
375.94	1415.15
376.15	1378.28
376.36	1394.67
376.57	1363.95
376.78	1347.56
376.99	1343.47
377.20	1322.99
377.40	1339.37
377.61	1386.47
377.82	1288.17
378.03	1460.20
378.24	1386.47
378.45	1388.52
378.66	1370.09
378.87	1388.52
379.08	1333.23
379.29	1402.86
379.50	1325.04
379.71	1392.62
379.91	1443.82
380.12	1398.76
380.33	1415.15
380.54	1388.52
380.75	1380.33
380.96	1398.76
381.17	1425.39
381.38	1499.11
381.59	1452.01
381.80	1425.39
382.00	1513.45
382.21	1394.67
382.42	1392.62
382.63	1482.73
382.84	1472.49
383.05	1368.04
383.26	1503.21
383.47	1366.00
383.68	1404.91
383.88	1374.19
384.09	1392.62
384.30	1525.74
384.51	1339.37
384.72	1384.43
384.93	1333.23
385.14	1413.10
385.35	1449.96
385.55	1423.34
385.76	1447.91
385.97	1396.71
386.18	1384.43
386.39	1415.15
386.60	1402.86
386.81	1411.05
387.02	1376.24
387.22	1343.47
387.43	1404.91
387.64	1583.08
387.85	2236.38
388.06	5822.38
388.27	9455.47
388.48	11597.65
388.68	13109.05
388.89	13387.57
389.10	10772.32
389.31	9150.32
389.52	8376.19
389.73	7495.57
389.93	6907.80
390.14	6389.66
390.35	6139.81
390.56	5429.17
390.77	4607.93
390.98	3657.67
391.18	2811.86
391.39	2136.03
391.60	1806.31
391.81	1523.69
392.02	1449.96
392.23	1515.50
392.43	1445.87
392.64	1423.34
392.85	1355.76
393.06	1441.77
393.27	1351.66
393.47	1363.95
393.68	1402.86
393.89	1333.23
394.10	1378.28
394.31	1396.71
394.52	1345.52
394.72	1409.00
394.93	1478.63
395.14	1443.82
395.35	1431.53
395.56	1361.90
395.76	1519.59
395.97	1576.94
396.18	1619.94
396.39	1556.46
396.60	1718.25
396.80	1505.26
397.01	1509.35
397.22	1437.67
397.43	1552.36
397.64	1415.15
397.84	1411.05
398.05	1548.26
398.26	1449.96
398.47	1478.63
398.67	1441.77
398.88	1366.00
399.09	1390.57
399.30	1388.52
399.51	1435.63
399.71	1366.00
399.92	1368.04
400.13	1425.39
400.34	1353.71
400.54	1404.91
400.75	1449.96
400.96	1351.66
401.17	1445.87
401.37	1429.48
401.58	1400.81
401.79	1472.49
402.00	1740.77
402.21	1875.94
402.41	1822.69
402.62	1748.97
402.83	1742.82
403.04	1710.05
403.24	1650.66
403.45	1546.22
403.66	1601.51
403.87	1548.26
404.07	1667.05
404.28	1552.36
404.49	1548.26
404.70	1439.72
404.90	1474.54
405.11	1353.71
405.32	1441.77
405.52	1388.52
405.73	1335.28
405.94	1351.66
406.15	1331.18
406.35	1335.28
406.56	1355.76
406.77	1394.67
406.98	1298.41
407.18	1404.91
407.39	1402.86
407.60	1370.09
407.80	1372.14
408.01	1357.80
408.22	1372.14
408.43	1353.71
408.63	1378.28
408.84	1396.71
409.05	1409.00
409.25	1392.62
409.46	1370.09
409.67	1337.32
409.88	1357.80
410.08	1470.44
410.29	1396.71
410.50	1390.57
410.70	1337.32
410.91	1339.37
411.12	1349.61
411.32	1302.51
411.53	1349.61
411.74	1503.21
411.95	1456.11
412.15	1441.77
412.36	1435.63
412.57	1359.85
412.77	1470.44
412.98	1433.58
413.19	1374.19
413.39	1447.91
413.60	1423.34
413.81	1423.34
414.01	1435.63
414.22	1431.53
414.43	1347.56
414.63	1314.80
414.84	1427.43
415.05	1357.80
415.25	1452.01
415.46	1396.71
415.67	1404.91
415.87	1402.86
416.08	1339.37
416.29	1437.67
416.49	1394.67
416.70	1376.24
416.91	1361.90
417.11	1413.10
417.32	1521.64
417.53	1363.95
417.73	1380.33
417.94	1327.08
418.15	1366.00
418.35	1357.80
418.56	1370.09
418.77	1452.01
418.97	1359.85
419.18	1347.56
419.38	1366.00
419.59	1341.42
419.80	1404.91
420.00	1343.47
420.21	1357.80
420.42	1449.96
420.62	1427.43
420.83	1306.60
421.04	1374.19
421.24	1351.66
421.45	1372.14
421.65	1378.28
421.86	1355.76
422.07	1427.43
422.27	1427.43
422.48	1351.66
422.69	1372.14
422.89	1415.15
423.10	1337.32
423.30	1308.65
423.51	1308.65
423.72	1456.11
423.92	1435.63
424.13	1304.56
424.33	1312.75
424.54	1339.37
424.75	1382.38
424.95	1427.43
425.16	1392.62
425.36	1345.52
425.57	1449.96
425.78	1458.15
425.98	1396.71
426.19	1347.56
426.39	1271.79
426.60	1404.91
426.81	1394.67
427.01	1361.90
427.22	1447.91
427.42	1308.65
427.63	1349.61
427.83	1458.15
428.04	1439.72
428.25	1404.91
428.45	1445.87
428.66	1462.25
428.86	1347.56
429.07	1363.95
429.28	1378.28
429.48	1380.33
429.69	1349.61
429.89	1361.90
430.10	1335.28
430.30	1421.29
430.51	1402.86
430.71	1388.52
430.92	1345.52
431.13	1335.28
431.33	1374.19
431.54	1437.67
431.74	1495.02
431.95	1404.91
432.15	1322.99
432.36	1355.76
432.56	1376.24
432.77	1382.38
432.98	1392.62
433.18	1398.76
433.39	1331.18
433.59	1302.51
433.80	1449.96
434.00	1472.49
434.21	1296.36
434.41	1353.71
434.62	1482.73
434.82	1300.46
435.03	1302.51
435.23	1333.23
435.44	1310.70
435.64	1320.94
435.85	1368.04
436.06	1400.81
436.26	1374.19
436.47	1392.62
436.67	1378.28
436.88	1318.89
437.08	1404.91
437.29	1392.62
437.49	1376.24
437.70	1419.24
437.90	1417.19
438.11	1542.12
438.31	1474.54
438.52	1583.08
438.72	1570.79
438.93	1595.37
439.13	1421.29
439.34	1509.35
439.54	1437.67
439.75	1421.29
439.95	1423.34
440.16	1443.82
440.36	1411.05
440.57	1447.91
440.77	1523.69
440.98	1388.52
441.18	1390.57
441.39	1388.52
441.59	1345.52
441.80	1472.49
442.00	1409.00
442.21	1376.24
442.41	1361.90
442.62	1433.58
442.82	1345.52
443.02	1411.05
443.23	1335.28
443.43	1411.05
443.64	1460.20
443.84	1353.71
444.05	1480.68
444.25	1427.43
444.46	1351.66
444.66	1366.00
444.87	1468.39
445.07	1286.12
445.28	1380.33
445.48	1499.11
445.69	1419.24
445.89	1454.06
446.09	1578.98
446.30	2277.34
446.50	3600.33
446.71	4632.51
446.91	5265.33
447.12	5584.81
447.32	5068.72
447.53	4165.57
447.73	3667.91
447.93	3461.07
448.14	3211.22
448.34	3108.82
448.55	2789.33
448.75	2877.40
448.96	2652.12
449.16	2351.07
449.36	2254.81
449.57	1996.77
449.77	1742.82
449.98	1601.51
450.18	1535.98
450.39	1566.70
450.59	1452.01
450.79	1413.10
451.00	1331.18
451.20	1415.15
451.41	1394.67
451.61	1423.34
451.81	1347.56
452.02	1361.90
452.22	1388.52
452.43	1322.99
452.63	1314.80
452.84	1361.90
453.04	1288.17
453.24	1386.47
453.45	1359.85
453.65	1363.95
453.86	1417.19
454.06	1288.17
454.26	1359.85
454.47	1331.18
454.67	1386.47
454.87	1368.04
455.08	1335.28
455.28	1490.92
455.49	1380.33
455.69	1366.00
455.89	1468.39
456.10	1423.34
456.30	1363.95
456.51	1386.47
456.71	1458.15
456.91	1333.23
457.12	1413.10
457.32	1351.66
457.52	1380.33
457.73	1361.90
457.93	1435.63
458.14	1316.84
458.34	1271.79
458.54	1390.57
458.75	1322.99
458.95	1382.38
459.15	1320.94
459.36	1363.95
459.56	1427.43
459.76	1447.91
459.97	1390.57
460.17	1433.58
460.37	1347.56
460.58	1339.37
460.78	1388.52
460.99	1400.81
461.19	1394.67
461.39	1302.51
461.60	1333.23
461.80	1409.00
462.00	1376.24
462.21	1300.46
462.41	1404.91
462.61	1337.32
462.82	1353.71
463.02	1402.86
463.22	1382.38
463.43	1417.19
463.63	1425.39
463.83	1417.19
464.04	1353.71
464.24	1355.76
464.44	1327.08
464.64	1425.39
464.85	1300.46
465.05	1413.10
465.25	1327.08
465.46	1427.43
465.66	1419.24
465.86	1390.57
466.07	1370.09
466.27	1378.28
466.47	1298.41
466.68	1288.17
466.88	1464.30
467.08	1331.18
467.29	1427.43
467.49	1433.58
467.69	1396.71
467.89	1331.18
468.10	1353.71
468.30	1417.19
468.50	1359.85
468.71	1368.04
468.91	1402.86
469.11	1415.15
469.31	1390.57
469.52	1322.99
469.72	1388.52
469.92	1472.49
470.13	1279.98
470.33	1454.06
470.53	1611.75
470.73	2074.59
470.94	2234.33
471.14	2445.27
471.34	2430.94
471.54	2187.23
471.75	1986.53
471.95	1927.14
472.15	1929.19
472.36	1904.61
472.56	1826.79
472.76	1718.25
472.96	1693.67
473.17	1697.77
473.37	1644.52
473.57	1538.02
473.77	1542.12
473.98	1439.72
474.18	1423.34
474.38	1497.07
474.58	1402.86
474.79	1316.84
474.99	1439.72
475.19	1388.52
475.39	1279.98
475.60	1368.04
475.80	1382.38
476.00	1380.33
476.20	1372.14
476.41	1361.90
476.61	1486.83
476.81	1470.44
477.01	1396.71
477.21	1476.59
477.42	1474.54
477.62	1366.00
477.82	1337.32
478.02	1433.58
478.23	1361.90
478.43	1392.62
478.63	1298.41
478.83	1349.61
479.03	1349.61
479.24	1345.52
479.44	1474.54
479.64	1368.04
479.84	1337.32
480.04	1337.32
480.25	1345.52
480.45	1325.04
480.65	1372.14
480.85	1374.19
481.06	1337.32
481.26	1290.22
481.46	1474.54
481.66	1400.81
481.86	1435.63
482.06	1441.77
482.27	1441.77
482.47	1406.95
482.67	1384.43
482.87	1415.15
483.07	1439.72
483.28	1400.81
483.48	1372.14
483.68	1347.56
483.88	1279.98
484.08	1353.71
484.29	1304.56
484.49	1400.81
484.69	1404.91
484.89	1454.06
485.09	1359.85
485.29	1333.23
485.50	1378.28
485.70	1392.62
485.90	1449.96
486.10	1384.43
486.30	1368.04
486.50	1378.28
486.71	1406.95
486.91	1402.86
487.11	1409.00
487.31	1318.89
487.51	1413.10
487.71	1359.85
487.91	1437.67
488.12	1374.19
488.32	1331.18
488.52	1366.00
488.72	1417.19
488.92	1345.52
489.12	1466.35
489.32	1437.67
489.53	1345.52
489.73	1310.70
489.93	1460.20
490.13	1314.80
490.33	1288.17
490.53	1437.67
490.73	1441.77
490.94	1273.84
491.14	1454.06
491.34	1662.95
491.54	2220.00
491.74	2572.25
491.94	3016.66
492.14	3082.19
492.34	2916.31
492.54	2547.67
492.75	2297.82
492.95	2170.85
493.15	2113.50
493.35	2021.35
493.55	2019.30
493.75	1910.75
493.95	1837.03
494.15	1773.54
494.35	1636.33
494.56	1665.00
494.76	1505.26
494.96	1484.78
495.16	1437.67
495.36	1423.34
495.56	1386.47
495.76	1304.56
495.96	1333.23
496.16	1368.04
496.36	1425.39
496.56	1419.24
496.77	1396.71
496.97	1386.47
497.17	1437.67
497.37	1386.47
497.57	1445.87
497.77	1398.76
497.97	1445.87
498.17	1327.08
498.37	1396.71
498.57	1329.13
498.77	1378.28
498.97	1406.95
499.17	1499.11
499.38	1386.47
499.58	1439.72
499.78	1417.19
499.98	1398.76
500.18	1376.24
500.38	1363.95
500.58	1652.71
500.78	2856.92
500.98	5414.83
501.18	6924.18
501.38	8220.55
501.58	8445.82
501.78	7407.50
501.98	5867.43
502.18	5078.96
502.38	4661.18
502.58	4251.58
502.78	3667.91
502.98	3688.39
503.18	3428.30
503.38	3284.94
503.59	3082.19
503.79	2764.76
503.99	2668.50
504.19	2379.74
504.39	2121.70
504.59	2013.15
504.79	1814.50
504.99	1728.49
505.19	1689.57
505.39	1527.78
505.59	1607.66
505.79	1497.07
505.99	1441.77
506.19	1585.13
506.39	1484.78
506.59	1499.11
506.79	1429.48
506.99	1406.95
507.19	1509.35
507.39	1501.16
507.59	1380.33
507.79	1368.04
507.99	1402.86
508.19	1327.08
508.39	1376.24
508.59	1359.85
508.79	1458.15
508.99	1439.72
509.19	1386.47
509.39	1361.90
509.59	1372.14
509.79	1386.47
509.99	1386.47
510.19	1447.91
510.39	1382.38
510.59	1308.65
510.79	1349.61
510.99	1333.23
511.19	1368.04
511.39	1353.71
511.59	1454.06
511.79	1441.77
511.99	1417.19
512.19	1337.32
512.38	1386.47
512.58	1325.04
512.78	1380.33
512.98	1449.96
513.18	1443.82
513.38	1341.42
513.58	1382.38
513.78	1329.13
513.98	1380.33
514.18	1376.24
514.38	1337.32
514.58	1392.62
514.78	1361.90
514.98	1363.95
515.18	1394.67
515.38	1345.52
515.58	1454.06
515.78	1316.84
515.98	1353.71
516.18	1429.48
516.38	1337.32
516.57	1347.56
516.77	1345.52
516.97	1380.33
517.17	1347.56
517.37	1275.88
517.57	1421.29
517.77	1363.95
517.97	1329.13
518.17	1429.48
518.37	1406.95
518.57	1398.76
518.77	1400.81
518.97	1363.95
519.16	1427.43
519.36	1349.61
519.56	1339.37
519.76	1359.85
519.96	1398.76
520.16	1445.87
520.36	1243.12
520.56	1419.24
520.76	1376.24
520.96	1374.19
521.16	1443.82
521.35	1462.25
521.55	1439.72
521.75	1368.04
521.95	1378.28
522.15	1392.62
522.35	1347.56
522.55	1390.57
522.75	1400.81
522.95	1417.19
523.14	1302.51
523.34	1374.19
523.54	1431.53
523.74	1355.76
523.94	1388.52
524.14	1314.80
524.34	1386.47
524.54	1372.14
524.73	1302.51
524.93	1433.58
525.13	1384.43
525.33	1314.80
525.53	1421.29
525.73	1366.00
525.93	1386.47
526.13	1394.67
526.32	1396.71
526.52	1415.15
526.72	1429.48
526.92	1366.00
527.12	1392.62
527.32	1273.84
527.52	1411.05
527.71	1392.62
527.91	1374.19
528.11	1384.43
528.31	1433.58
528.51	1298.41
528.71	1343.47
528.90	1343.47
529.10	1349.61
529.30	1449.96
529.50	1261.55
529.70	1376.24
529.90	1404.91
530.09	1339.37
530.29	1320.94
530.49	1366.00
530.69	1480.68
530.89	1437.67
531.09	1384.43
531.28	1388.52
531.48	1468.39
531.68	1384.43
531.88	1509.35
532.08	1417.19
532.28	1351.66
532.47	1339.37
532.67	1382.38
532.87	1454.06
533.07	1361.90
533.27	1419.24
533.46	1406.95
533.66	1390.57
533.86	1400.81
534.06	1363.95
534.26	1495.02
534.45	1417.19
534.65	1495.02
534.85	1296.36
535.05	1337.32
535.25	1484.78
535.44	1357.80
535.64	1427.43
535.84	1388.52
536.04	1308.65
536.24	1339.37
536.43	1355.76
536.63	1423.34
536.83	1355.76
537.03	1394.67
537.22	1335.28
537.42	1343.47
537.62	1347.56
537.82	1275.88
538.02	1476.59
538.21	1376.24
538.41	1488.87
538.61	1337.32
538.81	1357.80
539.00	1447.91
539.20	1361.90
539.40	1304.56
539.60	1419.24
539.79	1484.78
539.99	1298.41
540.19	1345.52
540.39	1368.04
540.58	1353.71
540.78	1421.29
540.98	1363.95
541.18	1419.24
541.37	1406.95
541.57	1417.19
541.77	1421.29
541.97	1337.32
542.16	1347.56
542.36	1384.43
542.56	1355.76
542.76	1398.76
542.95	1318.89
543.15	1368.04
543.35	1339.37
543.54	1310.70
543.74	1374.19
543.94	1361.90
544.14	1349.61
544.33	1318.89
544.53	1380.33
544.73	1431.53
544.93	1361.90
545.12	1335.28
545.32	1398.76
545.52	1355.76
545.71	1380.33
545.91	1394.67
546.11	1341.42
546.30	1335.28
546.50	1402.86
546.70	1460.20
546.90	1376.24
547.09	1353.71
547.29	1388.52
547.49	1318.89
547.68	1439.72
547.88	1341.42
548.08	1357.80
548.27	1640.42
548.47	1361.90
548.67	1333.23
548.87	1353.71
549.06	1363.95
549.26	1376.24
549.46	1411.05
549.65	1314.80
549.85	1370.09
550.05	1341.42
550.24	1290.22
550.44	1409.00
550.64	1386.47
550.83	1398.76
551.03	1372.14
551.23	1370.09
551.42	1331.18
551.62	1376.24
551.82	1423.34
552.01	1423.34
552.21	1398.76
552.41	1361.90
552.60	1322.99
552.80	1361.90
553.00	1347.56
553.19	1318.89
553.39	1406.95
553.59	1355.76
553.78	1413.10
553.98	1390.57
554.17	1343.47
554.37	1380.33
554.57	1411.05
554.76	1368.04
554.96	1378.28
555.16	1341.42
555.35	1345.52
555.55	1439.72
555.75	1368.04
555.94	1462.25
556.14	1447.91
556.33	1382.38
556.53	1400.81
556.73	1388.52
556.92	1445.87
557.12	1445.87
557.32	1433.58
557.51	1368.04
557.71	1431.53
557.90	1458.15
558.10	1357.80
558.30	1390.57
558.49	1316.84
558.69	1361.90
558.88	1429.48
559.08	1353.71
559.28	1384.43
559.47	1372.14
559.67	1409.00
559.86	1402.86
560.06	1296.36
560.26	1339.37
560.45	1361.90
560.65	1343.47
560.84	1404.91
561.04	1374.19
561.24	1431.53
561.43	1329.13
561.63	1452.01
561.82	1353.71
562.02	1294.32
562.22	1335.28
562.41	1411.05
562.61	1306.60
562.80	1318.89
563.00	1513.45
563.19	1413.10
563.39	1421.29
563.59	1345.52
563.78	1337.32
563.98	1316.84
564.17	1392.62
564.37	1320.94
564.56	1361.90
564.76	1382.38
564.96	1433.58
565.15	1423.34
565.35	1462.25
565.54	1335.28
565.74	1339.37
565.93	1341.42
566.13	1374.19
566.32	1413.10
566.52	1378.28
566.71	1341.42
566.91	1427.43
567.11	1341.42
567.30	1325.04
567.50	1445.87
567.69	1409.00
567.89	1359.85
568.08	1353.71
568.28	1394.67
568.47	1495.02
568.67	1382.38
568.86	1337.32
569.06	1425.39
569.25	1386.47
569.45	1447.91
569.64	1304.56
569.84	1335.28
570.04	1361.90
570.23	1392.62
570.43	1435.63
570.62	1353.71
570.82	1429.48
571.01	1398.76
571.21	1419.24
571.40	1415.15
571.60	1415.15
571.79	1355.76
571.99	1320.94
572.18	1284.08
572.38	1449.96
572.57	1413.10
572.77	1417.19
572.96	1482.73
573.16	1363.95
573.35	1396.71
573.55	1388.52
573.74	1341.42
573.94	1359.85
574.13	1404.91
574.33	1466.35
574.52	1464.30
574.71	1372.14
574.91	1417.19
575.10	1390.57
575.30	1402.86
575.49	1322.99
575.69	1419.24
575.88	1513.45
576.08	1376.24
576.27	1427.43
576.47	1425.39
576.66	1581.03
576.86	1466.35
577.05	1470.44
577.25	1497.07
577.44	1447.91
577.64	1384.43
577.83	1513.45
578.02	1470.44
578.22	1429.48
578.41	1413.10
578.61	1419.24
578.80	1394.67
579.00	1413.10
579.19	1376.24
579.39	1398.76
579.58	1419.24
579.77	1396.71
579.97	1521.64
580.16	1435.63
580.36	1499.11
580.55	1511.40
580.75	1472.49
580.94	1429.48
581.13	1499.11
581.33	1521.64
581.52	1482.73
581.72	1581.03
581.91	1513.45
582.11	1409.00
582.30	1472.49
582.49	1466.35
582.69	1497.07
582.88	1441.77
583.08	1402.86
583.27	1456.11
583.47	1441.77
583.66	1374.19
583.85	1409.00
584.05	1419.24
584.24	1454.06
584.44	1482.73
584.63	1507.30
584.82	1548.26
585.02	1554.41
585.21	1576.94
585.41	1662.95
585.60	1560.55
585.79	1720.29
585.99	1638.38
586.18	1634.28
586.37	1845.22
586.57	2734.04
586.76	7972.74
586.96	24336.01
587.15	41405.83
587.34	52565.21
587.54	59997.29
587.73	59583.60
587.93	45215.05
588.12	33011.21
588.31	26793.58
588.51	22560.42
588.70	20094.67
588.89	18589.41
589.09	17182.46
589.28	15978.25
589.47	14487.33
589.67	12685.12
589.86	10651.49
590.06	8730.49
590.25	6606.75
590.44	5031.86
590.64	3612.62
590.83	2912.21
591.02	2265.05
591.22	1863.65
591.41	1765.35
591.60	1656.81
591.80	1621.99
591.99	1499.11
592.18	1476.59
592.38	1458.15
592.57	1439.72
592.76	1470.44
592.96	1394.67
593.15	1439.72
593.34	1472.49
593.54	1509.35
593.73	1415.15
593.92	1419.24
594.12	1380.33
594.31	1464.30
594.50	1554.41
594.70	1501.16
594.89	1513.45
595.08	1402.86
595.28	1445.87
595.47	1431.53
595.66	1382.38
595.86	1335.28
596.05	1433.58
596.24	1425.39
596.43	1415.15
596.63	1472.49
596.82	1386.47
597.01	1421.29
597.21	1523.69
597.40	1449.96
597.59	1472.49
597.79	1417.19
597.98	1433.58
598.17	1402.86
598.36	1423.34
598.56	1445.87
598.75	1415.15
598.94	1435.63
599.14	1478.63
599.33	1351.66
599.52	1337.32
599.71	1525.74
599.91	1423.34
600.10	1357.80
600.29	1427.43
600.48	1443.82
600.68	1400.81
600.87	1421.29
601.06	1376.24
601.26	1372.14
601.45	1366.00
601.64	1359.85
601.83	1464.30
602.03	1359.85
602.22	1327.08
602.41	1464.30
602.60	1497.07
602.80	1409.00
602.99	1394.67
603.18	1417.19
603.37	1398.76
603.57	1380.33
603.76	1478.63
603.95	1353.71
604.14	1378.28
604.34	1392.62
604.53	1361.90
604.72	1388.52
604.91	1380.33
605.10	1435.63
605.30	1400.81
605.49	1447.91
605.68	1452.01
605.87	1415.15
606.07	1384.43
606.26	1349.61
606.45	1335.28
606.64	1368.04
606.84	1398.76
607.03	1454.06
607.22	1456.11
607.41	1335.28
607.60	1392.62
607.80	1441.77
607.99	1384.43
608.18	1359.85
608.37	1380.33
608.56	1378.28
608.76	1368.04
608.95	1525.74
609.14	1501.16
609.33	1484.78
609.52	1501.16
609.72	1517.54
609.91	1470.44
610.10	1423.34
610.29	1452.01
610.48	1327.08
610.68	1431.53
610.87	1402.86
611.06	1437.67
611.25	1347.56
611.44	1386.47
611.63	1384.43
611.83	1492.97
612.02	1337.32
612.21	1462.25
612.40	1316.84
612.59	1366.00
612.79	1273.84
612.98	1368.04
613.17	1466.35
613.36	1427.43
613.55	1480.68
613.74	1546.22
613.93	1581.03
614.13	1632.23
614.32	1617.90
614.51	1607.66
614.70	1540.07
614.89	1484.78
615.08	1456.11
615.28	1632.23
615.47	1439.72
615.66	1499.11
615.85	1470.44
616.04	1574.89
616.23	1503.21
616.42	1499.11
616.62	1535.98
616.81	1464.30
617.00	1331.18
617.19	1437.67
617.38	1447.91
617.57	1402.86
617.76	1445.87
617.95	1404.91
618.15	1435.63
618.34	1429.48
618.53	1347.56
618.72	1492.97
618.91	1372.14
619.10	1456.11
619.29	1316.84
619.48	1390.57
619.68	1325.04
619.87	1409.00
620.06	1331.18
620.25	1374.19
620.44	1320.94
620.63	1470.44
620.82	1341.42
621.01	1370.09
621.20	1394.67
621.39	1419.24
621.59	1386.47
621.78	1443.82
621.97	1366.00
622.16	1327.08
622.35	1355.76
622.54	1394.67
622.73	1392.62
622.92	1296.36
623.11	1409.00
623.30	1359.85
623.49	1341.42
623.68	1351.66
623.88	1386.47
624.07	1310.70
624.26	1388.52
624.45	1386.47
624.64	1261.55
624.83	1421.29
625.02	1368.04
625.21	1390.57
625.40	1384.43
625.59	1388.52
625.78	1355.76
625.97	1490.92
626.16	1411.05
626.35	1464.30
626.54	1527.78
626.74	1515.50
626.93	1427.43
627.12	1417.19
627.31	1402.86
627.50	1411.05
627.69	1419.24
627.88	1363.95
628.07	1460.20
628.26	1394.67
628.45	1333.23
628.64	1343.47
628.83	1427.43
629.02	1378.28
629.21	1396.71
629.40	1392.62
629.59	1398.76
629.78	1359.85
629.97	1400.81
630.16	1470.44
630.35	1327.08
630.54	1398.76
630.73	1466.35
630.92	1398.76
631.11	1298.41
631.30	1423.34
631.49	1386.47
631.68	1384.43
631.87	1398.76
632.06	1329.13
632.25	1447.91
632.44	1468.39
632.63	1378.28
632.82	1413.10
633.01	1355.76
633.20	1392.62
633.39	1452.01
633.58	1452.01
633.77	1490.92
633.96	1431.53
634.15	1486.83
634.34	1423.34
634.53	1443.82
634.72	1406.95
634.91	1378.28
635.10	1378.28
635.29	1413.10
635.48	1441.77
635.67	1349.61
635.86	1462.25
636.05	1462.25
636.24	1320.94
636.43	1327.08
636.62	1366.00
636.81	1261.55
637.00	1390.57
637.19	1384.43
637.38	1398.76
637.57	1361.90
637.76	1439.72
637.95	1421.29
638.14	1470.44
638.33	1472.49
638.52	1517.54
638.71	1417.19
638.89	1380.33
639.08	1495.02
639.27	1390.57
639.46	1464.30
639.65	1710.05
639.84	1873.89
640.03	2009.06
640.22	2082.78
640.41	2168.80
640.60	1820.64
640.79	1781.73
640.98	1634.28
641.17	1630.18
641.36	1615.85
641.55	1593.32
641.74	1462.25
641.92	1470.44
642.11	1462.25
642.30	1462.25
642.49	1509.35
642.68	1445.87
642.87	1374.19
643.06	1402.86
643.25	1322.99
643.44	1320.94
643.63	1368.04
643.82	1423.34
644.00	1406.95
644.19	1343.47
644.38	1314.80
644.57	1419.24
644.76	1312.75
644.95	1431.53
645.14	1392.62
645.33	1284.08
645.52	1370.09
645.71	1355.76
645.89	1310.70
646.08	1345.52
646.27	1374.19
646.46	1433.58
646.65	1322.99
646.84	1411.05
647.03	1343.47
647.22	1402.86
647.40	1390.57
647.59	1388.52
647.78	1353.71
647.97	1333.23
648.16	1357.80
648.35	1445.87
648.54	1363.95
648.73	1382.38
648.91	1515.50
649.10	1423.34
649.29	1273.84
649.48	1370.09
649.67	1339.37
649.86	1384.43
650.05	1454.06
650.23	1468.39
650.42	1501.16
650.61	1572.84
650.80	1519.59
650.99	1578.98
651.18	1525.74
651.36	1468.39
651.55	1419.24
651.74	1472.49
651.93	1437.67
652.12	1413.10
652.31	1511.40
652.49	1372.14
652.68	1427.43
652.87	1482.73
653.06	1423.34
653.25	1476.59
653.44	1472.49
653.62	1460.20
653.81	1415.15
654.00	1439.72
654.19	1470.44
654.38	1484.78
654.56	1441.77
654.75	1452.01
654.94	1380.33
655.13	1443.82
655.32	1372.14
655.51	1382.38
655.69	1339.37
655.88	1400.81
656.07	1310.70
656.26	1406.95
656.45	1245.16
656.63	1404.91
656.82	1409.00
657.01	1454.06
657.20	1411.05
657.38	1404.91
657.57	1368.04
657.76	1290.22
657.95	1351.66
658.14	1339.37
658.32	1454.06
658.51	1314.80
658.70	1425.39
658.89	1472.49
659.08	1402.86
659.26	1478.63
659.45	1400.81
659.64	1449.96
659.83	1396.71
660.01	1593.32
660.20	1466.35
660.39	1484.78
660.58	1415.15
660.76	1468.39
660.95	1386.47
661.14	1406.95
661.33	1333.23
661.51	1378.28
661.70	1298.41
661.89	1429.48
662.08	1363.95
662.26	1335.28
662.45	1296.36
662.64	1437.67
662.83	1351.66
663.01	1355.76
663.20	1357.80
663.39	1435.63
663.58	1347.56
663.76	1353.71
663.95	1542.12
664.14	1290.22
664.32	1380.33
664.51	1322.99
664.70	1376.24
664.89	1439.72
665.07	1306.60
665.26	1396.71
665.45	1355.76
665.64	1314.80
665.82	1409.00
666.01	1417.19
666.20	1370.09
666.38	1464.30
666.57	1429.48
666.76	1589.22
666.95	2013.15
667.13	4507.58
667.32	11423.57
667.51	18024.17
667.69	21569.21
667.88	25026.18
668.07	24733.32
668.25	19162.84
668.44	13694.77
668.63	11439.95
668.81	9101.17
669.00	8073.09
669.19	7577.48
669.38	6840.22
669.56	6242.21
669.75	5509.04
669.94	4964.28
670.12	4288.45
670.31	3549.13
670.50	2875.35
670.68	2516.95
670.87	2082.78
671.06	1830.88
671.24	1613.80
671.43	1654.76
671.62	1531.88
671.80	1437.67
671.99	1503.21
672.18	1472.49
672.36	1495.02
672.55	1492.97
672.74	1312.75
672.92	1411.05
673.11	1423.34
673.29	1406.95
673.48	1421.29
673.67	1441.77
673.85	1392.62
674.04	1384.43
674.23	1402.86
674.41	1409.00
674.60	1314.80
674.79	1282.03
674.97	1386.47
675.16	1454.06
675.34	1341.42
675.53	1331.18
675.72	1404.91
675.90	1476.59
676.09	1427.43
676.28	1333.23
676.46	1411.05
676.65	1413.10
676.83	1351.66
677.02	1429.48
677.21	1396.71
677.39	1370.09
677.58	1359.85
677.77	1388.52
677.95	1390.57
678.14	1372.14
678.32	1378.28
678.51	1370.09
678.70	1310.70
678.88	1390.57
679.07	1333.23
679.25	1355.76
679.44	1386.47
679.63	1400.81
679.81	1402.86
680.00	1421.29
680.18	1370.09
680.37	1390.57
680.55	1288.17
680.74	1279.98
680.93	1390.57
681.11	1443.82
681.30	1398.76
681.48	1318.89
681.67	1396.71
681.85	1300.46
682.04	1236.97
682.23	1374.19
682.41	1335.28
682.60	1347.56
682.78	1441.77
682.97	1370.09
683.15	1417.19
683.34	1331.18
683.53	1376.24
683.71	1329.13
683.90	1404.91
684.08	1386.47
684.27	1284.08
684.45	1445.87
684.64	1390.57
684.82	1253.36
685.01	1411.05
685.19	1462.25
685.38	1392.62
685.57	1400.81
685.75	1378.28
685.94	1382.38
686.12	1368.04
686.31	1386.47
686.49	1447.91
686.68	1300.46
686.86	1402.86
687.05	1288.17
687.23	1345.52
687.42	1417.19
687.60	1349.61
687.79	1249.26
687.97	1439.72
688.16	1470.44
688.34	1376.24
688.53	1290.22
688.71	1329.13
688.90	1400.81
689.08	1337.32
689.27	1394.67
689.45	1499.11
689.64	1380.33
689.82	1380.33
690.01	1286.12
690.19	1390.57
690.38	1351.66
690.56	1402.86
690.75	1265.64
690.93	1351.66
691.12	1357.80
691.30	1363.95
691.49	1376.24
691.67	1388.52
691.86	1363.95
692.04	1462.25
692.23	1304.56
692.41	1437.67
692.60	1546.22
692.78	1480.68
692.97	1402.86
693.15	1492.97
693.34	1527.78
693.52	1386.47
693.71	1456.11
693.89	1361.90
694.08	1343.47
694.26	1435.63
694.44	1378.28
694.63	1443.82
694.81	1351.66
695.00	1337.32
695.18	1396.71
695.37	1456.11
695.55	1417.19
695.74	1443.82
695.92	1329.13
696.10	1421.29
696.29	1388.52
696.47	1306.60
696.66	1312.75
696.84	1337.32
697.03	1419.24
697.21	1480.68
697.40	1744.87
697.58	1441.77
697.76	1355.76
697.95	1363.95
698.13	1327.08
698.32	1327.08
698.50	1341.42
698.68	1419.24
698.87	1396.71
699.05	1447.91
699.24	1376.24
699.42	1339.37
699.61	1466.35
699.79	1306.60
699.97	1441.77
700.16	1419.24
700.34	1359.85
700.53	1404.91
700.71	1439.72
700.89	1374.19
701.08	1325.04
701.26	1456.11
701.45	1681.38
701.63	1325.04
701.81	1425.39
702.00	1351.66
702.18	1331.18
702.37	1359.85
702.55	1435.63
702.73	1454.06
702.92	1533.93
703.10	1640.42
703.28	1617.90
703.47	1658.85
703.65	1703.91
703.84	1632.23
704.02	1517.54
704.20	1478.63
704.39	1447.91
704.57	1447.91
704.75	1533.93
704.94	1472.49
705.12	1443.82
705.30	1427.43
705.49	1599.46
705.67	1730.53
705.86	3680.20
706.04	8959.86
706.22	16346.89
706.41	19805.91
706.59	22707.88
706.77	23490.20
706.96	19640.02
707.14	13979.43
707.32	11353.94
707.51	9402.22
707.69	8236.93
707.87	7362.45
708.06	6875.03
708.24	6102.95
708.42	5003.19
708.61	3989.44
708.79	3100.62
708.97	2389.98
709.16	1984.48
709.34	1740.77
709.52	1630.18
709.71	1538.02
709.89	1519.59
710.07	1439.72
710.26	1402.86
710.44	1521.64
710.62	1501.16
710.80	1443.82
710.99	1435.63
711.17	1394.67
711.35	1376.24
711.54	1314.80
711.72	1417.19
711.90	1361.90
712.09	1409.00
712.27	1318.89
712.45	1380.33
712.63	1380.33
712.82	1400.81
713.00	1464.30
713.18	1372.14
713.37	1366.00
713.55	1404.91
713.73	1378.28
713.91	1386.47
714.10	1335.28
714.28	1351.66
714.46	1470.44
714.65	1312.75
714.83	1335.28
715.01	1419.24
715.19	1384.43
715.38	1294.32
715.56	1380.33
715.74	1372.14
715.92	1363.95
716.11	1484.78
716.29	1368.04
716.47	1298.41
716.65	1378.28
716.84	1298.41
717.02	1439.72
717.20	1333.23
717.38	1322.99
717.57	1409.00
717.75	1347.56
717.93	1378.28
718.11	1415.15
718.30	1363.95
718.48	1400.81
718.66	1417.19
718.84	1476.59
719.03	1349.61
719.21	1337.32
719.39	1411.05
719.57	1458.15
719.75	1363.95
719.94	1314.80
720.12	1329.13
720.30	1347.56
720.48	1486.83
720.67	1302.51
720.85	1331.18
721.03	1396.71
721.21	1361.90
721.39	1394.67
721.58	1378.28
721.76	1404.91
721.94	1419.24
722.12	1310.70
722.30	1376.24
722.49	1353.71
722.67	1398.76
722.85	1345.52
723.03	1368.04
723.21	1361.90
723.40	1361.90
723.58	1458.15
723.76	1384.43
723.94	1456.11
724.12	1433.58
724.30	1466.35
724.49	1562.60
724.67	1404.91
724.85	1425.39
725.03	1394.67
725.21	1499.11
725.40	1540.07
725.58	1370.09
725.76	1439.72
725.94	1470.44
726.12	1349.61
726.30	1449.96
726.49	1394.67
726.67	1380.33
726.85	1452.01
727.03	1376.24
727.21	1533.93
727.39	1505.26
727.57	2127.84
727.76	3399.63
727.94	4392.89
728.12	4898.74
728.30	5324.72
728.48	5056.43
728.66	4227.01
728.84	3645.38
729.03	3131.34
729.21	2891.73
729.39	2570.20
729.57	2224.09
729.75	1951.71
729.93	1820.64
730.11	1621.99
730.30	1572.84
730.48	1462.25
730.66	1480.68
730.84	1396.71
731.02	1366.00
731.20	1402.86
731.38	1386.47
731.56	1374.19
731.74	1306.60
731.93	1427.43
732.11	1404.91
732.29	1366.00
732.47	1316.84
732.65	1376.24
732.83	1460.20
733.01	1372.14
733.19	1318.89
733.37	1386.47
733.56	1411.05
733.74	1341.42
733.92	1341.42
734.10	1345.52
734.28	1349.61
734.46	1210.35
734.64	1355.76
734.82	1306.60
735.00	1368.04
735.18	1411.05
735.36	1398.76
735.54	1355.76
735.73	1353.71
735.91	1392.62
736.09	1456.11
736.27	1394.67
736.45	1413.10
736.63	1359.85
736.81	1394.67
736.99	1435.63
737.17	1458.15
737.35	1388.52
737.53	1466.35
737.71	1421.29
737.89	1476.59
738.07	1294.32
738.25	1337.32
738.43	1368.04
738.61	1322.99
738.80	1343.47
738.98	1320.94
739.16	1320.94
739.34	1310.70
739.52	1454.06
739.70	1327.08
739.88	1318.89
740.06	1372.14
740.24	1335.28
740.42	1488.87
740.60	1322.99
740.78	1398.76
740.96	1331.18
741.14	1325.04
741.32	1378.28
741.50	1355.76
741.68	1472.49
741.86	1431.53
742.04	1325.04
742.22	1353.71
742.40	1409.00
742.58	1372.14
742.76	1353.71
742.94	1384.43
743.12	1335.28
743.30	1359.85
743.48	1402.86
743.66	1394.67
743.84	1404.91
744.02	1384.43
744.20	1363.95
744.38	1382.38
744.56	1359.85
744.74	1339.37
744.92	1372.14
745.10	1425.39
745.28	1429.48
745.46	1400.81
745.64	1339.37
745.82	1386.47
746.00	1357.80
746.18	1386.47
746.36	1355.76
746.54	1351.66
746.72	1388.52
746.90	1329.13
747.08	1441.77
747.26	1279.98
747.44	1400.81
747.62	1449.96
747.80	1372.14
747.98	1368.04
748.15	1290.22
748.33	1495.02
748.51	1435.63
748.69	1337.32
748.87	1368.04
749.05	1351.66
749.23	1402.86
749.41	1452.01
749.59	1439.72
749.77	1359.85
749.95	1413.10
750.13	1392.62
750.31	1474.54
750.49	1388.52
750.67	1456.11
750.85	1337.32
751.03	1361.90
751.20	1445.87
751.38	1388.52
751.56	1386.47
751.74	1378.28
751.92	1374.19
752.10	1351.66
752.28	1402.86
752.46	1279.98
752.64	1302.51
752.82	1400.81
753.00	1425.39
753.18	1415.15
753.35	1320.94
753.53	1337.32
753.71	1366.00
753.89	1415.15
754.07	1355.76
754.25	1402.86
754.43	1349.61
754.61	1343.47
754.79	1337.32
754.97	1357.80
755.14	1390.57
755.32	1415.15
755.50	1400.81
755.68	1382.38
755.86	1366.00
756.04	1411.05
756.22	1261.55
756.40	1308.65
756.57	1400.81
756.75	1380.33
756.93	1517.54
757.11	1396.71
757.29	1376.24
757.47	1331.18
757.65	1368.04
757.82	1351.66
758.00	1341.42
758.18	1343.47
758.36	1359.85
758.54	1454.06
758.72	1339.37
758.90	1361.90
759.07	1423.34
759.25	1345.52
759.43	1406.95
759.61	1353.71
759.79	1665.00
759.97	1380.33
760.15	1366.00
760.32	1351.66
760.50	1388.52
760.68	1372.14
760.86	1304.56
761.04	1409.00
761.22	1415.15
761.39	1443.82
761.57	1452.01
761.75	1286.12
761.93	1388.52
762.11	1425.39
762.28	1421.29
762.46	1339.37
762.64	1363.95
762.82	1322.99
763.00	1333.23
763.18	1431.53
763.35	1400.81
763.53	1339.37
763.71	1396.71
763.89	1333.23
764.07	1398.76
764.24	1361.90
764.42	1482.73
764.60	1333.23
764.78	1329.13
764.96	1413.10
765.13	1398.76
765.31	1353.71
765.49	1341.42
765.67	1380.33
765.84	1279.98
766.02	1337.32
766.20	1322.99
766.38	1437.67
766.56	1372.14
766.73	1429.48
766.91	1384.43
767.09	1372.14
767.27	1396.71
767.44	1343.47
767.62	1400.81
767.80	1398.76
767.98	1386.47
768.15	1361.90
768.33	1378.28
768.51	1359.85
768.69	1359.85
768.87	1372.14
769.04	1286.12
769.22	1464.30
769.40	1501.16
769.58	1372.14
769.75	1316.84
769.93	1400.81
770.11	1333.23
770.28	1353.71
770.46	1370.09
770.64	1357.80
770.82	1392.62
770.99	1374.19
771.17	1445.87
771.35	1366.00
771.53	1308.65
771.70	1335.28
771.88	1406.95
772.06	1394.67
772.23	1400.81
772.41	1398.76
772.59	1400.81
772.77	1349.61
772.94	1376.24
773.12	1318.89
773.30	1374.19
773.47	1329.13
773.65	1372.14
773.83	1435.63
774.01	1361.90
774.18	1347.56
774.36	1355.76
774.54	1372.14
774.71	1380.33
774.89	1359.85
775.07	1345.52
775.24	1359.85
775.42	1404.91
775.60	1535.98
775.78	1329.13
775.95	1361.90
776.13	1284.08
776.31	1304.56
776.48	1337.32
776.66	1361.90
776.84	1322.99
777.01	1380.33
777.19	1302.51
777.37	1415.15
777.54	1353.71
777.72	1474.54
777.90	1388.52
778.07	1343.47
778.25	1527.78
778.43	1400.81
778.60	1339.37
778.78	1378.28
778.96	1366.00
779.13	1298.41
779.31	1439.72
779.49	1402.86
779.66	1396.71
779.84	1376.24
780.01	1363.95
780.19	1390.57
780.37	1445.87
780.54	1368.04
780.72	1347.56
780.90	1288.17
781.07	1294.32
781.25	1314.80
781.43	1359.85
781.60	1347.56
781.78	1359.85
781.95	1382.38
782.13	1335.28
782.31	1290.22
782.48	1327.08
782.66	1388.52
782.83	1404.91
783.01	1372.14
783.19	1384.43
783.36	1316.84
783.54	1370.09
783.72	1435.63
783.89	1349.61
784.07	1433.58
784.24	1341.42
784.42	1318.89
784.60	1402.86
784.77	1363.95
784.95	1318.89
785.12	1345.52
785.30	1400.81
785.47	1318.89
785.65	1347.56
785.83	1431.53
786.00	1392.62
786.18	1380.33
786.35	1392.62
786.53	1359.85
786.71	1331.18
786.88	1351.66
787.06	1406.95
787.23	1349.61
787.41	1335.28
787.58	1306.60
787.76	1366.00
787.94	1368.04
788.11	1404.91
788.29	1320.94
788.46	1345.52
788.64	1353.71
788.81	1333.23
788.99	1368.04
789.16	1370.09
789.34	1347.56
789.52	1314.80
789.69	1368.04
789.87	1308.65
790.04	1357.80
790.22	1292.27
790.39	1437.67
790.57	1296.36
790.74	1361.90
790.92	1427.43
791.09	1241.07
791.27	1374.19
791.44	1433.58
791.62	1325.04
791.79	1421.29
791.97	1376.24
792.15	1433.58
792.32	1386.47
792.50	1380.33
792.67	1411.05
792.85	1398.76
793.02	1355.76
793.20	1343.47
793.37	1263.60
793.55	1417.19
793.72	1390.57
793.90	1376.24
794.07	1306.60
794.25	1298.41
794.42	1341.42
794.60	1351.66
794.77	1363.95
794.95	1433.58
795.12	1423.34
795.30	1320.94
795.47	1308.65
795.65	1419.24
795.82	1300.46
796.00	1370.09
796.17	1392.62
796.34	1363.95
796.52	1406.95
796.69	1347.56
796.87	1409.00
797.04	1337.32
797.22	1343.47
797.39	1409.00
797.57	1355.76
797.74	1468.39
797.92	1370.09
798.09	1345.52
798.27	1376.24
798.44	1322.99
798.62	1314.80
798.79	1357.80
798.96	1310.70
799.14	1480.68
799.31	1406.95
799.49	1361.90
799.66	1341.42
799.84	1378.28
800.01	1345.52
800.19	1439.72
800.36	1349.61
800.53	1429.48
800.71	1466.35
800.88	1421.29
801.06	1353.71
801.23	1415.15
801.41	1372.14
801.58	1331.18
801.75	1333.23
801.93	1445.87
802.10	1433.58
802.28	1392.62
802.45	1363.95
802.63	1427.43
802.80	1347.56
802.97	1413.10
803.15	1310.70
803.32	1337.32
803.50	1386.47
803.67	1300.46
803.84	1378.28
804.02	1400.81
804.19	1398.76
804.37	1318.89
804.54	1376.24
804.71	1347.56
804.89	1294.32
805.06	1306.60
805.24	1335.28
805.41	1361.90
805.58	1312.75
805.76	1396.71
805.93	1359.85
806.10	1433.58
806.28	1413.10
806.45	1357.80
806.63	1441.77
806.80	1347.56
806.97	1409.00
807.15	1355.76
807.32	1372.14
807.49	1355.76
807.67	1310.70
807.84	1380.33
808.01	1191.92
808.19	1458.15
808.36	1447.91
808.54	1331.18
808.71	1322.99
808.88	1392.62
809.06	1421.29
809.23	1392.62
809.40	1370.09
809.58	1419.24
809.75	1359.85
809.92	1390.57
810.10	1452.01
810.27	1339.37
810.44	1363.95
810.62	1404.91
810.79	1378.28
810.96	1339.37
811.14	1406.95
811.31	1308.65
811.48	1333.23
811.66	1335.28
811.83	1445.87
812.00	1394.67
812.18	1435.63
812.35	1339.37
812.52	1345.52
812.69	1378.28
812.87	1402.86
813.04	1316.84
813.21	1282.03
813.39	1363.95
813.56	1400.81
813.73	1363.95
813.91	1347.56
814.08	1357.80
814.25	1355.76
814.42	1355.76
814.60	1384.43
814.77	1378.28
814.94	1337.32
815.12	1417.19
815.29	1386.47
815.46	1359.85
815.63	1339.37
815.81	1318.89
815.98	1322.99
816.15	1306.60
816.33	1359.85
816.50	1394.67
816.67	1349.61
816.84	1390.57
817.02	1320.94
817.19	1337.32
817.36	1290.22
817.53	1351.66
817.71	1306.60
817.88	1390.57
818.05	1355.76
818.22	1267.69
818.40	1409.00
818.57	1359.85
818.74	1351.66
818.91	1363.95
819.09	1433.58
819.26	1331.18
819.43	1298.41
819.60	1366.00
819.78	1427.43
819.95	1427.43
820.12	1355.76
820.29	1411.05
820.47	1363.95
820.64	1363.95
820.81	1349.61
820.98	1411.05
821.15	1312.75
821.33	1427.43
821.50	1236.97
821.67	1378.28
821.84	1343.47
822.02	1353.71
822.19	1394.67
822.36	1271.79
822.53	1308.65
822.70	1333.23
822.88	1372.14
823.05	1468.39
823.22	1292.27
823.39	1425.39
823.56	1392.62
823.74	1402.86
823.91	1277.93
824.08	1292.27
824.25	1322.99
824.42	1411.05
824.60	1302.51
824.77	1419.24
824.94	1368.04
825.11	1361.90
825.28	1339.37
825.45	1376.24
825.63	1417.19
825.80	1241.07
825.97	1427.43
826.14	1474.54
826.31	1243.12
826.48	1382.38
826.66	1429.48
826.83	1339.37
827.00	1353.71
827.17	1351.66
827.34	1374.19
827.51	1259.50
827.69	1327.08
827.86	1343.47
828.03	1368.04
828.20	1411.05
828.37	1343.47
828.54	1394.67
828.71	1322.99
828.89	1486.83
829.06	1329.13
829.23	1427.43
829.40	1357.80
829.57	1345.52
829.74	1406.95
829.91	1325.04
830.09	1353.71
830.26	1376.24
830.43	1353.71
830.60	1361.90
830.77	1353.71
830.94	1400.81
831.11	1417.19
831.28	1300.46
831.46	1404.91
831.63	1331.18
831.80	1409.00
831.97	1320.94
832.14	1388.52
832.31	1390.57
832.48	1374.19
832.65	1368.04
832.82	1376.24
832.99	1337.32
833.17	1384.43
833.34	1429.48
833.51	1433.58
833.68	1331.18
833.85	1363.95
834.02	1224.69
834.19	1370.09
834.36	1331.18
834.53	1435.63
834.70	1335.28
834.87	1363.95
835.04	1499.11
835.22	1372.14
835.39	1374.19
835.56	1261.55
835.73	1359.85
835.90	1374.19
836.07	1302.51
836.24	1435.63
836.41	1331.18
836.58	1322.99
836.75	1390.57
836.92	1329.13
837.09	1370.09
837.26	1349.61
837.43	1423.34
837.60	1378.28
837.77	1421.29
837.94	1458.15
838.12	1409.00
838.29	1437.67
838.46	1404.91
838.63	1372.14
838.80	1390.57
838.97	1372.14
839.14	1425.39
839.31	1304.56
839.48	1400.81
839.65	1331.18
839.82	1370.09
839.99	1343.47
840.16	1392.62
840.33	1345.52
840.50	1413.10
840.67	1318.89
840.84	1257.45
841.01	1409.00
841.18	1355.76
841.35	1335.28
841.52	1454.06
841.69	1447.91
841.86	1363.95
842.03	1277.93
842.20	1409.00
842.37	1349.61
842.54	1345.52
842.71	1325.04
842.88	1345.52
843.05	1378.28
843.22	1366.00
843.39	1353.71
843.56	1304.56
843.73	1378.28
843.90	1345.52
844.07	1429.48
844.24	1421.29
844.41	1359.85
844.58	1339.37
844.75	1400.81
844.92	1390.57
845.09	1406.95
845.26	1353.71
845.43	1376.24
845.60	1331.18
845.77	1359.85
845.94	1396.71
846.10	1382.38
846.27	1302.51
846.44	1372.14
846.61	1384.43
846.78	1400.81
846.95	1400.81
847.12	1335.28
847.29	1306.60
847.46	1347.56
847.63	1460.20
847.80	1329.13
847.97	1374.19
848.14	1447.91
848.31	1277.93
848.48	1302.51
848.65	1372.14
848.82	1431.53
848.98	1443.82
849.15	1425.39
849.32	1419.24
849.49	1374.19
849.66	1288.17
849.83	1406.95
850.00	1343.47
850.17	1351.66
850.34	1353.71
850.51	1296.36
850.68	1366.00
850.85	1419.24
851.01	1366.00
851.18	1402.86
851.35	1302.51
851.52	1376.24
851.69	1456.11
851.86	1335.28
852.03	1357.80
852.20	1427.43
852.37	1376.24
852.53	1335.28
852.70	1376.24
852.87	1347.56
853.04	1368.04
853.21	1372.14
853.38	1376.24
853.55	1380.33
853.72	1429.48
853.89	1382.38
854.05	1333.23
854.22	1327.08
854.39	1329.13
854.56	1347.56
854.73	1368.04
854.90	1357.80
855.07	1273.84
855.23	1314.80
855.40	1396.71
855.57	1409.00
855.74	1366.00
855.91	1454.06
856.08	1335.28
856.25	1368.04
856.41	1384.43
856.58	1376.24
856.75	1421.29
856.92	1337.32
857.09	1431.53
857.26	1413.10
857.42	1296.36
857.59	1396.71
857.76	1396.71
857.93	1378.28
858.10	1345.52
858.27	1363.95
858.43	1458.15
858.60	1329.13
858.77	1306.60
858.94	1370.09
859.11	1456.11
859.27	1310.70
859.44	1382.38
859.61	1433.58
859.78	1445.87
859.95	1366.00
860.12	1396.71
860.28	1380.33
860.45	1406.95
860.62	1366.00
860.79	1355.76
860.95	1353.71
861.12	1339.37
861.29	1396.71
861.46	1322.99
861.63	1388.52
861.79	1372.14
861.96	1304.56
862.13	1345.52
862.30	1388.52
862.47	1370.09
862.63	1286.12
862.80	1388.52
862.97	1382.38
863.14	1337.32
863.30	1468.39
863.47	1355.76
863.64	1402.86
863.81	1390.57
863.97	1388.52
864.14	1341.42
864.31	1431.53
864.48	1370.09
864.65	1396.71
864.81	1388.52
864.98	1435.63
865.15	1368.04
865.32	1402.86
865.48	1419.24
865.65	1452.01
865.82	1341.42
865.98	1368.04
866.15	1363.95
866.32	1409.00
866.49	1404.91
866.65	1382.38
866.82	1376.24
866.99	1388.52
867.16	1359.85
867.32	1331.18
867.49	1384.43
867.66	1402.86
867.83	1314.80
867.99	1376.24
868.16	1329.13
868.33	1269.74
868.49	1419.24
868.66	1398.76
868.83	1415.15
868.99	1374.19
869.16	1386.47
869.33	1361.90
869.50	1411.05
869.66	1355.76
869.83	1308.65
870.00	1378.28
870.16	1396.71
870.33	1398.76
870.50	1392.62
870.66	1347.56
870.83	1468.39
871.00	1361.90
871.17	1361.90
871.33	1343.47
871.50	1255.40
871.67	1366.00
871.83	1347.56
872.00	1443.82
872.17	1355.76
872.33	1417.19
872.50	1363.95
872.67	1304.56
872.83	1419.24
873.00	1449.96
873.17	1411.05
873.33	1452.01
873.50	1419.24
873.67	1357.80
873.83	1353.71
874.00	1298.41
874.16	1419.24
874.33	1413.10
874.50	1351.66
874.66	1413.10
874.83	1341.42
875.00	1345.52
875.16	1372.14
875.33	1411.05
875.50	1333.23
875.66	1325.04
875.83	1335.28
875.99	1413.10
876.16	1355.76
876.33	1382.38
876.49	1347.56
876.66	1482.73
876.83	1380.33
876.99	1288.17
877.16	1339.37
877.32	1413.10
877.49	1394.67
877.66	1402.86
877.82	1415.15
877.99	1441.77
878.15	1476.59
878.32	1343.47
878.49	1421.29
878.65	1325.04
878.82	1437.67
878.98	1329.13
879.15	1435.63
879.32	1370.09
879.48	1370.09
879.65	1386.47
879.81	1308.65
879.98	1320.94
880.15	1351.66
880.31	1359.85
880.48	1339.37
880.64	1474.54
880.81	1314.80
880.97	1437.67
881.14	1355.76
881.31	1345.52
881.47	1419.24
881.64	1378.28
881.80	1273.84
881.97	1398.76
882.13	1482.73
882.30	1368.04
882.47	1292.27
882.63	1331.18
882.80	1327.08
882.96	1406.95
883.13	1449.96
883.29	1361.90
883.46	1322.99
883.62	1433.58
883.79	1425.39
883.95	1343.47
884.12	1363.95
884.29	1460.20
884.45	1351.66
884.62	1357.80
884.78	1339.37
884.95	1447.91
885.11	1368.04
885.28	1386.47
885.44	1359.85
885.61	1388.52
885.77	1320.94
885.94	1411.05
886.10	1380.33
886.27	1382.38
886.43	1456.11
886.60	1447.91
886.76	1376.24
886.93	1298.41
887.09	1349.61
887.26	1343.47
887.42	1492.97
887.59	1417.19
887.75	1486.83
887.92	1386.47
888.08	1368.04
888.25	1535.98
888.41	1357.80
888.58	1376.24
888.74	1312.75
888.91	1398.76
>>>>>End Processed Spectral Data<<<<<
