SpectraSuite Data File
++++++++++++++++++++++++++++++++++++
Date: Sun Apr 03 19:55:52 CEST 2016
User: root
Dark Spectrum Present: No
Reference Spectrum Present: No
Number of Sampled Component Spectra: 1
Spectrometers: USB4C02835
Integration Time (usec): 10000 (USB4C02835)
Spectra Averaged: 1 (USB4C02835)
Boxcar Smoothing: 0 (USB4C02835)
Correct for Electrical Dark: No (USB4C02835)
Strobe/Lamp Enabled: No (USB4C02835)
Correct for Detector Non-linearity: No (USB4C02835)
Correct for Stray Light: No (USB4C02835)
Number of Pixels in Processed Spectrum: 3648
>>>>>Begin Processed Spectral Data<<<<<
177.47	1245.16
177.69	1245.16
177.91	1245.16
178.13	1263.60
178.36	1286.12
178.58	1228.78
178.80	1226.73
179.02	1224.69
179.24	1257.45
179.46	1243.12
179.68	1310.70
179.90	1210.35
180.13	1257.45
180.35	1290.22
180.57	1275.88
180.79	1345.52
181.01	1208.30
181.23	1259.50
181.45	1271.79
181.67	1290.22
181.90	1314.80
182.12	1290.22
182.34	1241.07
182.56	1333.23
182.78	1286.12
183.00	1257.45
183.22	1298.41
183.44	1277.93
183.66	1226.73
183.89	1298.41
184.11	1228.78
184.33	1216.49
184.55	1271.79
184.77	1284.08
184.99	1249.26
185.21	1241.07
185.43	1267.69
185.65	1222.64
185.87	1245.16
186.10	1308.65
186.32	1277.93
186.54	1210.35
186.76	1189.87
186.98	1269.74
187.20	1273.84
187.42	1245.16
187.64	1292.27
187.86	1210.35
188.08	1286.12
188.30	1259.50
188.52	1314.80
188.75	1212.40
188.97	1271.79
189.19	1325.04
189.41	1331.18
189.63	1247.21
189.85	1232.88
190.07	1220.59
190.29	1306.60
190.51	1226.73
190.73	1322.99
190.95	1263.60
191.17	1267.69
191.39	1196.01
191.61	1273.84
191.84	1216.49
192.06	1239.02
192.28	1245.16
192.50	1312.75
192.72	1269.74
192.94	1232.88
193.16	1273.84
193.38	1279.98
193.60	1241.07
193.82	1277.93
194.04	1269.74
194.26	1286.12
194.48	1253.36
194.70	1232.88
194.92	1337.32
195.14	1286.12
195.36	1261.55
195.58	1247.21
195.80	1245.16
196.02	1290.22
196.24	1247.21
196.46	1273.84
196.69	1279.98
196.91	1261.55
197.13	1284.08
197.35	1302.51
197.57	1253.36
197.79	1320.94
198.01	1273.84
198.23	1286.12
198.45	1247.21
198.67	1247.21
198.89	1243.12
199.11	1347.56
199.33	1267.69
199.55	1282.03
199.77	1224.69
199.99	1230.83
200.21	1218.54
200.43	1333.23
200.65	1187.82
200.87	1271.79
201.09	1312.75
201.31	1282.03
201.53	1355.76
201.75	1277.93
201.97	1249.26
202.19	1322.99
202.41	1253.36
202.63	1294.32
202.85	1265.64
203.07	1222.64
203.29	1337.32
203.51	1239.02
203.73	1286.12
203.95	1279.98
204.17	1339.37
204.39	1263.60
204.61	1208.30
204.83	1265.64
205.05	1241.07
205.27	1228.78
205.49	1300.46
205.71	1245.16
205.93	1282.03
206.15	1232.88
206.37	1275.88
206.59	1218.54
206.81	1255.40
207.03	1320.94
207.25	1245.16
207.47	1290.22
207.69	1271.79
207.91	1288.17
208.13	1306.60
208.34	1263.60
208.56	1255.40
208.78	1325.04
209.00	1241.07
209.22	1234.93
209.44	1245.16
209.66	1269.74
209.88	1275.88
210.10	1314.80
210.32	1294.32
210.54	1288.17
210.76	1267.69
210.98	1212.40
211.20	1359.85
211.42	1284.08
211.64	1220.59
211.86	1212.40
212.08	1259.50
212.30	1292.27
212.52	1275.88
212.74	1304.56
212.96	1312.75
213.17	1290.22
213.39	1300.46
213.61	1239.02
213.83	1259.50
214.05	1234.93
214.27	1296.36
214.49	1296.36
214.71	1198.06
214.93	1318.89
215.15	1366.00
215.37	1306.60
215.59	1294.32
215.81	1286.12
216.03	1282.03
216.24	1204.21
216.46	1247.21
216.68	1302.51
216.90	1255.40
217.12	1234.93
217.34	1251.31
217.56	1271.79
217.78	1271.79
218.00	1216.49
218.22	1226.73
218.44	1284.08
218.66	1239.02
218.87	1296.36
219.09	1232.88
219.31	1347.56
219.53	1288.17
219.75	1236.97
219.97	1275.88
220.19	1296.36
220.41	1286.12
220.63	1230.83
220.85	1259.50
221.06	1206.25
221.28	1251.31
221.50	1277.93
221.72	1275.88
221.94	1318.89
222.16	1212.40
222.38	1298.41
222.60	1241.07
222.82	1304.56
223.03	1241.07
223.25	1261.55
223.47	1257.45
223.69	1241.07
223.91	1302.51
224.13	1282.03
224.35	1267.69
224.57	1239.02
224.78	1253.36
225.00	1312.75
225.22	1318.89
225.44	1230.83
225.66	1294.32
225.88	1253.36
226.10	1335.28
226.32	1284.08
226.53	1243.12
226.75	1208.30
226.97	1222.64
227.19	1232.88
227.41	1347.56
227.63	1241.07
227.85	1304.56
228.06	1232.88
228.28	1263.60
228.50	1175.53
228.72	1259.50
228.94	1265.64
229.16	1286.12
229.37	1277.93
229.59	1241.07
229.81	1318.89
230.03	1253.36
230.25	1288.17
230.47	1232.88
230.69	1290.22
230.90	1245.16
231.12	1271.79
231.34	1263.60
231.56	1273.84
231.78	1300.46
232.00	1320.94
232.21	1304.56
232.43	1271.79
232.65	1279.98
232.87	1308.65
233.09	1306.60
233.30	1243.12
233.52	1214.45
233.74	1325.04
233.96	1249.26
234.18	1277.93
234.40	1286.12
234.61	1282.03
234.83	1226.73
235.05	1314.80
235.27	1269.74
235.49	1251.31
235.70	1292.27
235.92	1325.04
236.14	1212.40
236.36	1265.64
236.58	1245.16
236.79	1261.55
237.01	1202.16
237.23	1322.99
237.45	1310.70
237.67	1282.03
237.88	1304.56
238.10	1282.03
238.32	1294.32
238.54	1216.49
238.76	1290.22
238.97	1265.64
239.19	1288.17
239.41	1304.56
239.63	1253.36
239.85	1230.83
240.06	1331.18
240.28	1292.27
240.50	1255.40
240.72	1345.52
240.93	1290.22
241.15	1277.93
241.37	1261.55
241.59	1263.60
241.81	1241.07
242.02	1228.78
242.24	1216.49
242.46	1261.55
242.68	1320.94
242.89	1288.17
243.11	1222.64
243.33	1230.83
243.55	1275.88
243.76	1261.55
243.98	1269.74
244.20	1306.60
244.42	1206.25
244.64	1263.60
244.85	1245.16
245.07	1294.32
245.29	1282.03
245.51	1232.88
245.72	1257.45
245.94	1302.51
246.16	1253.36
246.38	1298.41
246.59	1286.12
246.81	1179.63
247.03	1314.80
247.24	1255.40
247.46	1275.88
247.68	1273.84
247.90	1253.36
248.11	1224.69
248.33	1345.52
248.55	1245.16
248.77	1269.74
248.98	1345.52
249.20	1259.50
249.42	1290.22
249.64	1206.25
249.85	1288.17
250.07	1269.74
250.29	1325.04
250.50	1230.83
250.72	1265.64
250.94	1234.93
251.16	1298.41
251.37	1255.40
251.59	1232.88
251.81	1265.64
252.02	1249.26
252.24	1269.74
252.46	1257.45
252.68	1316.84
252.89	1277.93
253.11	1314.80
253.33	1269.74
253.54	1265.64
253.76	1271.79
253.98	1232.88
254.20	1290.22
254.41	1261.55
254.63	1331.18
254.85	1226.73
255.06	1292.27
255.28	1245.16
255.50	1368.04
255.71	1322.99
255.93	1279.98
256.15	1236.97
256.36	1314.80
256.58	1271.79
256.80	1251.31
257.02	1298.41
257.23	1279.98
257.45	1327.08
257.67	1308.65
257.88	1230.83
258.10	1259.50
258.32	1251.31
258.53	1345.52
258.75	1257.45
258.97	1265.64
259.18	1234.93
259.40	1282.03
259.62	1212.40
259.83	1255.40
260.05	1300.46
260.27	1269.74
260.48	1306.60
260.70	1308.65
260.92	1249.26
261.13	1304.56
261.35	1271.79
261.57	1236.97
261.78	1241.07
262.00	1251.31
262.22	1302.51
262.43	1296.36
262.65	1214.45
262.86	1353.71
263.08	1302.51
263.30	1234.93
263.51	1247.21
263.73	1273.84
263.95	1279.98
264.16	1267.69
264.38	1337.32
264.60	1267.69
264.81	1322.99
265.03	1288.17
265.25	1239.02
265.46	1282.03
265.68	1294.32
265.89	1290.22
266.11	1245.16
266.33	1251.31
266.54	1271.79
266.76	1249.26
266.98	1249.26
267.19	1308.65
267.41	1222.64
267.62	1224.69
267.84	1212.40
268.06	1204.21
268.27	1261.55
268.49	1228.78
268.70	1273.84
268.92	1353.71
269.14	1243.12
269.35	1339.37
269.57	1257.45
269.79	1261.55
270.00	1304.56
270.22	1286.12
270.43	1230.83
270.65	1204.21
270.87	1232.88
271.08	1263.60
271.30	1253.36
271.51	1329.13
271.73	1230.83
271.95	1298.41
272.16	1310.70
272.38	1263.60
272.59	1241.07
272.81	1269.74
273.02	1275.88
273.24	1230.83
273.46	1255.40
273.67	1279.98
273.89	1247.21
274.10	1316.84
274.32	1286.12
274.54	1273.84
274.75	1208.30
274.97	1249.26
275.18	1259.50
275.40	1267.69
275.61	1200.11
275.83	1247.21
276.05	1224.69
276.26	1222.64
276.48	1226.73
276.69	1298.41
276.91	1263.60
277.12	1279.98
277.34	1204.21
277.55	1279.98
277.77	1267.69
277.99	1273.84
278.20	1292.27
278.42	1234.93
278.63	1304.56
278.85	1314.80
279.06	1267.69
279.28	1288.17
279.49	1351.66
279.71	1284.08
279.93	1232.88
280.14	1220.59
280.36	1210.35
280.57	1236.97
280.79	1300.46
281.00	1286.12
281.22	1329.13
281.43	1261.55
281.65	1265.64
281.86	1284.08
282.08	1249.26
282.29	1314.80
282.51	1298.41
282.73	1263.60
282.94	1290.22
283.16	1263.60
283.37	1288.17
283.59	1230.83
283.80	1316.84
284.02	1247.21
284.23	1298.41
284.45	1316.84
284.66	1230.83
284.88	1327.08
285.09	1257.45
285.31	1216.49
285.52	1325.04
285.74	1333.23
285.95	1327.08
286.17	1265.64
286.38	1337.32
286.60	1189.87
286.81	1263.60
287.03	1279.98
287.24	1239.02
287.46	1230.83
287.67	1249.26
287.89	1273.84
288.10	1249.26
288.32	1271.79
288.53	1228.78
288.75	1296.36
288.96	1251.31
289.18	1284.08
289.39	1271.79
289.61	1304.56
289.82	1167.34
290.04	1265.64
290.25	1269.74
290.47	1300.46
290.68	1218.54
290.90	1241.07
291.11	1288.17
291.33	1294.32
291.54	1294.32
291.76	1265.64
291.97	1259.50
292.18	1304.56
292.40	1257.45
292.61	1273.84
292.83	1345.52
293.04	1257.45
293.26	1273.84
293.47	1298.41
293.69	1290.22
293.90	1302.51
294.12	1249.26
294.33	1341.42
294.55	1263.60
294.76	1296.36
294.97	1296.36
295.19	1325.04
295.40	1263.60
295.62	1169.39
295.83	1263.60
296.05	1230.83
296.26	1255.40
296.48	1300.46
296.69	1257.45
296.90	1333.23
297.12	1318.89
297.33	1275.88
297.55	1239.02
297.76	1253.36
297.98	1298.41
298.19	1224.69
298.41	1255.40
298.62	1257.45
298.83	1290.22
299.05	1306.60
299.26	1277.93
299.48	1239.02
299.69	1292.27
299.90	1228.78
300.12	1236.97
300.33	1277.93
300.55	1298.41
300.76	1292.27
300.98	1236.97
301.19	1232.88
301.40	1316.84
301.62	1277.93
301.83	1234.93
302.05	1292.27
302.26	1318.89
302.47	1216.49
302.69	1257.45
302.90	1322.99
303.12	1279.98
303.33	1294.32
303.54	1239.02
303.76	1300.46
303.97	1269.74
304.19	1255.40
304.40	1232.88
304.61	1296.36
304.83	1267.69
305.04	1267.69
305.26	1202.16
305.47	1265.64
305.68	1257.45
305.90	1298.41
306.11	1263.60
306.33	1247.21
306.54	1210.35
306.75	1253.36
306.97	1224.69
307.18	1335.28
307.39	1322.99
307.61	1290.22
307.82	1290.22
308.04	1277.93
308.25	1310.70
308.46	1318.89
308.68	1290.22
308.89	1312.75
309.10	1333.23
309.32	1183.73
309.53	1245.16
309.74	1267.69
309.96	1273.84
310.17	1329.13
310.39	1224.69
310.60	1249.26
310.81	1322.99
311.03	1273.84
311.24	1243.12
311.45	1263.60
311.67	1300.46
311.88	1310.70
312.09	1261.55
312.31	1322.99
312.52	1284.08
312.73	1251.31
312.95	1327.08
313.16	1271.79
313.37	1228.78
313.59	1279.98
313.80	1341.42
314.01	1308.65
314.23	1232.88
314.44	1243.12
314.65	1226.73
314.87	1312.75
315.08	1286.12
315.29	1296.36
315.51	1277.93
315.72	1255.40
315.93	1261.55
316.15	1236.97
316.36	1230.83
316.57	1206.25
316.79	1282.03
317.00	1241.07
317.21	1341.42
317.43	1230.83
317.64	1200.11
317.85	1282.03
318.07	1267.69
318.28	1279.98
318.49	1224.69
318.70	1267.69
318.92	1243.12
319.13	1249.26
319.34	1234.93
319.56	1294.32
319.77	1263.60
319.98	1271.79
320.20	1277.93
320.41	1308.65
320.62	1253.36
320.83	1308.65
321.05	1284.08
321.26	1257.45
321.47	1224.69
321.69	1310.70
321.90	1267.69
322.11	1300.46
322.32	1306.60
322.54	1271.79
322.75	1253.36
322.96	1271.79
323.18	1279.98
323.39	1277.93
323.60	1232.88
323.81	1282.03
324.03	1245.16
324.24	1253.36
324.45	1239.02
324.66	1220.59
324.88	1300.46
325.09	1243.12
325.30	1253.36
325.52	1329.13
325.73	1306.60
325.94	1222.64
326.15	1294.32
326.37	1333.23
326.58	1265.64
326.79	1232.88
327.00	1224.69
327.22	1200.11
327.43	1200.11
327.64	1230.83
327.85	1263.60
328.07	1320.94
328.28	1277.93
328.49	1292.27
328.70	1261.55
328.92	1257.45
329.13	1232.88
329.34	1234.93
329.55	1329.13
329.76	1208.30
329.98	1306.60
330.19	1282.03
330.40	1306.60
330.61	1239.02
330.83	1247.21
331.04	1304.56
331.25	1269.74
331.46	1284.08
331.68	1171.44
331.89	1275.88
332.10	1277.93
332.31	1292.27
332.52	1177.58
332.74	1282.03
332.95	1265.64
333.16	1282.03
333.37	1290.22
333.58	1261.55
333.80	1353.71
334.01	1292.27
334.22	1239.02
334.43	1265.64
334.64	1253.36
334.86	1216.49
335.07	1275.88
335.28	1302.51
335.49	1306.60
335.70	1255.40
335.92	1257.45
336.13	1243.12
336.34	1259.50
336.55	1273.84
336.76	1277.93
336.98	1208.30
337.19	1261.55
337.40	1277.93
337.61	1277.93
337.82	1230.83
338.04	1255.40
338.25	1314.80
338.46	1216.49
338.67	1322.99
338.88	1189.87
339.09	1232.88
339.31	1267.69
339.52	1284.08
339.73	1284.08
339.94	1310.70
340.15	1169.39
340.36	1282.03
340.58	1255.40
340.79	1224.69
341.00	1245.16
341.21	1265.64
341.42	1322.99
341.63	1277.93
341.85	1245.16
342.06	1230.83
342.27	1222.64
342.48	1228.78
342.69	1255.40
342.90	1333.23
343.12	1185.77
343.33	1284.08
343.54	1284.08
343.75	1273.84
343.96	1277.93
344.17	1320.94
344.38	1173.49
344.60	1251.31
344.81	1222.64
345.02	1241.07
345.23	1196.01
345.44	1259.50
345.65	1200.11
345.86	1247.21
346.07	1255.40
346.29	1224.69
346.50	1269.74
346.71	1222.64
346.92	1253.36
347.13	1300.46
347.34	1284.08
347.55	1271.79
347.76	1261.55
347.98	1198.06
348.19	1177.58
348.40	1273.84
348.61	1193.97
348.82	1216.49
349.03	1296.36
349.24	1230.83
349.45	1290.22
349.66	1366.00
349.88	1300.46
350.09	1294.32
350.30	1173.49
350.51	1298.41
350.72	1359.85
350.93	1290.22
351.14	1302.51
351.35	1294.32
351.56	1263.60
351.77	1212.40
351.99	1310.70
352.20	1284.08
352.41	1243.12
352.62	1198.06
352.83	1222.64
353.04	1241.07
353.25	1288.17
353.46	1230.83
353.67	1329.13
353.88	1251.31
354.09	1273.84
354.30	1277.93
354.52	1249.26
354.73	1310.70
354.94	1232.88
355.15	1279.98
355.36	1253.36
355.57	1243.12
355.78	1220.59
355.99	1273.84
356.20	1286.12
356.41	1347.56
356.62	1310.70
356.83	1306.60
357.04	1325.04
357.25	1275.88
357.46	1253.36
357.68	1204.21
357.89	1298.41
358.10	1337.32
358.31	1232.88
358.52	1255.40
358.73	1306.60
358.94	1257.45
359.15	1200.11
359.36	1290.22
359.57	1277.93
359.78	1265.64
359.99	1300.46
360.20	1300.46
360.41	1222.64
360.62	1316.84
360.83	1189.87
361.04	1304.56
361.25	1228.78
361.46	1249.26
361.67	1273.84
361.88	1296.36
362.09	1300.46
362.30	1282.03
362.51	1259.50
362.72	1335.28
362.93	1241.07
363.14	1241.07
363.35	1322.99
363.56	1245.16
363.78	1296.36
363.99	1275.88
364.20	1140.72
364.41	1249.26
364.62	1239.02
364.83	1308.65
365.04	1370.09
365.25	1230.83
365.46	1288.17
365.67	1259.50
365.88	1228.78
366.09	1265.64
366.30	1284.08
366.51	1239.02
366.72	1300.46
366.93	1198.06
367.14	1273.84
367.35	1273.84
367.56	1265.64
367.77	1261.55
367.98	1269.74
368.18	1228.78
368.39	1255.40
368.60	1253.36
368.81	1234.93
369.02	1273.84
369.23	1228.78
369.44	1261.55
369.65	1288.17
369.86	1236.97
370.07	1245.16
370.28	1314.80
370.49	1282.03
370.70	1310.70
370.91	1249.26
371.12	1284.08
371.33	1216.49
371.54	1275.88
371.75	1294.32
371.96	1259.50
372.17	1288.17
372.38	1214.45
372.59	1189.87
372.80	1273.84
373.01	1306.60
373.22	1279.98
373.43	1216.49
373.64	1206.25
373.85	1286.12
374.06	1314.80
374.26	1249.26
374.47	1267.69
374.68	1325.04
374.89	1228.78
375.10	1271.79
375.31	1318.89
375.52	1263.60
375.73	1388.52
375.94	1263.60
376.15	1247.21
376.36	1339.37
376.57	1263.60
376.78	1220.59
376.99	1249.26
377.20	1296.36
377.40	1253.36
377.61	1239.02
377.82	1267.69
378.03	1245.16
378.24	1282.03
378.45	1243.12
378.66	1286.12
378.87	1191.92
379.08	1230.83
379.29	1341.42
379.50	1267.69
379.71	1298.41
379.91	1265.64
380.12	1220.59
380.33	1329.13
380.54	1290.22
380.75	1298.41
380.96	1261.55
381.17	1263.60
381.38	1294.32
381.59	1275.88
381.80	1253.36
382.00	1200.11
382.21	1306.60
382.42	1327.08
382.63	1290.22
382.84	1302.51
383.05	1234.93
383.26	1277.93
383.47	1294.32
383.68	1257.45
383.88	1269.74
384.09	1273.84
384.30	1273.84
384.51	1249.26
384.72	1245.16
384.93	1271.79
385.14	1214.45
385.35	1232.88
385.55	1298.41
385.76	1288.17
385.97	1241.07
386.18	1241.07
386.39	1265.64
386.60	1271.79
386.81	1339.37
387.02	1312.75
387.22	1228.78
387.43	1261.55
387.64	1261.55
387.85	1253.36
388.06	1302.51
388.27	1277.93
388.48	1189.87
388.68	1286.12
388.89	1306.60
389.10	1251.31
389.31	1263.60
389.52	1232.88
389.73	1269.74
389.93	1220.59
390.14	1275.88
390.35	1224.69
390.56	1273.84
390.77	1331.18
390.98	1312.75
391.18	1273.84
391.39	1198.06
391.60	1245.16
391.81	1308.65
392.02	1232.88
392.23	1294.32
392.43	1335.28
392.64	1284.08
392.85	1290.22
393.06	1265.64
393.27	1249.26
393.47	1292.27
393.68	1183.73
393.89	1226.73
394.10	1314.80
394.31	1318.89
394.52	1298.41
394.72	1279.98
394.93	1249.26
395.14	1294.32
395.35	1257.45
395.56	1257.45
395.76	1251.31
395.97	1275.88
396.18	1241.07
396.39	1263.60
396.60	1300.46
396.80	1230.83
397.01	1298.41
397.22	1284.08
397.43	1273.84
397.64	1251.31
397.84	1275.88
398.05	1243.12
398.26	1304.56
398.47	1368.04
398.67	1230.83
398.88	1284.08
399.09	1259.50
399.30	1210.35
399.51	1327.08
399.71	1339.37
399.92	1257.45
400.13	1277.93
400.34	1234.93
400.54	1312.75
400.75	1273.84
400.96	1214.45
401.17	1376.24
401.37	1341.42
401.58	1273.84
401.79	1259.50
402.00	1296.36
402.21	1234.93
402.41	1261.55
402.62	1292.27
402.83	1247.21
403.04	1265.64
403.24	1322.99
403.45	1243.12
403.66	1200.11
403.87	1208.30
404.07	1271.79
404.28	1249.26
404.49	1294.32
404.70	1241.07
404.90	1265.64
405.11	1282.03
405.32	1343.47
405.52	1243.12
405.73	1259.50
405.94	1265.64
406.15	1333.23
406.35	1279.98
406.56	1230.83
406.77	1306.60
406.98	1230.83
407.18	1300.46
407.39	1214.45
407.60	1310.70
407.80	1224.69
408.01	1249.26
408.22	1208.30
408.43	1304.56
408.63	1296.36
408.84	1243.12
409.05	1269.74
409.25	1265.64
409.46	1306.60
409.67	1282.03
409.88	1302.51
410.08	1218.54
410.29	1292.27
410.50	1259.50
410.70	1298.41
410.91	1296.36
411.12	1255.40
411.32	1310.70
411.53	1296.36
411.74	1181.68
411.95	1284.08
412.15	1282.03
412.36	1347.56
412.57	1247.21
412.77	1312.75
412.98	1198.06
413.19	1286.12
413.39	1282.03
413.60	1286.12
413.81	1187.82
414.01	1298.41
414.22	1249.26
414.43	1314.80
414.63	1230.83
414.84	1247.21
415.05	1267.69
415.25	1159.15
415.46	1183.73
415.67	1329.13
415.87	1273.84
416.08	1292.27
416.29	1288.17
416.49	1261.55
416.70	1263.60
416.91	1247.21
417.11	1327.08
417.32	1239.02
417.53	1296.36
417.73	1261.55
417.94	1257.45
418.15	1302.51
418.35	1271.79
418.56	1241.07
418.77	1218.54
418.97	1245.16
419.18	1220.59
419.38	1273.84
419.59	1239.02
419.80	1343.47
420.00	1257.45
420.21	1341.42
420.42	1257.45
420.62	1282.03
420.83	1273.84
421.04	1224.69
421.24	1212.40
421.45	1318.89
421.65	1288.17
421.86	1275.88
422.07	1220.59
422.27	1232.88
422.48	1263.60
422.69	1294.32
422.89	1296.36
423.10	1286.12
423.30	1275.88
423.51	1269.74
423.72	1288.17
423.92	1316.84
424.13	1267.69
424.33	1267.69
424.54	1214.45
424.75	1284.08
424.95	1300.46
425.16	1316.84
425.36	1234.93
425.57	1253.36
425.78	1239.02
425.98	1298.41
426.19	1232.88
426.39	1267.69
426.60	1198.06
426.81	1300.46
427.01	1245.16
427.22	1327.08
427.42	1271.79
427.63	1204.21
427.83	1218.54
428.04	1257.45
428.25	1263.60
428.45	1314.80
428.66	1271.79
428.86	1218.54
429.07	1234.93
429.28	1271.79
429.48	1282.03
429.69	1290.22
429.89	1226.73
430.10	1249.26
430.30	1253.36
430.51	1339.37
430.71	1288.17
430.92	1298.41
431.13	1220.59
431.33	1349.61
431.54	1263.60
431.74	1206.25
431.95	1245.16
432.15	1208.30
432.36	1298.41
432.56	1267.69
432.77	1261.55
432.98	1241.07
433.18	1304.56
433.39	1259.50
433.59	1239.02
433.80	1245.16
434.00	1333.23
434.21	1261.55
434.41	1220.59
434.62	1296.36
434.82	1253.36
435.03	1277.93
435.23	1255.40
435.44	1275.88
435.64	1265.64
435.85	1226.73
436.06	1308.65
436.26	1292.27
436.47	1257.45
436.67	1263.60
436.88	1271.79
437.08	1202.16
437.29	1222.64
437.49	1243.12
437.70	1230.83
437.90	1193.97
438.11	1290.22
438.31	1275.88
438.52	1290.22
438.72	1247.21
438.93	1263.60
439.13	1261.55
439.34	1294.32
439.54	1294.32
439.75	1239.02
439.95	1271.79
440.16	1261.55
440.36	1298.41
440.57	1361.90
440.77	1296.36
440.98	1269.74
441.18	1273.84
441.39	1243.12
441.59	1226.73
441.80	1347.56
442.00	1327.08
442.21	1279.98
442.41	1243.12
442.62	1296.36
442.82	1230.83
443.02	1263.60
443.23	1261.55
443.43	1275.88
443.64	1355.76
443.84	1337.32
444.05	1269.74
444.25	1245.16
444.46	1191.92
444.66	1267.69
444.87	1314.80
445.07	1296.36
445.28	1277.93
445.48	1222.64
445.69	1292.27
445.89	1265.64
446.09	1239.02
446.30	1304.56
446.50	1312.75
446.71	1218.54
446.91	1286.12
447.12	1288.17
447.32	1300.46
447.53	1261.55
447.73	1284.08
447.93	1228.78
448.14	1245.16
448.34	1232.88
448.55	1380.33
448.75	1269.74
448.96	1337.32
449.16	1294.32
449.36	1275.88
449.57	1275.88
449.77	1337.32
449.98	1224.69
450.18	1267.69
450.39	1210.35
450.59	1296.36
450.79	1216.49
451.00	1259.50
451.20	1288.17
451.41	1290.22
451.61	1257.45
451.81	1279.98
452.02	1296.36
452.22	1320.94
452.43	1292.27
452.63	1296.36
452.84	1253.36
453.04	1273.84
453.24	1288.17
453.45	1312.75
453.65	1253.36
453.86	1257.45
454.06	1318.89
454.26	1251.31
454.47	1294.32
454.67	1300.46
454.87	1249.26
455.08	1312.75
455.28	1214.45
455.49	1370.09
455.69	1269.74
455.89	1222.64
456.10	1279.98
456.30	1271.79
456.51	1253.36
456.71	1257.45
456.91	1294.32
457.12	1214.45
457.32	1261.55
457.52	1282.03
457.73	1333.23
457.93	1232.88
458.14	1247.21
458.34	1288.17
458.54	1325.04
458.75	1271.79
458.95	1277.93
459.15	1327.08
459.36	1376.24
459.56	1353.71
459.76	1300.46
459.97	1275.88
460.17	1214.45
460.37	1339.37
460.58	1232.88
460.78	1296.36
460.99	1310.70
461.19	1273.84
461.39	1271.79
461.60	1294.32
461.80	1275.88
462.00	1316.84
462.21	1282.03
462.41	1241.07
462.61	1253.36
462.82	1314.80
463.02	1271.79
463.22	1302.51
463.43	1310.70
463.63	1271.79
463.83	1232.88
464.04	1273.84
464.24	1247.21
464.44	1312.75
464.64	1243.12
464.85	1245.16
465.05	1277.93
465.25	1247.21
465.46	1308.65
465.66	1249.26
465.86	1269.74
466.07	1306.60
466.27	1251.31
466.47	1220.59
466.68	1308.65
466.88	1322.99
467.08	1214.45
467.29	1273.84
467.49	1288.17
467.69	1318.89
467.89	1267.69
468.10	1302.51
468.30	1247.21
468.50	1277.93
468.71	1320.94
468.91	1251.31
469.11	1265.64
469.31	1224.69
469.52	1355.76
469.72	1384.43
469.92	1202.16
470.13	1175.53
470.33	1341.42
470.53	1232.88
470.73	1275.88
470.94	1275.88
471.14	1284.08
471.34	1273.84
471.54	1310.70
471.75	1279.98
471.95	1257.45
472.15	1314.80
472.36	1312.75
472.56	1351.66
472.76	1304.56
472.96	1282.03
473.17	1245.16
473.37	1255.40
473.57	1263.60
473.77	1312.75
473.98	1279.98
474.18	1265.64
474.38	1267.69
474.58	1247.21
474.79	1257.45
474.99	1239.02
475.19	1275.88
475.39	1267.69
475.60	1179.63
475.80	1306.60
476.00	1290.22
476.20	1245.16
476.41	1292.27
476.61	1290.22
476.81	1282.03
477.01	1224.69
477.21	1230.83
477.42	1230.83
477.62	1247.21
477.82	1282.03
478.02	1226.73
478.23	1349.61
478.43	1241.07
478.63	1255.40
478.83	1279.98
479.03	1343.47
479.24	1257.45
479.44	1236.97
479.64	1359.85
479.84	1314.80
480.04	1245.16
480.25	1245.16
480.45	1257.45
480.65	1320.94
480.85	1273.84
481.06	1329.13
481.26	1253.36
481.46	1282.03
481.66	1243.12
481.86	1234.93
482.06	1286.12
482.27	1218.54
482.47	1325.04
482.67	1230.83
482.87	1286.12
483.07	1216.49
483.28	1314.80
483.48	1243.12
483.68	1282.03
483.88	1310.70
484.08	1249.26
484.29	1349.61
484.49	1216.49
484.69	1247.21
484.89	1257.45
485.09	1363.95
485.29	1296.36
485.50	1322.99
485.70	1279.98
485.90	1288.17
486.10	1208.30
486.30	1196.01
486.50	1304.56
486.71	1234.93
486.91	1261.55
487.11	1249.26
487.31	1275.88
487.51	1216.49
487.71	1230.83
487.91	1290.22
488.12	1339.37
488.32	1294.32
488.52	1157.10
488.72	1232.88
488.92	1261.55
489.12	1259.50
489.32	1294.32
489.53	1279.98
489.73	1261.55
489.93	1314.80
490.13	1263.60
490.33	1298.41
490.53	1318.89
490.73	1218.54
490.94	1220.59
491.14	1218.54
491.34	1216.49
491.54	1273.84
491.74	1290.22
491.94	1372.14
492.14	1220.59
492.34	1275.88
492.54	1284.08
492.75	1234.93
492.95	1341.42
493.15	1288.17
493.35	1292.27
493.55	1337.32
493.75	1259.50
493.95	1253.36
494.15	1267.69
494.35	1226.73
494.56	1316.84
494.76	1257.45
494.96	1228.78
495.16	1245.16
495.36	1290.22
495.56	1314.80
495.76	1224.69
495.96	1193.97
496.16	1298.41
496.36	1314.80
496.56	1273.84
496.77	1298.41
496.97	1269.74
497.17	1331.18
497.37	1243.12
497.57	1241.07
497.77	1294.32
497.97	1255.40
498.17	1277.93
498.37	1261.55
498.57	1292.27
498.77	1329.13
498.97	1279.98
499.17	1320.94
499.38	1245.16
499.58	1306.60
499.78	1284.08
499.98	1257.45
500.18	1255.40
500.38	1314.80
500.58	1265.64
500.78	1267.69
500.98	1322.99
501.18	1241.07
501.38	1322.99
501.58	1206.25
501.78	1265.64
501.98	1279.98
502.18	1226.73
502.38	1259.50
502.58	1275.88
502.78	1288.17
502.98	1304.56
503.18	1249.26
503.38	1271.79
503.59	1290.22
503.79	1181.68
503.99	1236.97
504.19	1320.94
504.39	1226.73
504.59	1302.51
504.79	1331.18
504.99	1296.36
505.19	1193.97
505.39	1277.93
505.59	1290.22
505.79	1259.50
505.99	1306.60
506.19	1335.28
506.39	1310.70
506.59	1239.02
506.79	1263.60
506.99	1343.47
507.19	1257.45
507.39	1243.12
507.59	1269.74
507.79	1306.60
507.99	1277.93
508.19	1224.69
508.39	1339.37
508.59	1279.98
508.79	1271.79
508.99	1241.07
509.19	1255.40
509.39	1288.17
509.59	1222.64
509.79	1300.46
509.99	1282.03
510.19	1249.26
510.39	1259.50
510.59	1290.22
510.79	1277.93
510.99	1304.56
511.19	1337.32
511.39	1314.80
511.59	1290.22
511.79	1345.52
511.99	1288.17
512.19	1263.60
512.38	1275.88
512.58	1343.47
512.78	1284.08
512.98	1249.26
513.18	1345.52
513.38	1239.02
513.58	1290.22
513.78	1269.74
513.98	1271.79
514.18	1312.75
514.38	1320.94
514.58	1253.36
514.78	1257.45
514.98	1312.75
515.18	1320.94
515.38	1306.60
515.58	1312.75
515.78	1236.97
515.98	1329.13
516.18	1290.22
516.38	1322.99
516.57	1198.06
516.77	1304.56
516.97	1232.88
517.17	1269.74
517.37	1339.37
517.57	1298.41
517.77	1261.55
517.97	1333.23
518.17	1333.23
518.37	1341.42
518.57	1275.88
518.77	1333.23
518.97	1306.60
519.16	1247.21
519.36	1310.70
519.56	1290.22
519.76	1271.79
519.96	1259.50
520.16	1261.55
520.36	1292.27
520.56	1298.41
520.76	1308.65
520.96	1300.46
521.16	1253.36
521.35	1212.40
521.55	1292.27
521.75	1290.22
521.95	1306.60
522.15	1259.50
522.35	1263.60
522.55	1263.60
522.75	1247.21
522.95	1232.88
523.14	1306.60
523.34	1259.50
523.54	1300.46
523.74	1284.08
523.94	1314.80
524.14	1294.32
524.34	1314.80
524.54	1325.04
524.73	1316.84
524.93	1284.08
525.13	1259.50
525.33	1222.64
525.53	1327.08
525.73	1290.22
525.93	1376.24
526.13	1341.42
526.32	1314.80
526.52	1339.37
526.72	1337.32
526.92	1298.41
527.12	1249.26
527.32	1208.30
527.52	1232.88
527.71	1335.28
527.91	1239.02
528.11	1290.22
528.31	1253.36
528.51	1253.36
528.71	1259.50
528.90	1304.56
529.10	1325.04
529.30	1249.26
529.50	1257.45
529.70	1296.36
529.90	1216.49
530.09	1302.51
530.29	1247.21
530.49	1286.12
530.69	1257.45
530.89	1247.21
531.09	1298.41
531.28	1286.12
531.48	1269.74
531.68	1302.51
531.88	1263.60
532.08	1269.74
532.28	1210.35
532.47	1267.69
532.67	1243.12
532.87	1224.69
533.07	1273.84
533.27	1255.40
533.46	1304.56
533.66	1308.65
533.86	1261.55
534.06	1304.56
534.26	1259.50
534.45	1318.89
534.65	1361.90
534.85	1335.28
535.05	1247.21
535.25	1337.32
535.44	1314.80
535.64	1312.75
535.84	1331.18
536.04	1267.69
536.24	1329.13
536.43	1320.94
536.63	1298.41
536.83	1302.51
537.03	1269.74
537.22	1261.55
537.42	1282.03
537.62	1234.93
537.82	1249.26
538.02	1275.88
538.21	1265.64
538.41	1345.52
538.61	1255.40
538.81	1314.80
539.00	1331.18
539.20	1282.03
539.40	1255.40
539.60	1214.45
539.79	1261.55
539.99	1337.32
540.19	1298.41
540.39	1290.22
540.58	1261.55
540.78	1290.22
540.98	1298.41
541.18	1300.46
541.37	1333.23
541.57	1279.98
541.77	1239.02
541.97	1284.08
542.16	1282.03
542.36	1224.69
542.56	1267.69
542.76	1259.50
542.95	1247.21
543.15	1294.32
543.35	1243.12
543.54	1300.46
543.74	1275.88
543.94	1294.32
544.14	1265.64
544.33	1286.12
544.53	1296.36
544.73	1220.59
544.93	1372.14
545.12	1267.69
545.32	1325.04
545.52	1251.31
545.71	1271.79
545.91	1234.93
546.11	1355.76
546.30	1277.93
546.50	1239.02
546.70	1214.45
546.90	1345.52
547.09	1322.99
547.29	1247.21
547.49	1249.26
547.68	1337.32
547.88	1257.45
548.08	1216.49
548.27	1271.79
548.47	1310.70
548.67	1279.98
548.87	1378.28
549.06	1318.89
549.26	1224.69
549.46	1253.36
549.65	1351.66
549.85	1331.18
550.05	1318.89
550.24	1273.84
550.44	1222.64
550.64	1265.64
550.83	1228.78
551.03	1255.40
551.23	1392.62
551.42	1294.32
551.62	1308.65
551.82	1267.69
552.01	1292.27
552.21	1306.60
552.41	1251.31
552.60	1290.22
552.80	1275.88
553.00	1302.51
553.19	1279.98
553.39	1292.27
553.59	1306.60
553.78	1390.57
553.98	1261.55
554.17	1208.30
554.37	1298.41
554.57	1310.70
554.76	1265.64
554.96	1239.02
555.16	1277.93
555.35	1271.79
555.55	1216.49
555.75	1308.65
555.94	1337.32
556.14	1269.74
556.33	1388.52
556.53	1357.80
556.73	1370.09
556.92	1249.26
557.12	1271.79
557.32	1294.32
557.51	1232.88
557.71	1284.08
557.90	1298.41
558.10	1341.42
558.30	1259.50
558.49	1351.66
558.69	1247.21
558.88	1255.40
559.08	1292.27
559.28	1249.26
559.47	1337.32
559.67	1271.79
559.86	1347.56
560.06	1322.99
560.26	1333.23
560.45	1243.12
560.65	1269.74
560.84	1288.17
561.04	1245.16
561.24	1320.94
561.43	1312.75
561.63	1282.03
561.82	1279.98
562.02	1329.13
562.22	1245.16
562.41	1245.16
562.61	1261.55
562.80	1302.51
563.00	1322.99
563.19	1306.60
563.39	1257.45
563.59	1253.36
563.78	1284.08
563.98	1318.89
564.17	1245.16
564.37	1279.98
564.56	1341.42
564.76	1269.74
564.96	1347.56
565.15	1251.31
565.35	1271.79
565.54	1312.75
565.74	1290.22
565.93	1275.88
566.13	1232.88
566.32	1251.31
566.52	1292.27
566.71	1284.08
566.91	1257.45
567.11	1232.88
567.30	1257.45
567.50	1226.73
567.69	1341.42
567.89	1265.64
568.08	1312.75
568.28	1265.64
568.47	1230.83
568.67	1245.16
568.86	1243.12
569.06	1296.36
569.25	1208.30
569.45	1271.79
569.64	1279.98
569.84	1290.22
570.04	1290.22
570.23	1306.60
570.43	1312.75
570.62	1310.70
570.82	1312.75
571.01	1249.26
571.21	1290.22
571.40	1261.55
571.60	1361.90
571.79	1331.18
571.99	1279.98
572.18	1263.60
572.38	1263.60
572.57	1261.55
572.77	1263.60
572.96	1224.69
573.16	1331.18
573.35	1251.31
573.55	1298.41
573.74	1224.69
573.94	1298.41
574.13	1320.94
574.33	1282.03
574.52	1308.65
574.71	1255.40
574.91	1310.70
575.10	1247.21
575.30	1277.93
575.49	1310.70
575.69	1302.51
575.88	1206.25
576.08	1341.42
576.27	1337.32
576.47	1300.46
576.66	1247.21
576.86	1234.93
577.05	1210.35
577.25	1273.84
577.44	1318.89
577.64	1234.93
577.83	1275.88
578.02	1306.60
578.22	1331.18
578.41	1253.36
578.61	1310.70
578.80	1279.98
579.00	1343.47
579.19	1247.21
579.39	1282.03
579.58	1257.45
579.77	1271.79
579.97	1267.69
580.16	1302.51
580.36	1300.46
580.55	1318.89
580.75	1259.50
580.94	1196.01
581.13	1300.46
581.33	1288.17
581.52	1239.02
581.72	1249.26
581.91	1273.84
582.11	1296.36
582.30	1318.89
582.49	1325.04
582.69	1337.32
582.88	1263.60
583.08	1335.28
583.27	1310.70
583.47	1279.98
583.66	1284.08
583.85	1296.36
584.05	1314.80
584.24	1236.97
584.44	1224.69
584.63	1230.83
584.82	1335.28
585.02	1337.32
585.21	1302.51
585.41	1265.64
585.60	1267.69
585.79	1308.65
585.99	1251.31
586.18	1339.37
586.37	1292.27
586.57	1304.56
586.76	1314.80
586.96	1288.17
587.15	1298.41
587.34	1243.12
587.54	1292.27
587.73	1245.16
587.93	1251.31
588.12	1241.07
588.31	1306.60
588.51	1286.12
588.70	1247.21
588.89	1265.64
589.09	1247.21
589.28	1288.17
589.47	1226.73
589.67	1361.90
589.86	1230.83
590.06	1284.08
590.25	1318.89
590.44	1302.51
590.64	1351.66
590.83	1292.27
591.02	1273.84
591.22	1282.03
591.41	1345.52
591.60	1288.17
591.80	1282.03
591.99	1255.40
592.18	1282.03
592.38	1243.12
592.57	1234.93
592.76	1275.88
592.96	1277.93
593.15	1279.98
593.34	1284.08
593.54	1236.97
593.73	1308.65
593.92	1249.26
594.12	1245.16
594.31	1290.22
594.50	1298.41
594.70	1261.55
594.89	1337.32
595.08	1236.97
595.28	1353.71
595.47	1335.28
595.66	1265.64
595.86	1298.41
596.05	1241.07
596.24	1232.88
596.43	1384.43
596.63	1304.56
596.82	1224.69
597.01	1306.60
597.21	1310.70
597.40	1179.63
597.59	1341.42
597.79	1320.94
597.98	1279.98
598.17	1202.16
598.36	1259.50
598.56	1150.96
598.75	1292.27
598.94	1300.46
599.14	1296.36
599.33	1251.31
599.52	1247.21
599.71	1318.89
599.91	1249.26
600.10	1286.12
600.29	1255.40
600.48	1347.56
600.68	1286.12
600.87	1228.78
601.06	1290.22
601.26	1290.22
601.45	1267.69
601.64	1255.40
601.83	1322.99
602.03	1275.88
602.22	1273.84
602.41	1243.12
602.60	1275.88
602.80	1251.31
602.99	1259.50
603.18	1247.21
603.37	1306.60
603.57	1269.74
603.76	1304.56
603.95	1212.40
604.14	1288.17
604.34	1269.74
604.53	1279.98
604.72	1275.88
604.91	1216.49
605.10	1353.71
605.30	1251.31
605.49	1288.17
605.68	1255.40
605.87	1347.56
606.07	1320.94
606.26	1255.40
606.45	1243.12
606.64	1300.46
606.84	1286.12
607.03	1243.12
607.22	1234.93
607.41	1370.09
607.60	1251.31
607.80	1259.50
607.99	1224.69
608.18	1243.12
608.37	1249.26
608.56	1239.02
608.76	1320.94
608.95	1243.12
609.14	1265.64
609.33	1339.37
609.52	1339.37
609.72	1224.69
609.91	1298.41
610.10	1277.93
610.29	1247.21
610.48	1247.21
610.68	1212.40
610.87	1310.70
611.06	1224.69
611.25	1298.41
611.44	1312.75
611.63	1314.80
611.83	1282.03
612.02	1304.56
612.21	1288.17
612.40	1230.83
612.59	1269.74
612.79	1288.17
612.98	1263.60
613.17	1255.40
613.36	1298.41
613.55	1345.52
613.74	1300.46
613.93	1265.64
614.13	1214.45
614.32	1200.11
614.51	1284.08
614.70	1261.55
614.89	1259.50
615.08	1189.87
615.28	1271.79
615.47	1220.59
615.66	1282.03
615.85	1329.13
616.04	1290.22
616.23	1290.22
616.42	1288.17
616.62	1333.23
616.81	1290.22
617.00	1279.98
617.19	1339.37
617.38	1370.09
617.57	1265.64
617.76	1308.65
617.95	1294.32
618.15	1265.64
618.34	1261.55
618.53	1218.54
618.72	1286.12
618.91	1224.69
619.10	1263.60
619.29	1245.16
619.48	1312.75
619.68	1306.60
619.87	1300.46
620.06	1279.98
620.25	1226.73
620.44	1249.26
620.63	1298.41
620.82	1292.27
621.01	1249.26
621.20	1290.22
621.39	1265.64
621.59	1294.32
621.78	1284.08
621.97	1318.89
622.16	1232.88
622.35	1275.88
622.54	1267.69
622.73	1261.55
622.92	1302.51
623.11	1349.61
623.30	1290.22
623.49	1277.93
623.68	1300.46
623.88	1247.21
624.07	1282.03
624.26	1282.03
624.45	1259.50
624.64	1298.41
624.83	1310.70
625.02	1308.65
625.21	1298.41
625.40	1277.93
625.59	1288.17
625.78	1306.60
625.97	1269.74
626.16	1380.33
626.35	1296.36
626.54	1234.93
626.74	1279.98
626.93	1333.23
627.12	1306.60
627.31	1275.88
627.50	1345.52
627.69	1314.80
627.88	1298.41
628.07	1269.74
628.26	1290.22
628.45	1302.51
628.64	1282.03
628.83	1253.36
629.02	1286.12
629.21	1314.80
629.40	1320.94
629.59	1277.93
629.78	1282.03
629.97	1316.84
630.16	1337.32
630.35	1263.60
630.54	1322.99
630.73	1337.32
630.92	1294.32
631.11	1331.18
631.30	1329.13
631.49	1277.93
631.68	1691.62
631.87	2199.52
632.06	3743.69
632.25	5035.96
632.44	7780.23
632.63	13246.26
632.82	19623.64
633.01	14556.96
633.20	6680.47
633.39	3489.74
633.58	2543.58
633.77	2050.02
633.96	2066.40
634.15	1869.80
634.34	1593.32
634.53	1484.78
634.72	1585.13
634.91	1507.30
635.10	1447.91
635.29	1425.39
635.48	1368.04
635.67	1413.10
635.86	1452.01
636.05	1376.24
636.24	1384.43
636.43	1318.89
636.62	1390.57
636.81	1312.75
637.00	1347.56
637.19	1376.24
637.38	1329.13
637.57	1347.56
637.76	1347.56
637.95	1357.80
638.14	1370.09
638.33	1322.99
638.52	1314.80
638.71	1353.71
638.89	1288.17
639.08	1378.28
639.27	1343.47
639.46	1327.08
639.65	1263.60
639.84	1263.60
640.03	1402.86
640.22	1304.56
640.41	1343.47
640.60	1261.55
640.79	1286.12
640.98	1265.64
641.17	1277.93
641.36	1331.18
641.55	1286.12
641.74	1277.93
641.92	1320.94
642.11	1271.79
642.30	1232.88
642.49	1318.89
642.68	1261.55
642.87	1335.28
643.06	1277.93
643.25	1269.74
643.44	1243.12
643.63	1308.65
643.82	1310.70
644.00	1343.47
644.19	1345.52
644.38	1271.79
644.57	1232.88
644.76	1265.64
644.95	1243.12
645.14	1314.80
645.33	1234.93
645.52	1210.35
645.71	1329.13
645.89	1298.41
646.08	1263.60
646.27	1314.80
646.46	1290.22
646.65	1267.69
646.84	1261.55
647.03	1286.12
647.22	1261.55
647.40	1253.36
647.59	1261.55
647.78	1226.73
647.97	1222.64
648.16	1304.56
648.35	1339.37
648.54	1286.12
648.73	1259.50
648.91	1247.21
649.10	1345.52
649.29	1355.76
649.48	1318.89
649.67	1241.07
649.86	1232.88
650.05	1279.98
650.23	1216.49
650.42	1267.69
650.61	1261.55
650.80	1239.02
650.99	1286.12
651.18	1239.02
651.36	1198.06
651.55	1306.60
651.74	1259.50
651.93	1267.69
652.12	1277.93
652.31	1212.40
652.49	1247.21
652.68	1243.12
652.87	1226.73
653.06	1255.40
653.25	1288.17
653.44	1275.88
653.62	1325.04
653.81	1308.65
654.00	1200.11
654.19	1267.69
654.38	1312.75
654.56	1228.78
654.75	1243.12
654.94	1294.32
655.13	1282.03
655.32	1292.27
655.51	1314.80
655.69	1255.40
655.88	1320.94
656.07	1372.14
656.26	1390.57
656.45	1273.84
656.63	1316.84
656.82	1265.64
657.01	1259.50
657.20	1282.03
657.38	1230.83
657.57	1320.94
657.76	1271.79
657.95	1228.78
658.14	1306.60
658.32	1279.98
658.51	1273.84
658.70	1198.06
658.89	1247.21
659.08	1331.18
659.26	1261.55
659.45	1191.92
659.64	1310.70
659.83	1263.60
660.01	1263.60
660.20	1177.58
660.39	1216.49
660.58	1294.32
660.76	1349.61
660.95	1230.83
661.14	1325.04
661.33	1292.27
661.51	1288.17
661.70	1277.93
661.89	1320.94
662.08	1327.08
662.26	1331.18
662.45	1251.31
662.64	1247.21
662.83	1243.12
663.01	1292.27
663.20	1292.27
663.39	1331.18
663.58	1200.11
663.76	1312.75
663.95	1228.78
664.14	1296.36
664.32	1247.21
664.51	1255.40
664.70	1269.74
664.89	1230.83
665.07	1212.40
665.26	1282.03
665.45	1263.60
665.64	1284.08
665.82	1226.73
666.01	1335.28
666.20	1302.51
666.38	1228.78
666.57	1230.83
666.76	1368.04
666.95	1259.50
667.13	1312.75
667.32	1308.65
667.51	1200.11
667.69	1226.73
667.88	1296.36
668.07	1253.36
668.25	1282.03
668.44	1251.31
668.63	1349.61
668.81	1239.02
669.00	1234.93
669.19	1286.12
669.38	1380.33
669.56	1245.16
669.75	1265.64
669.94	1210.35
670.12	1257.45
670.31	1290.22
670.50	1325.04
670.68	1247.21
670.87	1286.12
671.06	1253.36
671.24	1284.08
671.43	1286.12
671.62	1249.26
671.80	1273.84
671.99	1298.41
672.18	1300.46
672.36	1282.03
672.55	1335.28
672.74	1210.35
672.92	1255.40
673.11	1341.42
673.29	1298.41
673.48	1302.51
673.67	1337.32
673.85	1322.99
674.04	1167.34
674.23	1282.03
674.41	1249.26
674.60	1335.28
674.79	1300.46
674.97	1302.51
675.16	1282.03
675.34	1226.73
675.53	1269.74
675.72	1267.69
675.90	1351.66
676.09	1302.51
676.28	1230.83
676.46	1273.84
676.65	1183.73
676.83	1314.80
677.02	1273.84
677.21	1288.17
677.39	1306.60
677.58	1232.88
677.77	1228.78
677.95	1267.69
678.14	1304.56
678.32	1261.55
678.51	1310.70
678.70	1318.89
678.88	1318.89
679.07	1300.46
679.25	1275.88
679.44	1282.03
679.63	1255.40
679.81	1335.28
680.00	1353.71
680.18	1267.69
680.37	1320.94
680.55	1214.45
680.74	1284.08
680.93	1249.26
681.11	1374.19
681.30	1236.97
681.48	1224.69
681.67	1232.88
681.85	1255.40
682.04	1255.40
682.23	1286.12
682.41	1347.56
682.60	1251.31
682.78	1267.69
682.97	1243.12
683.15	1232.88
683.34	1232.88
683.53	1286.12
683.71	1265.64
683.90	1253.36
684.08	1341.42
684.27	1310.70
684.45	1279.98
684.64	1261.55
684.82	1300.46
685.01	1308.65
685.19	1275.88
685.38	1226.73
685.57	1173.49
685.75	1236.97
685.94	1279.98
686.12	1298.41
686.31	1212.40
686.49	1339.37
686.68	1282.03
686.86	1337.32
687.05	1241.07
687.23	1245.16
687.42	1193.97
687.60	1212.40
687.79	1327.08
687.97	1241.07
688.16	1208.30
688.34	1183.73
688.53	1294.32
688.71	1259.50
688.90	1181.68
689.08	1220.59
689.27	1300.46
689.45	1265.64
689.64	1265.64
689.82	1265.64
690.01	1265.64
690.19	1308.65
690.38	1222.64
690.56	1255.40
690.75	1302.51
690.93	1284.08
691.12	1232.88
691.30	1265.64
691.49	1271.79
691.67	1261.55
691.86	1239.02
692.04	1282.03
692.23	1204.21
692.41	1269.74
692.60	1263.60
692.78	1320.94
692.97	1279.98
693.15	1325.04
693.34	1259.50
693.52	1228.78
693.71	1273.84
693.89	1318.89
694.08	1277.93
694.26	1245.16
694.44	1261.55
694.63	1230.83
694.81	1253.36
695.00	1263.60
695.18	1314.80
695.37	1314.80
695.55	1302.51
695.74	1333.23
695.92	1304.56
696.10	1259.50
696.29	1302.51
696.47	1251.31
696.66	1212.40
696.84	1269.74
697.03	1212.40
697.21	1331.18
697.40	1290.22
697.58	1273.84
697.76	1306.60
697.95	1265.64
698.13	1282.03
698.32	1288.17
698.50	1216.49
698.68	1236.97
698.87	1384.43
699.05	1265.64
699.24	1226.73
699.42	1292.27
699.61	1216.49
699.79	1273.84
699.97	1267.69
700.16	1241.07
700.34	1210.35
700.53	1290.22
700.71	1284.08
700.89	1255.40
701.08	1245.16
701.26	1322.99
701.45	1359.85
701.63	1271.79
701.81	1212.40
702.00	1218.54
702.18	1306.60
702.37	1312.75
702.55	1251.31
702.73	1290.22
702.92	1234.93
703.10	1257.45
703.28	1249.26
703.47	1249.26
703.65	1273.84
703.84	1222.64
704.02	1314.80
704.20	1241.07
704.39	1255.40
704.57	1253.36
704.75	1263.60
704.94	1257.45
705.12	1277.93
705.30	1265.64
705.49	1236.97
705.67	1269.74
705.86	1288.17
706.04	1320.94
706.22	1204.21
706.41	1282.03
706.59	1243.12
706.77	1247.21
706.96	1259.50
707.14	1245.16
707.32	1271.79
707.51	1263.60
707.69	1202.16
707.87	1232.88
708.06	1290.22
708.24	1255.40
708.42	1218.54
708.61	1284.08
708.79	1228.78
708.97	1320.94
709.16	1343.47
709.34	1261.55
709.52	1279.98
709.71	1273.84
709.89	1236.97
710.07	1269.74
710.26	1279.98
710.44	1273.84
710.62	1228.78
710.80	1251.31
710.99	1312.75
711.17	1288.17
711.35	1300.46
711.54	1214.45
711.72	1294.32
711.90	1363.95
712.09	1191.92
712.27	1255.40
712.45	1263.60
712.63	1322.99
712.82	1208.30
713.00	1249.26
713.18	1226.73
713.37	1261.55
713.55	1257.45
713.73	1294.32
713.91	1234.93
714.10	1247.21
714.28	1341.42
714.46	1288.17
714.65	1279.98
714.83	1269.74
715.01	1273.84
715.19	1310.70
715.38	1263.60
715.56	1255.40
715.74	1263.60
715.92	1320.94
716.11	1290.22
716.29	1300.46
716.47	1241.07
716.65	1298.41
716.84	1228.78
717.02	1249.26
717.20	1255.40
717.38	1279.98
717.57	1226.73
717.75	1275.88
717.93	1265.64
718.11	1290.22
718.30	1243.12
718.48	1247.21
718.66	1265.64
718.84	1222.64
719.03	1253.36
719.21	1312.75
719.39	1273.84
719.57	1277.93
719.75	1249.26
719.94	1191.92
720.12	1265.64
720.30	1263.60
720.48	1337.32
720.67	1288.17
720.85	1187.82
721.03	1265.64
721.21	1241.07
721.39	1302.51
721.58	1230.83
721.76	1273.84
721.94	1267.69
722.12	1265.64
722.30	1286.12
722.49	1265.64
722.67	1228.78
722.85	1239.02
723.03	1304.56
723.21	1316.84
723.40	1282.03
723.58	1349.61
723.76	1275.88
723.94	1286.12
724.12	1292.27
724.30	1263.60
724.49	1265.64
724.67	1279.98
724.85	1277.93
725.03	1222.64
725.21	1302.51
725.40	1277.93
725.58	1298.41
725.76	1304.56
725.94	1265.64
726.12	1288.17
726.30	1267.69
726.49	1294.32
726.67	1271.79
726.85	1279.98
727.03	1296.36
727.21	1249.26
727.39	1271.79
727.57	1325.04
727.76	1212.40
727.94	1345.52
728.12	1200.11
728.30	1220.59
728.48	1286.12
728.66	1294.32
728.84	1198.06
729.03	1245.16
729.21	1314.80
729.39	1284.08
729.57	1275.88
729.75	1247.21
729.93	1286.12
730.11	1296.36
730.30	1347.56
730.48	1306.60
730.66	1271.79
730.84	1273.84
731.02	1282.03
731.20	1230.83
731.38	1253.36
731.56	1310.70
731.74	1232.88
731.93	1345.52
732.11	1298.41
732.29	1296.36
732.47	1300.46
732.65	1296.36
732.83	1265.64
733.01	1247.21
733.19	1247.21
733.37	1292.27
733.56	1300.46
733.74	1228.78
733.92	1298.41
734.10	1214.45
734.28	1322.99
734.46	1210.35
734.64	1273.84
734.82	1243.12
735.00	1339.37
735.18	1275.88
735.36	1325.04
735.54	1255.40
735.73	1300.46
735.91	1259.50
736.09	1193.97
736.27	1226.73
736.45	1355.76
736.63	1206.25
736.81	1310.70
736.99	1247.21
737.17	1259.50
737.35	1243.12
737.53	1310.70
737.71	1257.45
737.89	1277.93
738.07	1306.60
738.25	1271.79
738.43	1187.82
738.61	1245.16
738.80	1275.88
738.98	1312.75
739.16	1290.22
739.34	1316.84
739.52	1239.02
739.70	1263.60
739.88	1279.98
740.06	1335.28
740.24	1232.88
740.42	1265.64
740.60	1282.03
740.78	1275.88
740.96	1263.60
741.14	1257.45
741.32	1222.64
741.50	1308.65
741.68	1331.18
741.86	1322.99
742.04	1257.45
742.22	1232.88
742.40	1257.45
742.58	1228.78
742.76	1363.95
742.94	1271.79
743.12	1261.55
743.30	1228.78
743.48	1288.17
743.66	1253.36
743.84	1200.11
744.02	1308.65
744.20	1290.22
744.38	1214.45
744.56	1298.41
744.74	1306.60
744.92	1232.88
745.10	1255.40
745.28	1273.84
745.46	1275.88
745.64	1271.79
745.82	1261.55
746.00	1322.99
746.18	1306.60
746.36	1222.64
746.54	1220.59
746.72	1329.13
746.90	1279.98
747.08	1261.55
747.26	1288.17
747.44	1206.25
747.62	1288.17
747.80	1275.88
747.98	1329.13
748.15	1241.07
748.33	1263.60
748.51	1226.73
748.69	1255.40
748.87	1322.99
749.05	1353.71
749.23	1257.45
749.41	1271.79
749.59	1191.92
749.77	1318.89
749.95	1247.21
750.13	1286.12
750.31	1273.84
750.49	1259.50
750.67	1230.83
750.85	1208.30
751.03	1198.06
751.20	1206.25
751.38	1251.31
751.56	1228.78
751.74	1366.00
751.92	1232.88
752.10	1273.84
752.28	1220.59
752.46	1241.07
752.64	1216.49
752.82	1232.88
753.00	1318.89
753.18	1241.07
753.35	1243.12
753.53	1271.79
753.71	1366.00
753.89	1239.02
754.07	1273.84
754.25	1269.74
754.43	1275.88
754.61	1206.25
754.79	1259.50
754.97	1249.26
755.14	1306.60
755.32	1245.16
755.50	1286.12
755.68	1275.88
755.86	1322.99
756.04	1263.60
756.22	1282.03
756.40	1279.98
756.57	1269.74
756.75	1202.16
756.93	1259.50
757.11	1310.70
757.29	1286.12
757.47	1247.21
757.65	1245.16
757.82	1224.69
758.00	1159.15
758.18	1320.94
758.36	1157.10
758.54	1409.00
758.72	1222.64
758.90	1196.01
759.07	1220.59
759.25	1232.88
759.43	1243.12
759.61	1277.93
759.79	1269.74
759.97	1265.64
760.15	1191.92
760.32	1333.23
760.50	1142.77
760.68	1279.98
760.86	1286.12
761.04	1290.22
761.22	1294.32
761.39	1243.12
761.57	1263.60
761.75	1292.27
761.93	1290.22
762.11	1327.08
762.28	1257.45
762.46	1255.40
762.64	1253.36
762.82	1228.78
763.00	1275.88
763.18	1214.45
763.35	1279.98
763.53	1322.99
763.71	1282.03
763.89	1214.45
764.07	1239.02
764.24	1273.84
764.42	1228.78
764.60	1343.47
764.78	1236.97
764.96	1224.69
765.13	1327.08
765.31	1265.64
765.49	1300.46
765.67	1286.12
765.84	1275.88
766.02	1216.49
766.20	1298.41
766.38	1292.27
766.56	1267.69
766.73	1302.51
766.91	1329.13
767.09	1222.64
767.27	1310.70
767.44	1196.01
767.62	1294.32
767.80	1222.64
767.98	1257.45
768.15	1261.55
768.33	1253.36
768.51	1286.12
768.69	1267.69
768.87	1329.13
769.04	1284.08
769.22	1298.41
769.40	1314.80
769.58	1298.41
769.75	1269.74
769.93	1198.06
770.11	1193.97
770.28	1241.07
770.46	1296.36
770.64	1261.55
770.82	1216.49
770.99	1294.32
771.17	1322.99
771.35	1302.51
771.53	1296.36
771.70	1312.75
771.88	1220.59
772.06	1279.98
772.23	1290.22
772.41	1259.50
772.59	1325.04
772.77	1316.84
772.94	1198.06
773.12	1271.79
773.30	1249.26
773.47	1243.12
773.65	1245.16
773.83	1292.27
774.01	1286.12
774.18	1286.12
774.36	1224.69
774.54	1269.74
774.71	1316.84
774.89	1218.54
775.07	1230.83
775.24	1273.84
775.42	1243.12
775.60	1304.56
775.78	1224.69
775.95	1189.87
776.13	1353.71
776.31	1232.88
776.48	1312.75
776.66	1269.74
776.84	1239.02
777.01	1259.50
777.19	1335.28
777.37	1261.55
777.54	1239.02
777.72	1241.07
777.90	1316.84
778.07	1239.02
778.25	1310.70
778.43	1259.50
778.60	1259.50
778.78	1253.36
778.96	1304.56
779.13	1292.27
779.31	1329.13
779.49	1320.94
779.66	1222.64
779.84	1263.60
780.01	1296.36
780.19	1284.08
780.37	1253.36
780.54	1249.26
780.72	1290.22
780.90	1267.69
781.07	1263.60
781.25	1314.80
781.43	1300.46
781.60	1288.17
781.78	1247.21
781.95	1300.46
782.13	1236.97
782.31	1325.04
782.48	1196.01
782.66	1261.55
782.83	1318.89
783.01	1296.36
783.19	1222.64
783.36	1310.70
783.54	1302.51
783.72	1193.97
783.89	1302.51
784.07	1257.45
784.24	1239.02
784.42	1222.64
784.60	1277.93
784.77	1255.40
784.95	1314.80
785.12	1290.22
785.30	1230.83
785.47	1232.88
785.65	1243.12
785.83	1257.45
786.00	1251.31
786.18	1212.40
786.35	1214.45
786.53	1279.98
786.71	1271.79
786.88	1306.60
787.06	1279.98
787.23	1296.36
787.41	1322.99
787.58	1292.27
787.76	1308.65
787.94	1292.27
788.11	1277.93
788.29	1322.99
788.46	1191.92
788.64	1320.94
788.81	1310.70
788.99	1320.94
789.16	1230.83
789.34	1257.45
789.52	1300.46
789.69	1353.71
789.87	1175.53
790.04	1243.12
790.22	1263.60
790.39	1314.80
790.57	1251.31
790.74	1300.46
790.92	1263.60
791.09	1298.41
791.27	1249.26
791.44	1302.51
791.62	1331.18
791.79	1253.36
791.97	1241.07
792.15	1204.21
792.32	1279.98
792.50	1214.45
792.67	1267.69
792.85	1300.46
793.02	1265.64
793.20	1253.36
793.37	1329.13
793.55	1245.16
793.72	1308.65
793.90	1214.45
794.07	1249.26
794.25	1349.61
794.42	1255.40
794.60	1298.41
794.77	1253.36
794.95	1228.78
795.12	1275.88
795.30	1304.56
795.47	1257.45
795.65	1282.03
795.82	1249.26
796.00	1236.97
796.17	1230.83
796.34	1226.73
796.52	1359.85
796.69	1316.84
796.87	1204.21
797.04	1298.41
797.22	1257.45
797.39	1232.88
797.57	1269.74
797.74	1255.40
797.92	1253.36
798.09	1243.12
798.27	1210.35
798.44	1288.17
798.62	1320.94
798.79	1277.93
798.96	1198.06
799.14	1279.98
799.31	1292.27
799.49	1290.22
799.66	1279.98
799.84	1259.50
800.01	1310.70
800.19	1265.64
800.36	1306.60
800.53	1253.36
800.71	1290.22
800.88	1312.75
801.06	1308.65
801.23	1230.83
801.41	1257.45
801.58	1259.50
801.75	1282.03
801.93	1296.36
802.10	1267.69
802.28	1306.60
802.45	1224.69
802.63	1247.21
802.80	1255.40
802.97	1236.97
803.15	1308.65
803.32	1345.52
803.50	1302.51
803.67	1275.88
803.84	1234.93
804.02	1232.88
804.19	1265.64
804.37	1232.88
804.54	1277.93
804.71	1277.93
804.89	1306.60
805.06	1259.50
805.24	1212.40
805.41	1200.11
805.58	1241.07
805.76	1347.56
805.93	1243.12
806.10	1241.07
806.28	1300.46
806.45	1300.46
806.63	1314.80
806.80	1298.41
806.97	1255.40
807.15	1298.41
807.32	1282.03
807.49	1247.21
807.67	1261.55
807.84	1263.60
808.01	1298.41
808.19	1249.26
808.36	1277.93
808.54	1290.22
808.71	1243.12
808.88	1327.08
809.06	1228.78
809.23	1320.94
809.40	1292.27
809.58	1222.64
809.75	1353.71
809.92	1241.07
810.10	1308.65
810.27	1234.93
810.44	1314.80
810.62	1269.74
810.79	1273.84
810.96	1337.32
811.14	1277.93
811.31	1163.25
811.48	1333.23
811.66	1288.17
811.83	1249.26
812.00	1224.69
812.18	1234.93
812.35	1312.75
812.52	1351.66
812.69	1210.35
812.87	1290.22
813.04	1247.21
813.21	1220.59
813.39	1275.88
813.56	1234.93
813.73	1345.52
813.91	1249.26
814.08	1286.12
814.25	1232.88
814.42	1339.37
814.60	1232.88
814.77	1279.98
814.94	1269.74
815.12	1257.45
815.29	1204.21
815.46	1239.02
815.63	1288.17
815.81	1292.27
815.98	1214.45
816.15	1226.73
816.33	1204.21
816.50	1282.03
816.67	1304.56
816.84	1290.22
817.02	1241.07
817.19	1339.37
817.36	1318.89
817.53	1222.64
817.71	1253.36
817.88	1306.60
818.05	1253.36
818.22	1220.59
818.40	1279.98
818.57	1228.78
818.74	1322.99
818.91	1173.49
819.09	1226.73
819.26	1288.17
819.43	1335.28
819.60	1257.45
819.78	1279.98
819.95	1220.59
820.12	1269.74
820.29	1206.25
820.47	1239.02
820.64	1187.82
820.81	1234.93
820.98	1216.49
821.15	1267.69
821.33	1259.50
821.50	1290.22
821.67	1241.07
821.84	1347.56
822.02	1230.83
822.19	1308.65
822.36	1236.97
822.53	1187.82
822.70	1218.54
822.88	1224.69
823.05	1290.22
823.22	1243.12
823.39	1249.26
823.56	1275.88
823.74	1290.22
823.91	1130.48
824.08	1236.97
824.25	1277.93
824.42	1222.64
824.60	1275.88
824.77	1310.70
824.94	1243.12
825.11	1331.18
825.28	1236.97
825.45	1290.22
825.63	1271.79
825.80	1210.35
825.97	1271.79
826.14	1230.83
826.31	1286.12
826.48	1239.02
826.66	1279.98
826.83	1288.17
827.00	1249.26
827.17	1245.16
827.34	1224.69
827.51	1267.69
827.69	1296.36
827.86	1239.02
828.03	1183.73
828.20	1263.60
828.37	1261.55
828.54	1312.75
828.71	1226.73
828.89	1335.28
829.06	1282.03
829.23	1253.36
829.40	1273.84
829.57	1251.31
829.74	1234.93
829.91	1259.50
830.09	1206.25
830.26	1302.51
830.43	1284.08
830.60	1290.22
830.77	1306.60
830.94	1277.93
831.11	1191.92
831.28	1241.07
831.46	1290.22
831.63	1306.60
831.80	1269.74
831.97	1200.11
832.14	1261.55
832.31	1316.84
832.48	1263.60
832.65	1312.75
832.82	1286.12
832.99	1228.78
833.17	1300.46
833.34	1265.64
833.51	1239.02
833.68	1267.69
833.85	1294.32
834.02	1232.88
834.19	1241.07
834.36	1304.56
834.53	1216.49
834.70	1310.70
834.87	1224.69
835.04	1226.73
835.22	1251.31
835.39	1331.18
835.56	1282.03
835.73	1255.40
835.90	1208.30
836.07	1245.16
836.24	1218.54
836.41	1277.93
836.58	1232.88
836.75	1257.45
836.92	1214.45
837.09	1273.84
837.26	1198.06
837.43	1236.97
837.60	1286.12
837.77	1222.64
837.94	1216.49
838.12	1302.51
838.29	1298.41
838.46	1200.11
838.63	1236.97
838.80	1261.55
838.97	1294.32
839.14	1296.36
839.31	1288.17
839.48	1337.32
839.65	1249.26
839.82	1241.07
839.99	1224.69
840.16	1271.79
840.33	1255.40
840.50	1212.40
840.67	1249.26
840.84	1345.52
841.01	1253.36
841.18	1322.99
841.35	1273.84
841.52	1277.93
841.69	1257.45
841.86	1277.93
842.03	1271.79
842.20	1241.07
842.37	1298.41
842.54	1339.37
842.71	1261.55
842.88	1271.79
843.05	1286.12
843.22	1288.17
843.39	1228.78
843.56	1261.55
843.73	1220.59
843.90	1296.36
844.07	1261.55
844.24	1265.64
844.41	1286.12
844.58	1294.32
844.75	1173.49
844.92	1316.84
845.09	1310.70
845.26	1236.97
845.43	1196.01
845.60	1357.80
845.77	1249.26
845.94	1312.75
846.10	1298.41
846.27	1269.74
846.44	1267.69
846.61	1234.93
846.78	1218.54
846.95	1298.41
847.12	1259.50
847.29	1234.93
847.46	1298.41
847.63	1275.88
847.80	1257.45
847.97	1294.32
848.14	1279.98
848.31	1271.79
848.48	1210.35
848.65	1288.17
848.82	1208.30
848.98	1329.13
849.15	1290.22
849.32	1306.60
849.49	1196.01
849.66	1368.04
849.83	1239.02
850.00	1273.84
850.17	1249.26
850.34	1273.84
850.51	1304.56
850.68	1239.02
850.85	1337.32
851.01	1318.89
851.18	1310.70
851.35	1230.83
851.52	1296.36
851.69	1259.50
851.86	1263.60
852.03	1253.36
852.20	1302.51
852.37	1232.88
852.53	1298.41
852.70	1214.45
852.87	1288.17
853.04	1298.41
853.21	1286.12
853.38	1261.55
853.55	1214.45
853.72	1253.36
853.89	1208.30
854.05	1230.83
854.22	1310.70
854.39	1290.22
854.56	1308.65
854.73	1294.32
854.90	1196.01
855.07	1300.46
855.23	1220.59
855.40	1298.41
855.57	1263.60
855.74	1312.75
855.91	1310.70
856.08	1261.55
856.25	1277.93
856.41	1245.16
856.58	1220.59
856.75	1241.07
856.92	1355.76
857.09	1263.60
857.26	1234.93
857.42	1273.84
857.59	1296.36
857.76	1308.65
857.93	1243.12
858.10	1314.80
858.27	1228.78
858.43	1261.55
858.60	1298.41
858.77	1279.98
858.94	1224.69
859.11	1269.74
859.27	1236.97
859.44	1298.41
859.61	1341.42
859.78	1251.31
859.95	1277.93
860.12	1263.60
860.28	1284.08
860.45	1261.55
860.62	1245.16
860.79	1292.27
860.95	1298.41
861.12	1259.50
861.29	1204.21
861.46	1337.32
861.63	1253.36
861.79	1363.95
861.96	1179.63
862.13	1269.74
862.30	1271.79
862.47	1226.73
862.63	1306.60
862.80	1245.16
862.97	1236.97
863.14	1275.88
863.30	1232.88
863.47	1322.99
863.64	1286.12
863.81	1259.50
863.97	1243.12
864.14	1257.45
864.31	1257.45
864.48	1310.70
864.65	1179.63
864.81	1306.60
864.98	1230.83
865.15	1267.69
865.32	1189.87
865.48	1232.88
865.65	1241.07
865.82	1273.84
865.98	1212.40
866.15	1284.08
866.32	1310.70
866.49	1277.93
866.65	1302.51
866.82	1312.75
866.99	1232.88
867.16	1232.88
867.32	1224.69
867.49	1224.69
867.66	1304.56
867.83	1263.60
867.99	1216.49
868.16	1251.31
868.33	1216.49
868.49	1267.69
868.66	1286.12
868.83	1245.16
868.99	1265.64
869.16	1218.54
869.33	1322.99
869.50	1218.54
869.66	1263.60
869.83	1259.50
870.00	1239.02
870.16	1290.22
870.33	1255.40
870.50	1249.26
870.66	1228.78
870.83	1249.26
871.00	1230.83
871.17	1230.83
871.33	1322.99
871.50	1214.45
871.67	1249.26
871.83	1241.07
872.00	1261.55
872.17	1335.28
872.33	1255.40
872.50	1249.26
872.67	1261.55
872.83	1251.31
873.00	1269.74
873.17	1288.17
873.33	1306.60
873.50	1277.93
873.67	1228.78
873.83	1306.60
874.00	1296.36
874.16	1314.80
874.33	1230.83
874.50	1290.22
874.66	1284.08
874.83	1236.97
875.00	1286.12
875.16	1265.64
875.33	1284.08
875.50	1200.11
875.66	1312.75
875.83	1150.96
875.99	1241.07
876.16	1236.97
876.33	1257.45
876.49	1193.97
876.66	1265.64
876.83	1335.28
876.99	1269.74
877.16	1255.40
877.32	1236.97
877.49	1271.79
877.66	1214.45
877.82	1206.25
877.99	1241.07
878.15	1331.18
878.32	1269.74
878.49	1198.06
878.65	1196.01
878.82	1277.93
878.98	1300.46
879.15	1288.17
879.32	1306.60
879.48	1300.46
879.65	1302.51
879.81	1241.07
879.98	1290.22
880.15	1312.75
880.31	1232.88
880.48	1314.80
880.64	1322.99
880.81	1241.07
880.97	1298.41
881.14	1249.26
881.31	1290.22
881.47	1368.04
881.64	1222.64
881.80	1226.73
881.97	1271.79
882.13	1232.88
882.30	1253.36
882.47	1265.64
882.63	1327.08
882.80	1277.93
882.96	1267.69
883.13	1288.17
883.29	1236.97
883.46	1277.93
883.62	1304.56
883.79	1306.60
883.95	1320.94
884.12	1255.40
884.29	1294.32
884.45	1224.69
884.62	1208.30
884.78	1277.93
884.95	1331.18
885.11	1271.79
885.28	1247.21
885.44	1279.98
885.61	1259.50
885.77	1220.59
885.94	1222.64
886.10	1245.16
886.27	1245.16
886.43	1265.64
886.60	1339.37
886.76	1284.08
886.93	1279.98
887.09	1271.79
887.26	1230.83
887.42	1302.51
887.59	1300.46
887.75	1226.73
887.92	1185.77
888.08	1251.31
888.25	1288.17
888.41	1249.26
888.58	1236.97
888.74	1236.97
888.91	1232.88
>>>>>End Processed Spectral Data<<<<<
