SpectraSuite Data File
++++++++++++++++++++++++++++++++++++
Date: Sun Apr 03 19:55:43 CEST 2016
User: root
Dark Spectrum Present: No
Reference Spectrum Present: No
Number of Sampled Component Spectra: 1
Spectrometers: USB4C02835
Integration Time (usec): 10000 (USB4C02835)
Spectra Averaged: 1 (USB4C02835)
Boxcar Smoothing: 0 (USB4C02835)
Correct for Electrical Dark: No (USB4C02835)
Strobe/Lamp Enabled: No (USB4C02835)
Correct for Detector Non-linearity: No (USB4C02835)
Correct for Stray Light: No (USB4C02835)
Number of Pixels in Processed Spectrum: 3648
>>>>>Begin Processed Spectral Data<<<<<
177.47	1316.84
177.69	1316.84
177.91	1316.84
178.13	1267.69
178.36	1226.73
178.58	1265.64
178.80	1277.93
179.02	1222.64
179.24	1312.75
179.46	1322.99
179.68	1253.36
179.90	1187.82
180.13	1302.51
180.35	1269.74
180.57	1255.40
180.79	1298.41
181.01	1284.08
181.23	1255.40
181.45	1292.27
181.67	1339.37
181.90	1251.31
182.12	1232.88
182.34	1320.94
182.56	1171.44
182.78	1259.50
183.00	1224.69
183.22	1243.12
183.44	1234.93
183.66	1269.74
183.89	1290.22
184.11	1228.78
184.33	1288.17
184.55	1243.12
184.77	1290.22
184.99	1267.69
185.21	1239.02
185.43	1279.98
185.65	1288.17
185.87	1275.88
186.10	1318.89
186.32	1263.60
186.54	1318.89
186.76	1314.80
186.98	1271.79
187.20	1249.26
187.42	1245.16
187.64	1282.03
187.86	1249.26
188.08	1216.49
188.30	1337.32
188.52	1253.36
188.75	1318.89
188.97	1208.30
189.19	1259.50
189.41	1253.36
189.63	1292.27
189.85	1331.18
190.07	1259.50
190.29	1216.49
190.51	1290.22
190.73	1230.83
190.95	1308.65
191.17	1306.60
191.39	1298.41
191.61	1259.50
191.84	1247.21
192.06	1193.97
192.28	1343.47
192.50	1290.22
192.72	1253.36
192.94	1259.50
193.16	1181.68
193.38	1277.93
193.60	1249.26
193.82	1314.80
194.04	1333.23
194.26	1222.64
194.48	1253.36
194.70	1372.14
194.92	1277.93
195.14	1249.26
195.36	1271.79
195.58	1247.21
195.80	1220.59
196.02	1253.36
196.24	1347.56
196.46	1191.92
196.69	1206.25
196.91	1314.80
197.13	1306.60
197.35	1226.73
197.57	1298.41
197.79	1298.41
198.01	1279.98
198.23	1236.97
198.45	1267.69
198.67	1288.17
198.89	1210.35
199.11	1329.13
199.33	1261.55
199.55	1236.97
199.77	1275.88
199.99	1273.84
200.21	1230.83
200.43	1212.40
200.65	1294.32
200.87	1284.08
201.09	1279.98
201.31	1298.41
201.53	1181.68
201.75	1263.60
201.97	1253.36
202.19	1232.88
202.41	1249.26
202.63	1224.69
202.85	1259.50
203.07	1310.70
203.29	1259.50
203.51	1298.41
203.73	1255.40
203.95	1329.13
204.17	1243.12
204.39	1251.31
204.61	1224.69
204.83	1247.21
205.05	1298.41
205.27	1327.08
205.49	1374.19
205.71	1308.65
205.93	1253.36
206.15	1257.45
206.37	1294.32
206.59	1320.94
206.81	1263.60
207.03	1296.36
207.25	1259.50
207.47	1220.59
207.69	1243.12
207.91	1208.30
208.13	1263.60
208.34	1310.70
208.56	1308.65
208.78	1284.08
209.00	1288.17
209.22	1232.88
209.44	1249.26
209.66	1310.70
209.88	1214.45
210.10	1236.97
210.32	1234.93
210.54	1345.52
210.76	1224.69
210.98	1249.26
211.20	1206.25
211.42	1253.36
211.64	1304.56
211.86	1294.32
212.08	1218.54
212.30	1279.98
212.52	1273.84
212.74	1298.41
212.96	1198.06
213.17	1292.27
213.39	1247.21
213.61	1241.07
213.83	1249.26
214.05	1298.41
214.27	1241.07
214.49	1230.83
214.71	1322.99
214.93	1214.45
215.15	1232.88
215.37	1275.88
215.59	1322.99
215.81	1259.50
216.03	1306.60
216.24	1279.98
216.46	1228.78
216.68	1341.42
216.90	1304.56
217.12	1247.21
217.34	1290.22
217.56	1189.87
217.78	1282.03
218.00	1191.92
218.22	1304.56
218.44	1304.56
218.66	1259.50
218.87	1251.31
219.09	1294.32
219.31	1243.12
219.53	1331.18
219.75	1300.46
219.97	1284.08
220.19	1263.60
220.41	1304.56
220.63	1249.26
220.85	1265.64
221.06	1216.49
221.28	1366.00
221.50	1230.83
221.72	1286.12
221.94	1255.40
222.16	1198.06
222.38	1243.12
222.60	1333.23
222.82	1333.23
223.03	1296.36
223.25	1308.65
223.47	1216.49
223.69	1275.88
223.91	1251.31
224.13	1198.06
224.35	1284.08
224.57	1224.69
224.78	1288.17
225.00	1265.64
225.22	1216.49
225.44	1241.07
225.66	1265.64
225.88	1273.84
226.10	1259.50
226.32	1239.02
226.53	1245.16
226.75	1273.84
226.97	1245.16
227.19	1275.88
227.41	1218.54
227.63	1322.99
227.85	1277.93
228.06	1222.64
228.28	1290.22
228.50	1245.16
228.72	1288.17
228.94	1300.46
229.16	1241.07
229.37	1226.73
229.59	1273.84
229.81	1292.27
230.03	1251.31
230.25	1241.07
230.47	1220.59
230.69	1200.11
230.90	1286.12
231.12	1236.97
231.34	1339.37
231.56	1312.75
231.78	1263.60
232.00	1298.41
232.21	1232.88
232.43	1253.36
232.65	1263.60
232.87	1277.93
233.09	1265.64
233.30	1236.97
233.52	1241.07
233.74	1300.46
233.96	1247.21
234.18	1284.08
234.40	1232.88
234.61	1345.52
234.83	1271.79
235.05	1251.31
235.27	1222.64
235.49	1257.45
235.70	1198.06
235.92	1290.22
236.14	1261.55
236.36	1243.12
236.58	1279.98
236.79	1294.32
237.01	1245.16
237.23	1284.08
237.45	1257.45
237.67	1222.64
237.88	1333.23
238.10	1300.46
238.32	1349.61
238.54	1333.23
238.76	1273.84
238.97	1296.36
239.19	1282.03
239.41	1312.75
239.63	1263.60
239.85	1175.53
240.06	1239.02
240.28	1253.36
240.50	1284.08
240.72	1206.25
240.93	1298.41
241.15	1255.40
241.37	1167.34
241.59	1198.06
241.81	1302.51
242.02	1286.12
242.24	1282.03
242.46	1247.21
242.68	1251.31
242.89	1257.45
243.11	1210.35
243.33	1230.83
243.55	1290.22
243.76	1208.30
243.98	1271.79
244.20	1331.18
244.42	1220.59
244.64	1327.08
244.85	1228.78
245.07	1314.80
245.29	1220.59
245.51	1349.61
245.72	1241.07
245.94	1279.98
246.16	1245.16
246.38	1275.88
246.59	1239.02
246.81	1243.12
247.03	1308.65
247.24	1234.93
247.46	1226.73
247.68	1343.47
247.90	1245.16
248.11	1308.65
248.33	1236.97
248.55	1232.88
248.77	1298.41
248.98	1347.56
249.20	1269.74
249.42	1226.73
249.64	1288.17
249.85	1220.59
250.07	1206.25
250.29	1312.75
250.50	1304.56
250.72	1234.93
250.94	1294.32
251.16	1314.80
251.37	1314.80
251.59	1296.36
251.81	1230.83
252.02	1269.74
252.24	1341.42
252.46	1200.11
252.68	1273.84
252.89	1271.79
253.11	1232.88
253.33	1380.33
253.54	1230.83
253.76	1298.41
253.98	1269.74
254.20	1230.83
254.41	1263.60
254.63	1206.25
254.85	1370.09
255.06	1232.88
255.28	1327.08
255.50	1214.45
255.71	1294.32
255.93	1271.79
256.15	1284.08
256.36	1230.83
256.58	1247.21
256.80	1251.31
257.02	1161.20
257.23	1193.97
257.45	1263.60
257.67	1284.08
257.88	1257.45
258.10	1228.78
258.32	1316.84
258.53	1318.89
258.75	1214.45
258.97	1273.84
259.18	1271.79
259.40	1249.26
259.62	1298.41
259.83	1257.45
260.05	1316.84
260.27	1347.56
260.48	1288.17
260.70	1230.83
260.92	1271.79
261.13	1234.93
261.35	1210.35
261.57	1230.83
261.78	1198.06
262.00	1282.03
262.22	1296.36
262.43	1249.26
262.65	1234.93
262.86	1286.12
263.08	1290.22
263.30	1327.08
263.51	1273.84
263.73	1275.88
263.95	1239.02
264.16	1218.54
264.38	1247.21
264.60	1191.92
264.81	1304.56
265.03	1265.64
265.25	1214.45
265.46	1232.88
265.68	1290.22
265.89	1310.70
266.11	1294.32
266.33	1318.89
266.54	1249.26
266.76	1294.32
266.98	1212.40
267.19	1286.12
267.41	1216.49
267.62	1214.45
267.84	1320.94
268.06	1363.95
268.27	1241.07
268.49	1331.18
268.70	1234.93
268.92	1314.80
269.14	1253.36
269.35	1265.64
269.57	1302.51
269.79	1263.60
270.00	1173.49
270.22	1257.45
270.43	1216.49
270.65	1193.97
270.87	1269.74
271.08	1271.79
271.30	1249.26
271.51	1335.28
271.73	1316.84
271.95	1288.17
272.16	1251.31
272.38	1273.84
272.59	1318.89
272.81	1259.50
273.02	1243.12
273.24	1312.75
273.46	1277.93
273.67	1269.74
273.89	1202.16
274.10	1298.41
274.32	1345.52
274.54	1216.49
274.75	1228.78
274.97	1214.45
275.18	1234.93
275.40	1271.79
275.61	1265.64
275.83	1241.07
276.05	1296.36
276.26	1290.22
276.48	1296.36
276.69	1290.22
276.91	1277.93
277.12	1200.11
277.34	1304.56
277.55	1298.41
277.77	1212.40
277.99	1267.69
278.20	1241.07
278.42	1310.70
278.63	1296.36
278.85	1292.27
279.06	1224.69
279.28	1224.69
279.49	1210.35
279.71	1236.97
279.93	1273.84
280.14	1193.97
280.36	1273.84
280.57	1189.87
280.79	1279.98
281.00	1245.16
281.22	1212.40
281.43	1216.49
281.65	1267.69
281.86	1314.80
282.08	1290.22
282.29	1273.84
282.51	1292.27
282.73	1255.40
282.94	1249.26
283.16	1247.21
283.37	1343.47
283.59	1243.12
283.80	1312.75
284.02	1282.03
284.23	1261.55
284.45	1322.99
284.66	1302.51
284.88	1224.69
285.09	1271.79
285.31	1241.07
285.52	1273.84
285.74	1290.22
285.95	1232.88
286.17	1267.69
286.38	1234.93
286.60	1296.36
286.81	1228.78
287.03	1382.38
287.24	1273.84
287.46	1279.98
287.67	1218.54
287.89	1300.46
288.10	1185.77
288.32	1181.68
288.53	1310.70
288.75	1322.99
288.96	1271.79
289.18	1265.64
289.39	1312.75
289.61	1220.59
289.82	1282.03
290.04	1296.36
290.25	1265.64
290.47	1253.36
290.68	1322.99
290.90	1325.04
291.11	1255.40
291.33	1210.35
291.54	1216.49
291.76	1312.75
291.97	1222.64
292.18	1249.26
292.40	1322.99
292.61	1196.01
292.83	1257.45
293.04	1261.55
293.26	1214.45
293.47	1304.56
293.69	1265.64
293.90	1249.26
294.12	1329.13
294.33	1284.08
294.55	1275.88
294.76	1239.02
294.97	1257.45
295.19	1220.59
295.40	1282.03
295.62	1255.40
295.83	1236.97
296.05	1249.26
296.26	1226.73
296.48	1261.55
296.69	1247.21
296.90	1239.02
297.12	1216.49
297.33	1320.94
297.55	1251.31
297.76	1218.54
297.98	1265.64
298.19	1304.56
298.41	1257.45
298.62	1191.92
298.83	1312.75
299.05	1279.98
299.26	1292.27
299.48	1236.97
299.69	1216.49
299.90	1339.37
300.12	1327.08
300.33	1275.88
300.55	1226.73
300.76	1267.69
300.98	1286.12
301.19	1290.22
301.40	1300.46
301.62	1300.46
301.83	1232.88
302.05	1239.02
302.26	1341.42
302.47	1329.13
302.69	1232.88
302.90	1196.01
303.12	1269.74
303.33	1290.22
303.54	1288.17
303.76	1331.18
303.97	1269.74
304.19	1222.64
304.40	1255.40
304.61	1300.46
304.83	1200.11
305.04	1294.32
305.26	1318.89
305.47	1247.21
305.68	1292.27
305.90	1247.21
306.11	1222.64
306.33	1288.17
306.54	1234.93
306.75	1247.21
306.97	1265.64
307.18	1239.02
307.39	1239.02
307.61	1253.36
307.82	1294.32
308.04	1232.88
308.25	1236.97
308.46	1196.01
308.68	1259.50
308.89	1298.41
309.10	1333.23
309.32	1279.98
309.53	1245.16
309.74	1253.36
309.96	1232.88
310.17	1267.69
310.39	1249.26
310.60	1277.93
310.81	1247.21
311.03	1298.41
311.24	1314.80
311.45	1279.98
311.67	1228.78
311.88	1263.60
312.09	1296.36
312.31	1255.40
312.52	1269.74
312.73	1261.55
312.95	1187.82
313.16	1202.16
313.37	1308.65
313.59	1212.40
313.80	1302.51
314.01	1261.55
314.23	1275.88
314.44	1200.11
314.65	1222.64
314.87	1275.88
315.08	1302.51
315.29	1275.88
315.51	1294.32
315.72	1325.04
315.93	1292.27
316.15	1308.65
316.36	1316.84
316.57	1325.04
316.79	1294.32
317.00	1210.35
317.21	1167.34
317.43	1255.40
317.64	1257.45
317.85	1251.31
318.07	1267.69
318.28	1267.69
318.49	1277.93
318.70	1267.69
318.92	1206.25
319.13	1300.46
319.34	1314.80
319.56	1286.12
319.77	1247.21
319.98	1277.93
320.20	1368.04
320.41	1216.49
320.62	1247.21
320.83	1271.79
321.05	1333.23
321.26	1355.76
321.47	1263.60
321.69	1249.26
321.90	1179.63
322.11	1294.32
322.32	1222.64
322.54	1243.12
322.75	1261.55
322.96	1298.41
323.18	1230.83
323.39	1282.03
323.60	1226.73
323.81	1327.08
324.03	1187.82
324.24	1269.74
324.45	1286.12
324.66	1230.83
324.88	1263.60
325.09	1243.12
325.30	1288.17
325.52	1234.93
325.73	1241.07
325.94	1306.60
326.15	1302.51
326.37	1304.56
326.58	1187.82
326.79	1318.89
327.00	1310.70
327.22	1296.36
327.43	1234.93
327.64	1220.59
327.85	1269.74
328.07	1271.79
328.28	1275.88
328.49	1181.68
328.70	1253.36
328.92	1320.94
329.13	1245.16
329.34	1355.76
329.55	1171.44
329.76	1296.36
329.98	1279.98
330.19	1259.50
330.40	1265.64
330.61	1196.01
330.83	1325.04
331.04	1222.64
331.25	1222.64
331.46	1288.17
331.68	1290.22
331.89	1314.80
332.10	1191.92
332.31	1271.79
332.52	1253.36
332.74	1218.54
332.95	1249.26
333.16	1298.41
333.37	1230.83
333.58	1322.99
333.80	1247.21
334.01	1247.21
334.22	1292.27
334.43	1279.98
334.64	1193.97
334.86	1310.70
335.07	1236.97
335.28	1308.65
335.49	1271.79
335.70	1267.69
335.92	1253.36
336.13	1279.98
336.34	1322.99
336.55	1265.64
336.76	1261.55
336.98	1366.00
337.19	1275.88
337.40	1234.93
337.61	1282.03
337.82	1282.03
338.04	1232.88
338.25	1243.12
338.46	1263.60
338.67	1353.71
338.88	1312.75
339.09	1290.22
339.31	1292.27
339.52	1271.79
339.73	1267.69
339.94	1304.56
340.15	1271.79
340.36	1345.52
340.58	1228.78
340.79	1300.46
341.00	1343.47
341.21	1263.60
341.42	1304.56
341.63	1298.41
341.85	1245.16
342.06	1234.93
342.27	1228.78
342.48	1265.64
342.69	1216.49
342.90	1263.60
343.12	1306.60
343.33	1318.89
343.54	1294.32
343.75	1271.79
343.96	1257.45
344.17	1220.59
344.38	1277.93
344.60	1282.03
344.81	1239.02
345.02	1236.97
345.23	1286.12
345.44	1312.75
345.65	1226.73
345.86	1148.91
346.07	1261.55
346.29	1298.41
346.50	1273.84
346.71	1267.69
346.92	1222.64
347.13	1263.60
347.34	1253.36
347.55	1243.12
347.76	1327.08
347.98	1298.41
348.19	1329.13
348.40	1257.45
348.61	1236.97
348.82	1257.45
349.03	1290.22
349.24	1261.55
349.45	1275.88
349.66	1179.63
349.88	1279.98
350.09	1245.16
350.30	1206.25
350.51	1339.37
350.72	1269.74
350.93	1318.89
351.14	1331.18
351.35	1314.80
351.56	1282.03
351.77	1306.60
351.99	1236.97
352.20	1226.73
352.41	1269.74
352.62	1216.49
352.83	1312.75
353.04	1275.88
353.25	1327.08
353.46	1267.69
353.67	1202.16
353.88	1273.84
354.09	1267.69
354.30	1290.22
354.52	1263.60
354.73	1251.31
354.94	1206.25
355.15	1220.59
355.36	1296.36
355.57	1245.16
355.78	1245.16
355.99	1257.45
356.20	1265.64
356.41	1294.32
356.62	1292.27
356.83	1310.70
357.04	1171.44
357.25	1275.88
357.46	1294.32
357.68	1257.45
357.89	1296.36
358.10	1286.12
358.31	1275.88
358.52	1308.65
358.73	1271.79
358.94	1298.41
359.15	1275.88
359.36	1263.60
359.57	1216.49
359.78	1286.12
359.99	1245.16
360.20	1271.79
360.41	1236.97
360.62	1247.21
360.83	1322.99
361.04	1200.11
361.25	1282.03
361.46	1249.26
361.67	1255.40
361.88	1263.60
362.09	1347.56
362.30	1243.12
362.51	1255.40
362.72	1318.89
362.93	1183.73
363.14	1306.60
363.35	1251.31
363.56	1298.41
363.78	1267.69
363.99	1304.56
364.20	1148.91
364.41	1228.78
364.62	1277.93
364.83	1269.74
365.04	1243.12
365.25	1275.88
365.46	1298.41
365.67	1286.12
365.88	1322.99
366.09	1265.64
366.30	1257.45
366.51	1230.83
366.72	1204.21
366.93	1265.64
367.14	1245.16
367.35	1286.12
367.56	1271.79
367.77	1298.41
367.98	1206.25
368.18	1249.26
368.39	1214.45
368.60	1257.45
368.81	1243.12
369.02	1247.21
369.23	1269.74
369.44	1249.26
369.65	1325.04
369.86	1265.64
370.07	1310.70
370.28	1298.41
370.49	1282.03
370.70	1329.13
370.91	1224.69
371.12	1175.53
371.33	1234.93
371.54	1222.64
371.75	1259.50
371.96	1239.02
372.17	1239.02
372.38	1314.80
372.59	1261.55
372.80	1263.60
373.01	1198.06
373.22	1234.93
373.43	1288.17
373.64	1298.41
373.85	1263.60
374.06	1351.66
374.26	1282.03
374.47	1253.36
374.68	1265.64
374.89	1185.77
375.10	1357.80
375.31	1322.99
375.52	1259.50
375.73	1247.21
375.94	1308.65
376.15	1230.83
376.36	1302.51
376.57	1312.75
376.78	1318.89
376.99	1355.76
377.20	1343.47
377.40	1304.56
377.61	1193.97
377.82	1226.73
378.03	1269.74
378.24	1314.80
378.45	1208.30
378.66	1226.73
378.87	1230.83
379.08	1257.45
379.29	1243.12
379.50	1239.02
379.71	1234.93
379.91	1247.21
380.12	1327.08
380.33	1234.93
380.54	1243.12
380.75	1331.18
380.96	1296.36
381.17	1292.27
381.38	1243.12
381.59	1318.89
381.80	1267.69
382.00	1269.74
382.21	1290.22
382.42	1263.60
382.63	1265.64
382.84	1196.01
383.05	1249.26
383.26	1216.49
383.47	1249.26
383.68	1220.59
383.88	1290.22
384.09	1230.83
384.30	1200.11
384.51	1282.03
384.72	1220.59
384.93	1318.89
385.14	1236.97
385.35	1261.55
385.55	1259.50
385.76	1259.50
385.97	1245.16
386.18	1331.18
386.39	1232.88
386.60	1296.36
386.81	1255.40
387.02	1230.83
387.22	1243.12
387.43	1320.94
387.64	1269.74
387.85	1247.21
388.06	1267.69
388.27	1255.40
388.48	1236.97
388.68	1292.27
388.89	1249.26
389.10	1279.98
389.31	1247.21
389.52	1322.99
389.73	1236.97
389.93	1265.64
390.14	1257.45
390.35	1269.74
390.56	1232.88
390.77	1245.16
390.98	1232.88
391.18	1302.51
391.39	1296.36
391.60	1302.51
391.81	1236.97
392.02	1249.26
392.23	1257.45
392.43	1275.88
392.64	1296.36
392.85	1322.99
393.06	1341.42
393.27	1212.40
393.47	1239.02
393.68	1269.74
393.89	1273.84
394.10	1208.30
394.31	1282.03
394.52	1265.64
394.72	1267.69
394.93	1216.49
395.14	1341.42
395.35	1286.12
395.56	1234.93
395.76	1232.88
395.97	1255.40
396.18	1304.56
396.39	1265.64
396.60	1265.64
396.80	1257.45
397.01	1335.28
397.22	1277.93
397.43	1249.26
397.64	1222.64
397.84	1222.64
398.05	1327.08
398.26	1306.60
398.47	1279.98
398.67	1253.36
398.88	1312.75
399.09	1277.93
399.30	1288.17
399.51	1279.98
399.71	1257.45
399.92	1296.36
400.13	1257.45
400.34	1241.07
400.54	1273.84
400.75	1284.08
400.96	1351.66
401.17	1255.40
401.37	1232.88
401.58	1251.31
401.79	1314.80
402.00	1243.12
402.21	1245.16
402.41	1255.40
402.62	1224.69
402.83	1267.69
403.04	1214.45
403.24	1249.26
403.45	1247.21
403.66	1277.93
403.87	1267.69
404.07	1263.60
404.28	1239.02
404.49	1261.55
404.70	1253.36
404.90	1310.70
405.11	1282.03
405.32	1220.59
405.52	1302.51
405.73	1288.17
405.94	1249.26
406.15	1298.41
406.35	1212.40
406.56	1232.88
406.77	1224.69
406.98	1294.32
407.18	1232.88
407.39	1325.04
407.60	1218.54
407.80	1232.88
408.01	1224.69
408.22	1222.64
408.43	1277.93
408.63	1275.88
408.84	1302.51
409.05	1236.97
409.25	1239.02
409.46	1300.46
409.67	1277.93
409.88	1296.36
410.08	1347.56
410.29	1249.26
410.50	1210.35
410.70	1263.60
410.91	1292.27
411.12	1271.79
411.32	1286.12
411.53	1282.03
411.74	1191.92
411.95	1200.11
412.15	1269.74
412.36	1263.60
412.57	1232.88
412.77	1247.21
412.98	1243.12
413.19	1288.17
413.39	1345.52
413.60	1241.07
413.81	1212.40
414.01	1236.97
414.22	1292.27
414.43	1198.06
414.63	1202.16
414.84	1329.13
415.05	1230.83
415.25	1372.14
415.46	1224.69
415.67	1241.07
415.87	1155.05
416.08	1316.84
416.29	1275.88
416.49	1216.49
416.70	1204.21
416.91	1239.02
417.11	1173.49
417.32	1259.50
417.53	1226.73
417.73	1243.12
417.94	1245.16
418.15	1376.24
418.35	1208.30
418.56	1284.08
418.77	1306.60
418.97	1232.88
419.18	1322.99
419.38	1304.56
419.59	1318.89
419.80	1253.36
420.00	1298.41
420.21	1366.00
420.42	1282.03
420.62	1282.03
420.83	1257.45
421.04	1239.02
421.24	1191.92
421.45	1214.45
421.65	1359.85
421.86	1277.93
422.07	1275.88
422.27	1228.78
422.48	1239.02
422.69	1249.26
422.89	1259.50
423.10	1267.69
423.30	1296.36
423.51	1263.60
423.72	1269.74
423.92	1218.54
424.13	1265.64
424.33	1288.17
424.54	1247.21
424.75	1312.75
424.95	1312.75
425.16	1282.03
425.36	1273.84
425.57	1247.21
425.78	1234.93
425.98	1251.31
426.19	1249.26
426.39	1220.59
426.60	1286.12
426.81	1245.16
427.01	1341.42
427.22	1243.12
427.42	1236.97
427.63	1327.08
427.83	1331.18
428.04	1232.88
428.25	1236.97
428.45	1218.54
428.66	1341.42
428.86	1259.50
429.07	1245.16
429.28	1181.68
429.48	1189.87
429.69	1322.99
429.89	1257.45
430.10	1298.41
430.30	1224.69
430.51	1370.09
430.71	1308.65
430.92	1271.79
431.13	1320.94
431.33	1308.65
431.54	1247.21
431.74	1290.22
431.95	1245.16
432.15	1294.32
432.36	1155.05
432.56	1208.30
432.77	1241.07
432.98	1255.40
433.18	1275.88
433.39	1214.45
433.59	1327.08
433.80	1292.27
434.00	1325.04
434.21	1269.74
434.41	1314.80
434.62	1322.99
434.82	1269.74
435.03	1228.78
435.23	1318.89
435.44	1210.35
435.64	1220.59
435.85	1290.22
436.06	1300.46
436.26	1290.22
436.47	1234.93
436.67	1236.97
436.88	1279.98
437.08	1337.32
437.29	1224.69
437.49	1325.04
437.70	1265.64
437.90	1257.45
438.11	1224.69
438.31	1322.99
438.52	1208.30
438.72	1226.73
438.93	1253.36
439.13	1214.45
439.34	1294.32
439.54	1234.93
439.75	1273.84
439.95	1282.03
440.16	1261.55
440.36	1277.93
440.57	1208.30
440.77	1259.50
440.98	1200.11
441.18	1347.56
441.39	1239.02
441.59	1224.69
441.80	1284.08
442.00	1241.07
442.21	1318.89
442.41	1265.64
442.62	1222.64
442.82	1214.45
443.02	1183.73
443.23	1275.88
443.43	1255.40
443.64	1239.02
443.84	1327.08
444.05	1253.36
444.25	1236.97
444.46	1282.03
444.66	1232.88
444.87	1271.79
445.07	1243.12
445.28	1290.22
445.48	1279.98
445.69	1208.30
445.89	1255.40
446.09	1261.55
446.30	1114.10
446.50	1300.46
446.71	1224.69
446.91	1263.60
447.12	1251.31
447.32	1267.69
447.53	1282.03
447.73	1232.88
447.93	1239.02
448.14	1275.88
448.34	1224.69
448.55	1292.27
448.75	1216.49
448.96	1234.93
449.16	1277.93
449.36	1327.08
449.57	1273.84
449.77	1245.16
449.98	1236.97
450.18	1228.78
450.39	1333.23
450.59	1300.46
450.79	1296.36
451.00	1308.65
451.20	1224.69
451.41	1239.02
451.61	1275.88
451.81	1306.60
452.02	1318.89
452.22	1298.41
452.43	1273.84
452.63	1187.82
452.84	1331.18
453.04	1241.07
453.24	1306.60
453.45	1331.18
453.65	1357.80
453.86	1263.60
454.06	1282.03
454.26	1376.24
454.47	1277.93
454.67	1214.45
454.87	1366.00
455.08	1275.88
455.28	1220.59
455.49	1214.45
455.69	1376.24
455.89	1263.60
456.10	1257.45
456.30	1298.41
456.51	1277.93
456.71	1282.03
456.91	1259.50
457.12	1243.12
457.32	1333.23
457.52	1331.18
457.73	1335.28
457.93	1335.28
458.14	1282.03
458.34	1232.88
458.54	1273.84
458.75	1239.02
458.95	1198.06
459.15	1253.36
459.36	1290.22
459.56	1230.83
459.76	1282.03
459.97	1239.02
460.17	1230.83
460.37	1241.07
460.58	1265.64
460.78	1263.60
460.99	1302.51
461.19	1314.80
461.39	1206.25
461.60	1296.36
461.80	1279.98
462.00	1351.66
462.21	1239.02
462.41	1255.40
462.61	1230.83
462.82	1325.04
463.02	1183.73
463.22	1298.41
463.43	1226.73
463.63	1247.21
463.83	1286.12
464.04	1257.45
464.24	1277.93
464.44	1279.98
464.64	1308.65
464.85	1247.21
465.05	1327.08
465.25	1300.46
465.46	1322.99
465.66	1353.71
465.86	1259.50
466.07	1318.89
466.27	1249.26
466.47	1263.60
466.68	1271.79
466.88	1292.27
467.08	1284.08
467.29	1275.88
467.49	1236.97
467.69	1218.54
467.89	1214.45
468.10	1312.75
468.30	1304.56
468.50	1380.33
468.71	1290.22
468.91	1314.80
469.11	1318.89
469.31	1325.04
469.52	1296.36
469.72	1263.60
469.92	1224.69
470.13	1265.64
470.33	1284.08
470.53	1290.22
470.73	1247.21
470.94	1308.65
471.14	1284.08
471.34	1277.93
471.54	1216.49
471.75	1261.55
471.95	1265.64
472.15	1224.69
472.36	1198.06
472.56	1269.74
472.76	1318.89
472.96	1318.89
473.17	1322.99
473.37	1282.03
473.57	1220.59
473.77	1286.12
473.98	1275.88
474.18	1239.02
474.38	1261.55
474.58	1298.41
474.79	1222.64
474.99	1228.78
475.19	1253.36
475.39	1249.26
475.60	1247.21
475.80	1282.03
476.00	1312.75
476.20	1271.79
476.41	1306.60
476.61	1353.71
476.81	1269.74
477.01	1282.03
477.21	1267.69
477.42	1290.22
477.62	1263.60
477.82	1232.88
478.02	1312.75
478.23	1294.32
478.43	1284.08
478.63	1239.02
478.83	1204.21
479.03	1298.41
479.24	1296.36
479.44	1275.88
479.64	1261.55
479.84	1259.50
480.04	1243.12
480.25	1265.64
480.45	1353.71
480.65	1261.55
480.85	1241.07
481.06	1296.36
481.26	1267.69
481.46	1241.07
481.66	1263.60
481.86	1273.84
482.06	1247.21
482.27	1339.37
482.47	1277.93
482.67	1265.64
482.87	1253.36
483.07	1253.36
483.28	1282.03
483.48	1208.30
483.68	1265.64
483.88	1294.32
484.08	1282.03
484.29	1273.84
484.49	1343.47
484.69	1236.97
484.89	1255.40
485.09	1282.03
485.29	1204.21
485.50	1265.64
485.70	1259.50
485.90	1259.50
486.10	1216.49
486.30	1286.12
486.50	1273.84
486.71	1265.64
486.91	1228.78
487.11	1282.03
487.31	1322.99
487.51	1300.46
487.71	1298.41
487.91	1261.55
488.12	1265.64
488.32	1261.55
488.52	1339.37
488.72	1251.31
488.92	1335.28
489.12	1273.84
489.32	1271.79
489.53	1298.41
489.73	1263.60
489.93	1259.50
490.13	1277.93
490.33	1279.98
490.53	1279.98
490.73	1241.07
490.94	1267.69
491.14	1253.36
491.34	1320.94
491.54	1232.88
491.74	1251.31
491.94	1310.70
492.14	1271.79
492.34	1322.99
492.54	1290.22
492.75	1224.69
492.95	1253.36
493.15	1251.31
493.35	1173.49
493.55	1279.98
493.75	1241.07
493.95	1271.79
494.15	1300.46
494.35	1263.60
494.56	1241.07
494.76	1232.88
494.96	1239.02
495.16	1296.36
495.36	1269.74
495.56	1259.50
495.76	1259.50
495.96	1298.41
496.16	1224.69
496.36	1271.79
496.56	1196.01
496.77	1288.17
496.97	1251.31
497.17	1224.69
497.37	1308.65
497.57	1292.27
497.77	1239.02
497.97	1286.12
498.17	1177.58
498.37	1339.37
498.57	1224.69
498.77	1279.98
498.97	1300.46
499.17	1284.08
499.38	1290.22
499.58	1232.88
499.78	1353.71
499.98	1306.60
500.18	1263.60
500.38	1298.41
500.58	1349.61
500.78	1337.32
500.98	1320.94
501.18	1370.09
501.38	1282.03
501.58	1239.02
501.78	1302.51
501.98	1265.64
502.18	1277.93
502.38	1267.69
502.58	1282.03
502.78	1206.25
502.98	1273.84
503.18	1267.69
503.38	1273.84
503.59	1224.69
503.79	1212.40
503.99	1224.69
504.19	1255.40
504.39	1216.49
504.59	1335.28
504.79	1306.60
504.99	1304.56
505.19	1265.64
505.39	1230.83
505.59	1316.84
505.79	1277.93
505.99	1290.22
506.19	1296.36
506.39	1282.03
506.59	1300.46
506.79	1275.88
506.99	1241.07
507.19	1232.88
507.39	1339.37
507.59	1257.45
507.79	1257.45
507.99	1282.03
508.19	1245.16
508.39	1327.08
508.59	1241.07
508.79	1282.03
508.99	1269.74
509.19	1282.03
509.39	1255.40
509.59	1292.27
509.79	1284.08
509.99	1300.46
510.19	1282.03
510.39	1245.16
510.59	1271.79
510.79	1296.36
510.99	1273.84
511.19	1286.12
511.39	1300.46
511.59	1271.79
511.79	1296.36
511.99	1341.42
512.19	1257.45
512.38	1232.88
512.58	1263.60
512.78	1247.21
512.98	1255.40
513.18	1302.51
513.38	1273.84
513.58	1314.80
513.78	1224.69
513.98	1267.69
514.18	1347.56
514.38	1310.70
514.58	1314.80
514.78	1304.56
514.98	1261.55
515.18	1257.45
515.38	1257.45
515.58	1214.45
515.78	1232.88
515.98	1232.88
516.18	1183.73
516.38	1228.78
516.57	1300.46
516.77	1247.21
516.97	1267.69
517.17	1306.60
517.37	1294.32
517.57	1259.50
517.77	1245.16
517.97	1257.45
518.17	1241.07
518.37	1372.14
518.57	1314.80
518.77	1318.89
518.97	1253.36
519.16	1306.60
519.36	1189.87
519.56	1198.06
519.76	1288.17
519.96	1329.13
520.16	1314.80
520.36	1257.45
520.56	1322.99
520.76	1275.88
520.96	1210.35
521.16	1300.46
521.35	1251.31
521.55	1304.56
521.75	1359.85
521.95	1257.45
522.15	1220.59
522.35	1230.83
522.55	1275.88
522.75	1273.84
522.95	1292.27
523.14	1284.08
523.34	1187.82
523.54	1261.55
523.74	1241.07
523.94	1257.45
524.14	1241.07
524.34	1314.80
524.54	1288.17
524.73	1243.12
524.93	1279.98
525.13	1277.93
525.33	1183.73
525.53	1275.88
525.73	1230.83
525.93	1322.99
526.13	1298.41
526.32	1277.93
526.52	1247.21
526.72	1196.01
526.92	1200.11
527.12	1337.32
527.32	1290.22
527.52	1279.98
527.71	1329.13
527.91	1400.81
528.11	1245.16
528.31	1245.16
528.51	1277.93
528.71	1314.80
528.90	1325.04
529.10	1284.08
529.30	1271.79
529.50	1298.41
529.70	1216.49
529.90	1226.73
530.09	1304.56
530.29	1259.50
530.49	1322.99
530.69	1253.36
530.89	1286.12
531.09	1288.17
531.28	1249.26
531.48	1298.41
531.68	1247.21
531.88	1304.56
532.08	1286.12
532.28	1255.40
532.47	1271.79
532.67	1318.89
532.87	1265.64
533.07	1325.04
533.27	1273.84
533.46	1294.32
533.66	1198.06
533.86	1329.13
534.06	1290.22
534.26	1312.75
534.45	1302.51
534.65	1318.89
534.85	1259.50
535.05	1265.64
535.25	1310.70
535.44	1304.56
535.64	1327.08
535.84	1347.56
536.04	1210.35
536.24	1234.93
536.43	1322.99
536.63	1222.64
536.83	1353.71
537.03	1292.27
537.22	1292.27
537.42	1333.23
537.62	1253.36
537.82	1312.75
538.02	1316.84
538.21	1282.03
538.41	1325.04
538.61	1277.93
538.81	1286.12
539.00	1312.75
539.20	1251.31
539.40	1263.60
539.60	1296.36
539.79	1333.23
539.99	1239.02
540.19	1288.17
540.39	1331.18
540.58	1286.12
540.78	1322.99
540.98	1288.17
541.18	1269.74
541.37	1273.84
541.57	1306.60
541.77	1288.17
541.97	1290.22
542.16	1349.61
542.36	1171.44
542.56	1304.56
542.76	1288.17
542.95	1368.04
543.15	1302.51
543.35	1273.84
543.54	1304.56
543.74	1247.21
543.94	1261.55
544.14	1292.27
544.33	1269.74
544.53	1202.16
544.73	1267.69
544.93	1282.03
545.12	1286.12
545.32	1249.26
545.52	1273.84
545.71	1275.88
545.91	1249.26
546.11	1325.04
546.30	1279.98
546.50	1259.50
546.70	1279.98
546.90	1339.37
547.09	1302.51
547.29	1314.80
547.49	1288.17
547.68	1230.83
547.88	1220.59
548.08	1290.22
548.27	1363.95
548.47	1265.64
548.67	1253.36
548.87	1296.36
549.06	1292.27
549.26	1286.12
549.46	1261.55
549.65	1314.80
549.85	1263.60
550.05	1265.64
550.24	1247.21
550.44	1298.41
550.64	1236.97
550.83	1349.61
551.03	1312.75
551.23	1306.60
551.42	1361.90
551.62	1288.17
551.82	1265.64
552.01	1228.78
552.21	1273.84
552.41	1300.46
552.60	1228.78
552.80	1239.02
553.00	1312.75
553.19	1322.99
553.39	1327.08
553.59	1302.51
553.78	1263.60
553.98	1312.75
554.17	1306.60
554.37	1282.03
554.57	1232.88
554.76	1251.31
554.96	1308.65
555.16	1267.69
555.35	1216.49
555.55	1310.70
555.75	1310.70
555.94	1339.37
556.14	1318.89
556.33	1253.36
556.53	1296.36
556.73	1298.41
556.92	1308.65
557.12	1284.08
557.32	1298.41
557.51	1312.75
557.71	1277.93
557.90	1282.03
558.10	1277.93
558.30	1308.65
558.49	1288.17
558.69	1343.47
558.88	1290.22
559.08	1232.88
559.28	1310.70
559.47	1337.32
559.67	1351.66
559.86	1273.84
560.06	1363.95
560.26	1296.36
560.45	1304.56
560.65	1204.21
560.84	1234.93
561.04	1308.65
561.24	1210.35
561.43	1282.03
561.63	1234.93
561.82	1288.17
562.02	1314.80
562.22	1236.97
562.41	1294.32
562.61	1378.28
562.80	1322.99
563.00	1261.55
563.19	1257.45
563.39	1308.65
563.59	1277.93
563.78	1279.98
563.98	1322.99
564.17	1286.12
564.37	1249.26
564.56	1279.98
564.76	1294.32
564.96	1230.83
565.15	1298.41
565.35	1296.36
565.54	1277.93
565.74	1296.36
565.93	1308.65
566.13	1304.56
566.32	1277.93
566.52	1316.84
566.71	1265.64
566.91	1294.32
567.11	1277.93
567.30	1226.73
567.50	1249.26
567.69	1314.80
567.89	1292.27
568.08	1314.80
568.28	1306.60
568.47	1253.36
568.67	1310.70
568.86	1314.80
569.06	1298.41
569.25	1296.36
569.45	1329.13
569.64	1218.54
569.84	1245.16
570.04	1284.08
570.23	1220.59
570.43	1271.79
570.62	1325.04
570.82	1296.36
571.01	1241.07
571.21	1271.79
571.40	1243.12
571.60	1243.12
571.79	1300.46
571.99	1363.95
572.18	1320.94
572.38	1222.64
572.57	1218.54
572.77	1247.21
572.96	1279.98
573.16	1325.04
573.35	1337.32
573.55	1273.84
573.74	1310.70
573.94	1214.45
574.13	1325.04
574.33	1245.16
574.52	1320.94
574.71	1275.88
574.91	1253.36
575.10	1304.56
575.30	1327.08
575.49	1312.75
575.69	1333.23
575.88	1304.56
576.08	1296.36
576.27	1310.70
576.47	1333.23
576.66	1191.92
576.86	1277.93
577.05	1263.60
577.25	1249.26
577.44	1275.88
577.64	1294.32
577.83	1230.83
578.02	1212.40
578.22	1339.37
578.41	1296.36
578.61	1277.93
578.80	1241.07
579.00	1331.18
579.19	1218.54
579.39	1241.07
579.58	1294.32
579.77	1290.22
579.97	1341.42
580.16	1341.42
580.36	1251.31
580.55	1288.17
580.75	1279.98
580.94	1263.60
581.13	1277.93
581.33	1314.80
581.52	1359.85
581.72	1308.65
581.91	1253.36
582.11	1288.17
582.30	1320.94
582.49	1284.08
582.69	1296.36
582.88	1282.03
583.08	1327.08
583.27	1259.50
583.47	1216.49
583.66	1302.51
583.85	1243.12
584.05	1353.71
584.24	1286.12
584.44	1249.26
584.63	1310.70
584.82	1206.25
585.02	1312.75
585.21	1290.22
585.41	1265.64
585.60	1349.61
585.79	1294.32
585.99	1271.79
586.18	1263.60
586.37	1331.18
586.57	1214.45
586.76	1239.02
586.96	1296.36
587.15	1265.64
587.34	1277.93
587.54	1267.69
587.73	1308.65
587.93	1249.26
588.12	1296.36
588.31	1269.74
588.51	1269.74
588.70	1269.74
588.89	1275.88
589.09	1241.07
589.28	1341.42
589.47	1380.33
589.67	1259.50
589.86	1304.56
590.06	1216.49
590.25	1314.80
590.44	1333.23
590.64	1230.83
590.83	1282.03
591.02	1333.23
591.22	1267.69
591.41	1325.04
591.60	1298.41
591.80	1282.03
591.99	1234.93
592.18	1236.97
592.38	1327.08
592.57	1296.36
592.76	1265.64
592.96	1306.60
593.15	1243.12
593.34	1234.93
593.54	1273.84
593.73	1263.60
593.92	1282.03
594.12	1275.88
594.31	1212.40
594.50	1353.71
594.70	1310.70
594.89	1271.79
595.08	1247.21
595.28	1294.32
595.47	1265.64
595.66	1263.60
595.86	1273.84
596.05	1298.41
596.24	1292.27
596.43	1271.79
596.63	1232.88
596.82	1306.60
597.01	1253.36
597.21	1292.27
597.40	1259.50
597.59	1234.93
597.79	1316.84
597.98	1273.84
598.17	1284.08
598.36	1249.26
598.56	1294.32
598.75	1327.08
598.94	1263.60
599.14	1331.18
599.33	1263.60
599.52	1241.07
599.71	1286.12
599.91	1282.03
600.10	1259.50
600.29	1300.46
600.48	1279.98
600.68	1349.61
600.87	1288.17
601.06	1204.21
601.26	1277.93
601.45	1372.14
601.64	1271.79
601.83	1226.73
602.03	1300.46
602.22	1249.26
602.41	1325.04
602.60	1310.70
602.80	1353.71
602.99	1275.88
603.18	1267.69
603.37	1294.32
603.57	1261.55
603.76	1222.64
603.95	1296.36
604.14	1277.93
604.34	1277.93
604.53	1308.65
604.72	1236.97
604.91	1343.47
605.10	1308.65
605.30	1267.69
605.49	1220.59
605.68	1290.22
605.87	1304.56
606.07	1339.37
606.26	1286.12
606.45	1304.56
606.64	1279.98
606.84	1269.74
607.03	1314.80
607.22	1286.12
607.41	1298.41
607.60	1333.23
607.80	1241.07
607.99	1310.70
608.18	1228.78
608.37	1306.60
608.56	1241.07
608.76	1202.16
608.95	1284.08
609.14	1241.07
609.33	1282.03
609.52	1314.80
609.72	1292.27
609.91	1292.27
610.10	1253.36
610.29	1273.84
610.48	1245.16
610.68	1355.76
610.87	1269.74
611.06	1271.79
611.25	1288.17
611.44	1198.06
611.63	1263.60
611.83	1318.89
612.02	1261.55
612.21	1218.54
612.40	1253.36
612.59	1243.12
612.79	1308.65
612.98	1277.93
613.17	1267.69
613.36	1241.07
613.55	1351.66
613.74	1271.79
613.93	1294.32
614.13	1284.08
614.32	1183.73
614.51	1249.26
614.70	1314.80
614.89	1284.08
615.08	1261.55
615.28	1292.27
615.47	1290.22
615.66	1279.98
615.85	1269.74
616.04	1292.27
616.23	1273.84
616.42	1370.09
616.62	1220.59
616.81	1314.80
617.00	1279.98
617.19	1282.03
617.38	1261.55
617.57	1218.54
617.76	1322.99
617.95	1298.41
618.15	1308.65
618.34	1282.03
618.53	1253.36
618.72	1335.28
618.91	1312.75
619.10	1300.46
619.29	1300.46
619.48	1265.64
619.68	1275.88
619.87	1265.64
620.06	1353.71
620.25	1282.03
620.44	1259.50
620.63	1273.84
620.82	1265.64
621.01	1325.04
621.20	1263.60
621.39	1349.61
621.59	1304.56
621.78	1253.36
621.97	1290.22
622.16	1349.61
622.35	1335.28
622.54	1304.56
622.73	1243.12
622.92	1304.56
623.11	1337.32
623.30	1310.70
623.49	1249.26
623.68	1279.98
623.88	1378.28
624.07	1302.51
624.26	1286.12
624.45	1325.04
624.64	1257.45
624.83	1298.41
625.02	1277.93
625.21	1327.08
625.40	1216.49
625.59	1318.89
625.78	1314.80
625.97	1249.26
626.16	1267.69
626.35	1239.02
626.54	1286.12
626.74	1271.79
626.93	1290.22
627.12	1314.80
627.31	1294.32
627.50	1361.90
627.69	1212.40
627.88	1275.88
628.07	1329.13
628.26	1308.65
628.45	1284.08
628.64	1357.80
628.83	1322.99
629.02	1245.16
629.21	1290.22
629.40	1228.78
629.59	1234.93
629.78	1279.98
629.97	1382.38
630.16	1255.40
630.35	1243.12
630.54	1357.80
630.73	1245.16
630.92	1294.32
631.11	1298.41
631.30	1361.90
631.49	1310.70
631.68	1310.70
631.87	1388.52
632.06	1517.54
632.25	1413.10
632.44	1421.29
632.63	1370.09
632.82	1435.63
633.01	1499.11
633.20	1486.83
633.39	1417.19
633.58	1402.86
633.77	1472.49
633.96	1527.78
634.15	1515.50
634.34	1687.53
634.53	1877.99
634.72	1648.61
634.91	1452.01
635.10	1443.82
635.29	1724.39
635.48	1929.19
635.67	1927.14
635.86	1888.23
636.05	1822.69
636.24	1738.73
636.43	1499.11
636.62	1484.78
636.81	1431.53
637.00	1339.37
637.19	1380.33
637.38	1382.38
637.57	1404.91
637.76	1308.65
637.95	1325.04
638.14	1306.60
638.33	1269.74
638.52	1273.84
638.71	1220.59
638.89	1296.36
639.08	1198.06
639.27	1312.75
639.46	1298.41
639.65	1320.94
639.84	1236.97
640.03	1320.94
640.22	1294.32
640.41	1314.80
640.60	1210.35
640.79	1247.21
640.98	1245.16
641.17	1286.12
641.36	1337.32
641.55	1255.40
641.74	1218.54
641.92	1247.21
642.11	1212.40
642.30	1337.32
642.49	1257.45
642.68	1222.64
642.87	1257.45
643.06	1288.17
643.25	1218.54
643.44	1265.64
643.63	1253.36
643.82	1286.12
644.00	1296.36
644.19	1331.18
644.38	1251.31
644.57	1327.08
644.76	1288.17
644.95	1298.41
645.14	1308.65
645.33	1247.21
645.52	1239.02
645.71	1288.17
645.89	1236.97
646.08	1322.99
646.27	1277.93
646.46	1286.12
646.65	1216.49
646.84	1286.12
647.03	1263.60
647.22	1384.43
647.40	1204.21
647.59	1245.16
647.78	1257.45
647.97	1296.36
648.16	1239.02
648.35	1294.32
648.54	1290.22
648.73	1292.27
648.91	1273.84
649.10	1255.40
649.29	1263.60
649.48	1284.08
649.67	1265.64
649.86	1255.40
650.05	1249.26
650.23	1277.93
650.42	1269.74
650.61	1234.93
650.80	1294.32
650.99	1247.21
651.18	1251.31
651.36	1320.94
651.55	1347.56
651.74	1259.50
651.93	1273.84
652.12	1290.22
652.31	1294.32
652.49	1292.27
652.68	1269.74
652.87	1302.51
653.06	1282.03
653.25	1374.19
653.44	1298.41
653.62	1279.98
653.81	1251.31
654.00	1333.23
654.19	1284.08
654.38	1320.94
654.56	1228.78
654.75	1277.93
654.94	1316.84
655.13	1312.75
655.32	1261.55
655.51	1253.36
655.69	1249.26
655.88	1216.49
656.07	1263.60
656.26	1257.45
656.45	1249.26
656.63	1271.79
656.82	1234.93
657.01	1273.84
657.20	1257.45
657.38	1279.98
657.57	1273.84
657.76	1239.02
657.95	1216.49
658.14	1304.56
658.32	1271.79
658.51	1284.08
658.70	1243.12
658.89	1349.61
659.08	1298.41
659.26	1196.01
659.45	1255.40
659.64	1292.27
659.83	1253.36
660.01	1218.54
660.20	1239.02
660.39	1286.12
660.58	1271.79
660.76	1259.50
660.95	1230.83
661.14	1396.71
661.33	1224.69
661.51	1269.74
661.70	1228.78
661.89	1310.70
662.08	1198.06
662.26	1251.31
662.45	1265.64
662.64	1265.64
662.83	1277.93
663.01	1234.93
663.20	1296.36
663.39	1271.79
663.58	1374.19
663.76	1279.98
663.95	1253.36
664.14	1249.26
664.32	1241.07
664.51	1224.69
664.70	1294.32
664.89	1296.36
665.07	1232.88
665.26	1279.98
665.45	1239.02
665.64	1306.60
665.82	1353.71
666.01	1316.84
666.20	1273.84
666.38	1179.63
666.57	1220.59
666.76	1226.73
666.95	1273.84
667.13	1220.59
667.32	1284.08
667.51	1222.64
667.69	1302.51
667.88	1273.84
668.07	1179.63
668.25	1255.40
668.44	1267.69
668.63	1251.31
668.81	1310.70
669.00	1273.84
669.19	1329.13
669.38	1302.51
669.56	1298.41
669.75	1259.50
669.94	1288.17
670.12	1222.64
670.31	1374.19
670.50	1224.69
670.68	1247.21
670.87	1257.45
671.06	1267.69
671.24	1290.22
671.43	1241.07
671.62	1220.59
671.80	1239.02
671.99	1304.56
672.18	1255.40
672.36	1273.84
672.55	1245.16
672.74	1239.02
672.92	1322.99
673.11	1347.56
673.29	1222.64
673.48	1294.32
673.67	1275.88
673.85	1259.50
674.04	1279.98
674.23	1279.98
674.41	1296.36
674.60	1173.49
674.79	1282.03
674.97	1216.49
675.16	1329.13
675.34	1286.12
675.53	1275.88
675.72	1277.93
675.90	1304.56
676.09	1320.94
676.28	1327.08
676.46	1218.54
676.65	1290.22
676.83	1298.41
677.02	1224.69
677.21	1271.79
677.39	1243.12
677.58	1296.36
677.77	1286.12
677.95	1279.98
678.14	1232.88
678.32	1298.41
678.51	1314.80
678.70	1271.79
678.88	1277.93
679.07	1271.79
679.25	1247.21
679.44	1325.04
679.63	1204.21
679.81	1198.06
680.00	1282.03
680.18	1265.64
680.37	1243.12
680.55	1251.31
680.74	1247.21
680.93	1306.60
681.11	1290.22
681.30	1316.84
681.48	1220.59
681.67	1298.41
681.85	1214.45
682.04	1265.64
682.23	1241.07
682.41	1239.02
682.60	1335.28
682.78	1259.50
682.97	1284.08
683.15	1263.60
683.34	1306.60
683.53	1306.60
683.71	1271.79
683.90	1193.97
684.08	1230.83
684.27	1230.83
684.45	1265.64
684.64	1255.40
684.82	1210.35
685.01	1306.60
685.19	1308.65
685.38	1263.60
685.57	1304.56
685.75	1212.40
685.94	1249.26
686.12	1292.27
686.31	1220.59
686.49	1275.88
686.68	1302.51
686.86	1232.88
687.05	1282.03
687.23	1249.26
687.42	1257.45
687.60	1257.45
687.79	1269.74
687.97	1212.40
688.16	1267.69
688.34	1288.17
688.53	1286.12
688.71	1290.22
688.90	1259.50
689.08	1290.22
689.27	1275.88
689.45	1302.51
689.64	1290.22
689.82	1333.23
690.01	1249.26
690.19	1236.97
690.38	1343.47
690.56	1282.03
690.75	1320.94
690.93	1263.60
691.12	1292.27
691.30	1279.98
691.49	1218.54
691.67	1275.88
691.86	1271.79
692.04	1261.55
692.23	1265.64
692.41	1226.73
692.60	1279.98
692.78	1179.63
692.97	1251.31
693.15	1241.07
693.34	1300.46
693.52	1265.64
693.71	1191.92
693.89	1273.84
694.08	1265.64
694.26	1249.26
694.44	1271.79
694.63	1232.88
694.81	1222.64
695.00	1271.79
695.18	1335.28
695.37	1275.88
695.55	1306.60
695.74	1261.55
695.92	1183.73
696.10	1294.32
696.29	1296.36
696.47	1253.36
696.66	1202.16
696.84	1228.78
697.03	1243.12
697.21	1236.97
697.40	1261.55
697.58	1292.27
697.76	1214.45
697.95	1302.51
698.13	1257.45
698.32	1298.41
698.50	1249.26
698.68	1249.26
698.87	1282.03
699.05	1329.13
699.24	1275.88
699.42	1357.80
699.61	1234.93
699.79	1163.25
699.97	1255.40
700.16	1216.49
700.34	1275.88
700.53	1239.02
700.71	1173.49
700.89	1263.60
701.08	1308.65
701.26	1169.39
701.45	1337.32
701.63	1290.22
701.81	1351.66
702.00	1249.26
702.18	1234.93
702.37	1224.69
702.55	1261.55
702.73	1243.12
702.92	1349.61
703.10	1191.92
703.28	1296.36
703.47	1202.16
703.65	1314.80
703.84	1263.60
704.02	1310.70
704.20	1304.56
704.39	1198.06
704.57	1282.03
704.75	1212.40
704.94	1282.03
705.12	1306.60
705.30	1228.78
705.49	1300.46
705.67	1267.69
705.86	1263.60
706.04	1351.66
706.22	1333.23
706.41	1306.60
706.59	1236.97
706.77	1189.87
706.96	1279.98
707.14	1239.02
707.32	1232.88
707.51	1277.93
707.69	1210.35
707.87	1277.93
708.06	1282.03
708.24	1263.60
708.42	1279.98
708.61	1236.97
708.79	1206.25
708.97	1187.82
709.16	1249.26
709.34	1288.17
709.52	1243.12
709.71	1230.83
709.89	1267.69
710.07	1247.21
710.26	1298.41
710.44	1345.52
710.62	1251.31
710.80	1265.64
710.99	1312.75
711.17	1187.82
711.35	1263.60
711.54	1206.25
711.72	1327.08
711.90	1253.36
712.09	1142.77
712.27	1200.11
712.45	1206.25
712.63	1273.84
712.82	1220.59
713.00	1253.36
713.18	1300.46
713.37	1271.79
713.55	1263.60
713.73	1339.37
713.91	1265.64
714.10	1243.12
714.28	1284.08
714.46	1224.69
714.65	1275.88
714.83	1265.64
715.01	1290.22
715.19	1212.40
715.38	1257.45
715.56	1282.03
715.74	1243.12
715.92	1273.84
716.11	1253.36
716.29	1273.84
716.47	1273.84
716.65	1255.40
716.84	1196.01
717.02	1282.03
717.20	1236.97
717.38	1282.03
717.57	1267.69
717.75	1216.49
717.93	1271.79
718.11	1284.08
718.30	1271.79
718.48	1333.23
718.66	1335.28
718.84	1241.07
719.03	1249.26
719.21	1304.56
719.39	1265.64
719.57	1277.93
719.75	1290.22
719.94	1234.93
720.12	1251.31
720.30	1298.41
720.48	1224.69
720.67	1181.68
720.85	1355.76
721.03	1306.60
721.21	1296.36
721.39	1269.74
721.58	1253.36
721.76	1253.36
721.94	1288.17
722.12	1316.84
722.30	1277.93
722.49	1275.88
722.67	1228.78
722.85	1335.28
723.03	1241.07
723.21	1253.36
723.40	1224.69
723.58	1349.61
723.76	1290.22
723.94	1300.46
724.12	1251.31
724.30	1208.30
724.49	1245.16
724.67	1284.08
724.85	1261.55
725.03	1335.28
725.21	1198.06
725.40	1347.56
725.58	1222.64
725.76	1294.32
725.94	1232.88
726.12	1288.17
726.30	1284.08
726.49	1247.21
726.67	1226.73
726.85	1275.88
727.03	1355.76
727.21	1261.55
727.39	1222.64
727.57	1253.36
727.76	1247.21
727.94	1329.13
728.12	1239.02
728.30	1265.64
728.48	1275.88
728.66	1312.75
728.84	1226.73
729.03	1232.88
729.21	1191.92
729.39	1224.69
729.57	1267.69
729.75	1255.40
729.93	1187.82
730.11	1265.64
730.30	1265.64
730.48	1241.07
730.66	1275.88
730.84	1259.50
731.02	1296.36
731.20	1265.64
731.38	1312.75
731.56	1292.27
731.74	1206.25
731.93	1255.40
732.11	1200.11
732.29	1282.03
732.47	1273.84
732.65	1288.17
732.83	1216.49
733.01	1298.41
733.19	1316.84
733.37	1251.31
733.56	1269.74
733.74	1255.40
733.92	1339.37
734.10	1253.36
734.28	1226.73
734.46	1306.60
734.64	1288.17
734.82	1261.55
735.00	1261.55
735.18	1212.40
735.36	1212.40
735.54	1271.79
735.73	1282.03
735.91	1325.04
736.09	1239.02
736.27	1261.55
736.45	1312.75
736.63	1279.98
736.81	1257.45
736.99	1298.41
737.17	1292.27
737.35	1282.03
737.53	1210.35
737.71	1288.17
737.89	1247.21
738.07	1273.84
738.25	1308.65
738.43	1300.46
738.61	1279.98
738.80	1241.07
738.98	1267.69
739.16	1300.46
739.34	1226.73
739.52	1212.40
739.70	1249.26
739.88	1251.31
740.06	1265.64
740.24	1257.45
740.42	1232.88
740.60	1228.78
740.78	1322.99
740.96	1232.88
741.14	1318.89
741.32	1298.41
741.50	1318.89
741.68	1325.04
741.86	1286.12
742.04	1359.85
742.22	1247.21
742.40	1286.12
742.58	1236.97
742.76	1269.74
742.94	1230.83
743.12	1196.01
743.30	1263.60
743.48	1279.98
743.66	1255.40
743.84	1249.26
744.02	1296.36
744.20	1308.65
744.38	1228.78
744.56	1302.51
744.74	1255.40
744.92	1288.17
745.10	1294.32
745.28	1273.84
745.46	1284.08
745.64	1247.21
745.82	1300.46
746.00	1298.41
746.18	1277.93
746.36	1208.30
746.54	1222.64
746.72	1263.60
746.90	1230.83
747.08	1251.31
747.26	1228.78
747.44	1292.27
747.62	1236.97
747.80	1335.28
747.98	1347.56
748.15	1296.36
748.33	1265.64
748.51	1331.18
748.69	1310.70
748.87	1322.99
749.05	1316.84
749.23	1247.21
749.41	1253.36
749.59	1247.21
749.77	1337.32
749.95	1286.12
750.13	1259.50
750.31	1245.16
750.49	1259.50
750.67	1236.97
750.85	1286.12
751.03	1302.51
751.20	1325.04
751.38	1261.55
751.56	1239.02
751.74	1306.60
751.92	1333.23
752.10	1327.08
752.28	1294.32
752.46	1327.08
752.64	1193.97
752.82	1249.26
753.00	1322.99
753.18	1380.33
753.35	1308.65
753.53	1255.40
753.71	1277.93
753.89	1216.49
754.07	1290.22
754.25	1300.46
754.43	1218.54
754.61	1255.40
754.79	1284.08
754.97	1234.93
755.14	1306.60
755.32	1265.64
755.50	1304.56
755.68	1253.36
755.86	1212.40
756.04	1265.64
756.22	1288.17
756.40	1273.84
756.57	1300.46
756.75	1222.64
756.93	1261.55
757.11	1265.64
757.29	1271.79
757.47	1253.36
757.65	1271.79
757.82	1259.50
758.00	1279.98
758.18	1239.02
758.36	1286.12
758.54	1314.80
758.72	1226.73
758.90	1296.36
759.07	1292.27
759.25	1320.94
759.43	1294.32
759.61	1234.93
759.79	1265.64
759.97	1325.04
760.15	1183.73
760.32	1181.68
760.50	1329.13
760.68	1212.40
760.86	1286.12
761.04	1294.32
761.22	1193.97
761.39	1269.74
761.57	1298.41
761.75	1208.30
761.93	1306.60
762.11	1206.25
762.28	1298.41
762.46	1247.21
762.64	1259.50
762.82	1249.26
763.00	1282.03
763.18	1282.03
763.35	1339.37
763.53	1386.47
763.71	1249.26
763.89	1347.56
764.07	1210.35
764.24	1271.79
764.42	1257.45
764.60	1232.88
764.78	1220.59
764.96	1259.50
765.13	1216.49
765.31	1294.32
765.49	1273.84
765.67	1325.04
765.84	1288.17
766.02	1343.47
766.20	1249.26
766.38	1247.21
766.56	1253.36
766.73	1226.73
766.91	1255.40
767.09	1257.45
767.27	1288.17
767.44	1277.93
767.62	1288.17
767.80	1232.88
767.98	1282.03
768.15	1294.32
768.33	1316.84
768.51	1331.18
768.69	1255.40
768.87	1359.85
769.04	1253.36
769.22	1279.98
769.40	1247.21
769.58	1294.32
769.75	1316.84
769.93	1284.08
770.11	1265.64
770.28	1245.16
770.46	1290.22
770.64	1273.84
770.82	1271.79
770.99	1294.32
771.17	1224.69
771.35	1337.32
771.53	1335.28
771.70	1275.88
771.88	1269.74
772.06	1273.84
772.23	1224.69
772.41	1251.31
772.59	1230.83
772.77	1241.07
772.94	1208.30
773.12	1335.28
773.30	1288.17
773.47	1239.02
773.65	1253.36
773.83	1294.32
774.01	1296.36
774.18	1220.59
774.36	1255.40
774.54	1263.60
774.71	1304.56
774.89	1228.78
775.07	1226.73
775.24	1349.61
775.42	1331.18
775.60	1306.60
775.78	1241.07
775.95	1239.02
776.13	1193.97
776.31	1206.25
776.48	1273.84
776.66	1284.08
776.84	1241.07
777.01	1255.40
777.19	1224.69
777.37	1277.93
777.54	1255.40
777.72	1269.74
777.90	1193.97
778.07	1288.17
778.25	1300.46
778.43	1200.11
778.60	1259.50
778.78	1169.39
778.96	1296.36
779.13	1239.02
779.31	1269.74
779.49	1298.41
779.66	1284.08
779.84	1308.65
780.01	1232.88
780.19	1245.16
780.37	1325.04
780.54	1296.36
780.72	1269.74
780.90	1331.18
781.07	1236.97
781.25	1271.79
781.43	1216.49
781.60	1193.97
781.78	1249.26
781.95	1331.18
782.13	1269.74
782.31	1265.64
782.48	1306.60
782.66	1320.94
782.83	1226.73
783.01	1245.16
783.19	1255.40
783.36	1267.69
783.54	1265.64
783.72	1216.49
783.89	1331.18
784.07	1212.40
784.24	1312.75
784.42	1325.04
784.60	1226.73
784.77	1294.32
784.95	1327.08
785.12	1226.73
785.30	1279.98
785.47	1286.12
785.65	1234.93
785.83	1257.45
786.00	1179.63
786.18	1329.13
786.35	1251.31
786.53	1243.12
786.71	1255.40
786.88	1236.97
787.06	1245.16
787.23	1239.02
787.41	1214.45
787.58	1271.79
787.76	1296.36
787.94	1265.64
788.11	1347.56
788.29	1267.69
788.46	1298.41
788.64	1222.64
788.81	1263.60
788.99	1341.42
789.16	1273.84
789.34	1265.64
789.52	1239.02
789.69	1277.93
789.87	1208.30
790.04	1294.32
790.22	1224.69
790.39	1286.12
790.57	1253.36
790.74	1286.12
790.92	1251.31
791.09	1267.69
791.27	1191.92
791.44	1249.26
791.62	1290.22
791.79	1257.45
791.97	1216.49
792.15	1273.84
792.32	1253.36
792.50	1296.36
792.67	1251.31
792.85	1277.93
793.02	1261.55
793.20	1265.64
793.37	1277.93
793.55	1273.84
793.72	1322.99
793.90	1296.36
794.07	1220.59
794.25	1241.07
794.42	1275.88
794.60	1359.85
794.77	1245.16
794.95	1265.64
795.12	1271.79
795.30	1288.17
795.47	1265.64
795.65	1331.18
795.82	1265.64
796.00	1261.55
796.17	1230.83
796.34	1286.12
796.52	1282.03
796.69	1282.03
796.87	1230.83
797.04	1171.44
797.22	1224.69
797.39	1292.27
797.57	1183.73
797.74	1208.30
797.92	1284.08
798.09	1286.12
798.27	1255.40
798.44	1208.30
798.62	1249.26
798.79	1245.16
798.96	1243.12
799.14	1304.56
799.31	1255.40
799.49	1294.32
799.66	1245.16
799.84	1253.36
800.01	1261.55
800.19	1275.88
800.36	1294.32
800.53	1200.11
800.71	1210.35
800.88	1232.88
801.06	1286.12
801.23	1220.59
801.41	1255.40
801.58	1253.36
801.75	1236.97
801.93	1294.32
802.10	1243.12
802.28	1253.36
802.45	1236.97
802.63	1228.78
802.80	1292.27
802.97	1322.99
803.15	1253.36
803.32	1273.84
803.50	1279.98
803.67	1198.06
803.84	1331.18
804.02	1257.45
804.19	1269.74
804.37	1224.69
804.54	1308.65
804.71	1261.55
804.89	1208.30
805.06	1279.98
805.24	1282.03
805.41	1243.12
805.58	1290.22
805.76	1308.65
805.93	1265.64
806.10	1222.64
806.28	1320.94
806.45	1298.41
806.63	1261.55
806.80	1269.74
806.97	1279.98
807.15	1286.12
807.32	1300.46
807.49	1298.41
807.67	1318.89
807.84	1304.56
808.01	1171.44
808.19	1271.79
808.36	1236.97
808.54	1196.01
808.71	1232.88
808.88	1247.21
809.06	1304.56
809.23	1167.34
809.40	1288.17
809.58	1257.45
809.75	1339.37
809.92	1275.88
810.10	1316.84
810.27	1318.89
810.44	1234.93
810.62	1300.46
810.79	1261.55
810.96	1298.41
811.14	1202.16
811.31	1255.40
811.48	1286.12
811.66	1284.08
811.83	1208.30
812.00	1286.12
812.18	1318.89
812.35	1286.12
812.52	1257.45
812.69	1322.99
812.87	1277.93
813.04	1234.93
813.21	1263.60
813.39	1286.12
813.56	1296.36
813.73	1294.32
813.91	1239.02
814.08	1306.60
814.25	1204.21
814.42	1247.21
814.60	1265.64
814.77	1257.45
814.94	1218.54
815.12	1220.59
815.29	1269.74
815.46	1228.78
815.63	1251.31
815.81	1222.64
815.98	1173.49
816.15	1298.41
816.33	1322.99
816.50	1310.70
816.67	1273.84
816.84	1228.78
817.02	1292.27
817.19	1269.74
817.36	1239.02
817.53	1302.51
817.71	1273.84
817.88	1230.83
818.05	1259.50
818.22	1296.36
818.40	1236.97
818.57	1249.26
818.74	1269.74
818.91	1226.73
819.09	1279.98
819.26	1302.51
819.43	1265.64
819.60	1275.88
819.78	1298.41
819.95	1282.03
820.12	1259.50
820.29	1263.60
820.47	1294.32
820.64	1257.45
820.81	1185.77
820.98	1243.12
821.15	1243.12
821.33	1236.97
821.50	1239.02
821.67	1255.40
821.84	1255.40
822.02	1294.32
822.19	1212.40
822.36	1273.84
822.53	1218.54
822.70	1228.78
822.88	1253.36
823.05	1298.41
823.22	1345.52
823.39	1302.51
823.56	1241.07
823.74	1220.59
823.91	1230.83
824.08	1234.93
824.25	1257.45
824.42	1267.69
824.60	1292.27
824.77	1239.02
824.94	1300.46
825.11	1226.73
825.28	1294.32
825.45	1306.60
825.63	1218.54
825.80	1288.17
825.97	1245.16
826.14	1351.66
826.31	1284.08
826.48	1288.17
826.66	1265.64
826.83	1277.93
827.00	1245.16
827.17	1304.56
827.34	1230.83
827.51	1257.45
827.69	1282.03
827.86	1282.03
828.03	1241.07
828.20	1335.28
828.37	1310.70
828.54	1279.98
828.71	1308.65
828.89	1259.50
829.06	1302.51
829.23	1220.59
829.40	1226.73
829.57	1271.79
829.74	1300.46
829.91	1216.49
830.09	1277.93
830.26	1300.46
830.43	1333.23
830.60	1288.17
830.77	1224.69
830.94	1245.16
831.11	1241.07
831.28	1185.77
831.46	1286.12
831.63	1267.69
831.80	1296.36
831.97	1263.60
832.14	1275.88
832.31	1275.88
832.48	1275.88
832.65	1292.27
832.82	1257.45
832.99	1241.07
833.17	1331.18
833.34	1222.64
833.51	1255.40
833.68	1247.21
833.85	1257.45
834.02	1292.27
834.19	1251.31
834.36	1226.73
834.53	1259.50
834.70	1222.64
834.87	1353.71
835.04	1306.60
835.22	1253.36
835.39	1259.50
835.56	1224.69
835.73	1273.84
835.90	1234.93
836.07	1271.79
836.24	1255.40
836.41	1277.93
836.58	1282.03
836.75	1249.26
836.92	1241.07
837.09	1335.28
837.26	1265.64
837.43	1288.17
837.60	1236.97
837.77	1228.78
837.94	1275.88
838.12	1234.93
838.29	1269.74
838.46	1277.93
838.63	1216.49
838.80	1302.51
838.97	1239.02
839.14	1286.12
839.31	1259.50
839.48	1232.88
839.65	1273.84
839.82	1216.49
839.99	1322.99
840.16	1251.31
840.33	1271.79
840.50	1282.03
840.67	1314.80
840.84	1202.16
841.01	1286.12
841.18	1288.17
841.35	1245.16
841.52	1331.18
841.69	1251.31
841.86	1273.84
842.03	1232.88
842.20	1320.94
842.37	1267.69
842.54	1286.12
842.71	1230.83
842.88	1196.01
843.05	1247.21
843.22	1310.70
843.39	1335.28
843.56	1261.55
843.73	1196.01
843.90	1245.16
844.07	1257.45
844.24	1273.84
844.41	1306.60
844.58	1181.68
844.75	1288.17
844.92	1361.90
845.09	1251.31
845.26	1261.55
845.43	1228.78
845.60	1200.11
845.77	1251.31
845.94	1271.79
846.10	1243.12
846.27	1357.80
846.44	1282.03
846.61	1255.40
846.78	1255.40
846.95	1282.03
847.12	1269.74
847.29	1216.49
847.46	1306.60
847.63	1320.94
847.80	1247.21
847.97	1263.60
848.14	1253.36
848.31	1296.36
848.48	1267.69
848.65	1296.36
848.82	1347.56
848.98	1243.12
849.15	1267.69
849.32	1239.02
849.49	1226.73
849.66	1296.36
849.83	1269.74
850.00	1284.08
850.17	1245.16
850.34	1228.78
850.51	1310.70
850.68	1357.80
850.85	1318.89
851.01	1263.60
851.18	1263.60
851.35	1236.97
851.52	1249.26
851.69	1320.94
851.86	1316.84
852.03	1273.84
852.20	1243.12
852.37	1308.65
852.53	1269.74
852.70	1216.49
852.87	1398.76
853.04	1249.26
853.21	1314.80
853.38	1288.17
853.55	1271.79
853.72	1269.74
853.89	1202.16
854.05	1222.64
854.22	1253.36
854.39	1208.30
854.56	1284.08
854.73	1288.17
854.90	1275.88
855.07	1193.97
855.23	1232.88
855.40	1361.90
855.57	1290.22
855.74	1230.83
855.91	1212.40
856.08	1282.03
856.25	1241.07
856.41	1271.79
856.58	1261.55
856.75	1259.50
856.92	1279.98
857.09	1378.28
857.26	1214.45
857.42	1243.12
857.59	1290.22
857.76	1304.56
857.93	1259.50
858.10	1232.88
858.27	1279.98
858.43	1241.07
858.60	1198.06
858.77	1239.02
858.94	1282.03
859.11	1271.79
859.27	1294.32
859.44	1234.93
859.61	1316.84
859.78	1273.84
859.95	1232.88
860.12	1257.45
860.28	1251.31
860.45	1253.36
860.62	1269.74
860.79	1267.69
860.95	1316.84
861.12	1259.50
861.29	1257.45
861.46	1191.92
861.63	1265.64
861.79	1249.26
861.96	1169.39
862.13	1257.45
862.30	1247.21
862.47	1290.22
862.63	1310.70
862.80	1279.98
862.97	1279.98
863.14	1271.79
863.30	1261.55
863.47	1390.57
863.64	1220.59
863.81	1284.08
863.97	1138.67
864.14	1380.33
864.31	1236.97
864.48	1232.88
864.65	1322.99
864.81	1298.41
864.98	1304.56
865.15	1263.60
865.32	1245.16
865.48	1286.12
865.65	1226.73
865.82	1222.64
865.98	1224.69
866.15	1257.45
866.32	1306.60
866.49	1275.88
866.65	1257.45
866.82	1253.36
866.99	1329.13
867.16	1255.40
867.32	1241.07
867.49	1218.54
867.66	1279.98
867.83	1279.98
867.99	1212.40
868.16	1275.88
868.33	1277.93
868.49	1247.21
868.66	1265.64
868.83	1282.03
868.99	1277.93
869.16	1263.60
869.33	1228.78
869.50	1273.84
869.66	1249.26
869.83	1245.16
870.00	1249.26
870.16	1308.65
870.33	1234.93
870.50	1239.02
870.66	1318.89
870.83	1288.17
871.00	1296.36
871.17	1284.08
871.33	1333.23
871.50	1204.21
871.67	1210.35
871.83	1316.84
872.00	1279.98
872.17	1282.03
872.33	1292.27
872.50	1271.79
872.67	1284.08
872.83	1341.42
873.00	1239.02
873.17	1224.69
873.33	1222.64
873.50	1230.83
873.67	1337.32
873.83	1339.37
874.00	1294.32
874.16	1282.03
874.33	1322.99
874.50	1214.45
874.66	1257.45
874.83	1300.46
875.00	1218.54
875.16	1314.80
875.33	1212.40
875.50	1312.75
875.66	1306.60
875.83	1265.64
875.99	1261.55
876.16	1267.69
876.33	1243.12
876.49	1265.64
876.66	1345.52
876.83	1296.36
876.99	1232.88
877.16	1265.64
877.32	1298.41
877.49	1380.33
877.66	1255.40
877.82	1314.80
877.99	1253.36
878.15	1290.22
878.32	1294.32
878.49	1245.16
878.65	1290.22
878.82	1261.55
878.98	1286.12
879.15	1290.22
879.32	1263.60
879.48	1382.38
879.65	1228.78
879.81	1224.69
879.98	1279.98
880.15	1296.36
880.31	1185.77
880.48	1292.27
880.64	1253.36
880.81	1306.60
880.97	1298.41
881.14	1277.93
881.31	1187.82
881.47	1327.08
881.64	1269.74
881.80	1257.45
881.97	1259.50
882.13	1277.93
882.30	1290.22
882.47	1290.22
882.63	1228.78
882.80	1255.40
882.96	1277.93
883.13	1333.23
883.29	1273.84
883.46	1265.64
883.62	1290.22
883.79	1267.69
883.95	1257.45
884.12	1253.36
884.29	1320.94
884.45	1306.60
884.62	1255.40
884.78	1320.94
884.95	1277.93
885.11	1292.27
885.28	1300.46
885.44	1279.98
885.61	1251.31
885.77	1239.02
885.94	1261.55
886.10	1304.56
886.27	1310.70
886.43	1279.98
886.60	1234.93
886.76	1196.01
886.93	1243.12
887.09	1241.07
887.26	1286.12
887.42	1286.12
887.59	1269.74
887.75	1236.97
887.92	1255.40
888.08	1316.84
888.25	1298.41
888.41	1210.35
888.58	1351.66
888.74	1282.03
888.91	1284.08
>>>>>End Processed Spectral Data<<<<<
