SpectraSuite Data File
++++++++++++++++++++++++++++++++++++
Date: Sun Apr 03 19:55:43 CEST 2016
User: root
Dark Spectrum Present: No
Reference Spectrum Present: No
Number of Sampled Component Spectra: 1
Spectrometers: USB4C02835
Integration Time (usec): 10000 (USB4C02835)
Spectra Averaged: 1 (USB4C02835)
Boxcar Smoothing: 0 (USB4C02835)
Correct for Electrical Dark: No (USB4C02835)
Strobe/Lamp Enabled: No (USB4C02835)
Correct for Detector Non-linearity: No (USB4C02835)
Correct for Stray Light: No (USB4C02835)
Number of Pixels in Processed Spectrum: 3648
>>>>>Begin Processed Spectral Data<<<<<
177.47	1249.26
177.69	1249.26
177.91	1249.26
178.13	1271.79
178.36	1322.99
178.58	1327.08
178.80	1265.64
179.02	1279.98
179.24	1353.71
179.46	1249.26
179.68	1300.46
179.90	1251.31
180.13	1304.56
180.35	1257.45
180.57	1239.02
180.79	1288.17
181.01	1241.07
181.23	1263.60
181.45	1241.07
181.67	1277.93
181.90	1290.22
182.12	1179.63
182.34	1243.12
182.56	1257.45
182.78	1239.02
183.00	1239.02
183.22	1304.56
183.44	1286.12
183.66	1337.32
183.89	1261.55
184.11	1179.63
184.33	1224.69
184.55	1245.16
184.77	1269.74
184.99	1247.21
185.21	1185.77
185.43	1275.88
185.65	1247.21
185.87	1277.93
186.10	1273.84
186.32	1259.50
186.54	1337.32
186.76	1286.12
186.98	1279.98
187.20	1261.55
187.42	1216.49
187.64	1255.40
187.86	1304.56
188.08	1218.54
188.30	1267.69
188.52	1241.07
188.75	1288.17
188.97	1312.75
189.19	1366.00
189.41	1322.99
189.63	1314.80
189.85	1296.36
190.07	1239.02
190.29	1282.03
190.51	1288.17
190.73	1277.93
190.95	1241.07
191.17	1216.49
191.39	1228.78
191.61	1292.27
191.84	1306.60
192.06	1322.99
192.28	1255.40
192.50	1363.95
192.72	1322.99
192.94	1314.80
193.16	1208.30
193.38	1249.26
193.60	1249.26
193.82	1296.36
194.04	1261.55
194.26	1277.93
194.48	1277.93
194.70	1239.02
194.92	1284.08
195.14	1277.93
195.36	1269.74
195.58	1249.26
195.80	1341.42
196.02	1257.45
196.24	1322.99
196.46	1261.55
196.69	1222.64
196.91	1310.70
197.13	1253.36
197.35	1230.83
197.57	1275.88
197.79	1306.60
198.01	1269.74
198.23	1273.84
198.45	1269.74
198.67	1265.64
198.89	1259.50
199.11	1251.31
199.33	1275.88
199.55	1259.50
199.77	1275.88
199.99	1273.84
200.21	1255.40
200.43	1273.84
200.65	1251.31
200.87	1263.60
201.09	1232.88
201.31	1298.41
201.53	1265.64
201.75	1249.26
201.97	1298.41
202.19	1292.27
202.41	1234.93
202.63	1347.56
202.85	1259.50
203.07	1292.27
203.29	1314.80
203.51	1253.36
203.73	1175.53
203.95	1228.78
204.17	1236.97
204.39	1222.64
204.61	1265.64
204.83	1234.93
205.05	1234.93
205.27	1216.49
205.49	1294.32
205.71	1236.97
205.93	1271.79
206.15	1273.84
206.37	1255.40
206.59	1302.51
206.81	1257.45
207.03	1296.36
207.25	1308.65
207.47	1212.40
207.69	1277.93
207.91	1298.41
208.13	1257.45
208.34	1255.40
208.56	1292.27
208.78	1261.55
209.00	1257.45
209.22	1236.97
209.44	1220.59
209.66	1253.36
209.88	1273.84
210.10	1273.84
210.32	1288.17
210.54	1312.75
210.76	1247.21
210.98	1304.56
211.20	1230.83
211.42	1300.46
211.64	1255.40
211.86	1257.45
212.08	1228.78
212.30	1273.84
212.52	1200.11
212.74	1271.79
212.96	1282.03
213.17	1234.93
213.39	1267.69
213.61	1275.88
213.83	1273.84
214.05	1234.93
214.27	1273.84
214.49	1220.59
214.71	1267.69
214.93	1327.08
215.15	1271.79
215.37	1298.41
215.59	1239.02
215.81	1265.64
216.03	1286.12
216.24	1236.97
216.46	1265.64
216.68	1236.97
216.90	1308.65
217.12	1226.73
217.34	1273.84
217.56	1245.16
217.78	1304.56
218.00	1267.69
218.22	1341.42
218.44	1269.74
218.66	1310.70
218.87	1249.26
219.09	1253.36
219.31	1271.79
219.53	1253.36
219.75	1320.94
219.97	1275.88
220.19	1351.66
220.41	1331.18
220.63	1275.88
220.85	1196.01
221.06	1271.79
221.28	1228.78
221.50	1308.65
221.72	1271.79
221.94	1308.65
222.16	1339.37
222.38	1249.26
222.60	1271.79
222.82	1216.49
223.03	1232.88
223.25	1273.84
223.47	1310.70
223.69	1306.60
223.91	1243.12
224.13	1247.21
224.35	1341.42
224.57	1318.89
224.78	1269.74
225.00	1325.04
225.22	1327.08
225.44	1306.60
225.66	1232.88
225.88	1265.64
226.10	1269.74
226.32	1316.84
226.53	1331.18
226.75	1243.12
226.97	1302.51
227.19	1267.69
227.41	1279.98
227.63	1243.12
227.85	1255.40
228.06	1361.90
228.28	1265.64
228.50	1183.73
228.72	1306.60
228.94	1243.12
229.16	1241.07
229.37	1273.84
229.59	1193.97
229.81	1247.21
230.03	1212.40
230.25	1239.02
230.47	1245.16
230.69	1306.60
230.90	1251.31
231.12	1239.02
231.34	1239.02
231.56	1222.64
231.78	1257.45
232.00	1282.03
232.21	1243.12
232.43	1214.45
232.65	1273.84
232.87	1265.64
233.09	1259.50
233.30	1269.74
233.52	1253.36
233.74	1322.99
233.96	1239.02
234.18	1255.40
234.40	1286.12
234.61	1191.92
234.83	1275.88
235.05	1298.41
235.27	1304.56
235.49	1271.79
235.70	1286.12
235.92	1232.88
236.14	1241.07
236.36	1345.52
236.58	1243.12
236.79	1255.40
237.01	1396.71
237.23	1345.52
237.45	1269.74
237.67	1292.27
237.88	1224.69
238.10	1257.45
238.32	1337.32
238.54	1251.31
238.76	1345.52
238.97	1241.07
239.19	1232.88
239.41	1253.36
239.63	1267.69
239.85	1316.84
240.06	1247.21
240.28	1316.84
240.50	1300.46
240.72	1239.02
240.93	1189.87
241.15	1196.01
241.37	1339.37
241.59	1232.88
241.81	1232.88
242.02	1259.50
242.24	1210.35
242.46	1298.41
242.68	1292.27
242.89	1202.16
243.11	1325.04
243.33	1298.41
243.55	1257.45
243.76	1253.36
243.98	1327.08
244.20	1257.45
244.42	1226.73
244.64	1284.08
244.85	1243.12
245.07	1247.21
245.29	1243.12
245.51	1265.64
245.72	1378.28
245.94	1306.60
246.16	1298.41
246.38	1296.36
246.59	1331.18
246.81	1286.12
247.03	1230.83
247.24	1298.41
247.46	1288.17
247.68	1263.60
247.90	1331.18
248.11	1263.60
248.33	1310.70
248.55	1273.84
248.77	1245.16
248.98	1341.42
249.20	1304.56
249.42	1261.55
249.64	1241.07
249.85	1239.02
250.07	1191.92
250.29	1312.75
250.50	1204.21
250.72	1251.31
250.94	1271.79
251.16	1290.22
251.37	1325.04
251.59	1288.17
251.81	1286.12
252.02	1247.21
252.24	1316.84
252.46	1261.55
252.68	1335.28
252.89	1288.17
253.11	1257.45
253.33	1224.69
253.54	1224.69
253.76	1273.84
253.98	1169.39
254.20	1312.75
254.41	1216.49
254.63	1265.64
254.85	1302.51
255.06	1269.74
255.28	1306.60
255.50	1208.30
255.71	1277.93
255.93	1265.64
256.15	1220.59
256.36	1236.97
256.58	1298.41
256.80	1224.69
257.02	1214.45
257.23	1226.73
257.45	1220.59
257.67	1249.26
257.88	1288.17
258.10	1374.19
258.32	1259.50
258.53	1222.64
258.75	1275.88
258.97	1347.56
259.18	1275.88
259.40	1222.64
259.62	1310.70
259.83	1216.49
260.05	1263.60
260.27	1376.24
260.48	1300.46
260.70	1214.45
260.92	1335.28
261.13	1230.83
261.35	1243.12
261.57	1292.27
261.78	1282.03
262.00	1251.31
262.22	1325.04
262.43	1257.45
262.65	1267.69
262.86	1241.07
263.08	1308.65
263.30	1265.64
263.51	1269.74
263.73	1318.89
263.95	1263.60
264.16	1335.28
264.38	1294.32
264.60	1279.98
264.81	1308.65
265.03	1316.84
265.25	1187.82
265.46	1255.40
265.68	1302.51
265.89	1232.88
266.11	1222.64
266.33	1230.83
266.54	1275.88
266.76	1212.40
266.98	1206.25
267.19	1263.60
267.41	1255.40
267.62	1286.12
267.84	1271.79
268.06	1251.31
268.27	1224.69
268.49	1282.03
268.70	1216.49
268.92	1247.21
269.14	1273.84
269.35	1269.74
269.57	1288.17
269.79	1267.69
270.00	1265.64
270.22	1275.88
270.43	1279.98
270.65	1279.98
270.87	1230.83
271.08	1275.88
271.30	1337.32
271.51	1196.01
271.73	1263.60
271.95	1320.94
272.16	1284.08
272.38	1284.08
272.59	1247.21
272.81	1247.21
273.02	1226.73
273.24	1300.46
273.46	1206.25
273.67	1308.65
273.89	1269.74
274.10	1345.52
274.32	1265.64
274.54	1271.79
274.75	1288.17
274.97	1271.79
275.18	1208.30
275.40	1259.50
275.61	1163.25
275.83	1300.46
276.05	1243.12
276.26	1216.49
276.48	1273.84
276.69	1284.08
276.91	1271.79
277.12	1251.31
277.34	1304.56
277.55	1294.32
277.77	1232.88
277.99	1302.51
278.20	1275.88
278.42	1220.59
278.63	1210.35
278.85	1288.17
279.06	1259.50
279.28	1329.13
279.49	1236.97
279.71	1279.98
279.93	1232.88
280.14	1306.60
280.36	1304.56
280.57	1198.06
280.79	1306.60
281.00	1288.17
281.22	1275.88
281.43	1249.26
281.65	1294.32
281.86	1243.12
282.08	1327.08
282.29	1259.50
282.51	1318.89
282.73	1306.60
282.94	1161.20
283.16	1234.93
283.37	1304.56
283.59	1292.27
283.80	1314.80
284.02	1249.26
284.23	1314.80
284.45	1259.50
284.66	1331.18
284.88	1353.71
285.09	1241.07
285.31	1261.55
285.52	1261.55
285.74	1234.93
285.95	1304.56
286.17	1269.74
286.38	1236.97
286.60	1329.13
286.81	1286.12
287.03	1239.02
287.24	1277.93
287.46	1343.47
287.67	1269.74
287.89	1251.31
288.10	1224.69
288.32	1279.98
288.53	1263.60
288.75	1279.98
288.96	1300.46
289.18	1318.89
289.39	1253.36
289.61	1327.08
289.82	1288.17
290.04	1314.80
290.25	1322.99
290.47	1210.35
290.68	1267.69
290.90	1216.49
291.11	1247.21
291.33	1325.04
291.54	1279.98
291.76	1269.74
291.97	1214.45
292.18	1241.07
292.40	1222.64
292.61	1241.07
292.83	1265.64
293.04	1282.03
293.26	1259.50
293.47	1220.59
293.69	1320.94
293.90	1265.64
294.12	1284.08
294.33	1196.01
294.55	1220.59
294.76	1286.12
294.97	1181.68
295.19	1245.16
295.40	1290.22
295.62	1226.73
295.83	1288.17
296.05	1257.45
296.26	1361.90
296.48	1294.32
296.69	1245.16
296.90	1212.40
297.12	1265.64
297.33	1193.97
297.55	1241.07
297.76	1302.51
297.98	1239.02
298.19	1257.45
298.41	1206.25
298.62	1273.84
298.83	1279.98
299.05	1255.40
299.26	1314.80
299.48	1302.51
299.69	1230.83
299.90	1245.16
300.12	1249.26
300.33	1298.41
300.55	1239.02
300.76	1314.80
300.98	1290.22
301.19	1257.45
301.40	1230.83
301.62	1265.64
301.83	1222.64
302.05	1284.08
302.26	1228.78
302.47	1286.12
302.69	1335.28
302.90	1327.08
303.12	1261.55
303.33	1306.60
303.54	1322.99
303.76	1318.89
303.97	1236.97
304.19	1220.59
304.40	1234.93
304.61	1288.17
304.83	1331.18
305.04	1286.12
305.26	1312.75
305.47	1224.69
305.68	1300.46
305.90	1271.79
306.11	1279.98
306.33	1282.03
306.54	1232.88
306.75	1218.54
306.97	1351.66
307.18	1267.69
307.39	1259.50
307.61	1202.16
307.82	1304.56
308.04	1257.45
308.25	1259.50
308.46	1304.56
308.68	1269.74
308.89	1304.56
309.10	1232.88
309.32	1241.07
309.53	1255.40
309.74	1286.12
309.96	1206.25
310.17	1331.18
310.39	1290.22
310.60	1282.03
310.81	1210.35
311.03	1234.93
311.24	1269.74
311.45	1288.17
311.67	1288.17
311.88	1255.40
312.09	1269.74
312.31	1302.51
312.52	1329.13
312.73	1255.40
312.95	1218.54
313.16	1273.84
313.37	1374.19
313.59	1236.97
313.80	1298.41
314.01	1200.11
314.23	1271.79
314.44	1312.75
314.65	1247.21
314.87	1249.26
315.08	1234.93
315.29	1255.40
315.51	1261.55
315.72	1316.84
315.93	1255.40
316.15	1296.36
316.36	1249.26
316.57	1214.45
316.79	1251.31
317.00	1243.12
317.21	1224.69
317.43	1226.73
317.64	1265.64
317.85	1306.60
318.07	1269.74
318.28	1277.93
318.49	1234.93
318.70	1257.45
318.92	1259.50
319.13	1247.21
319.34	1230.83
319.56	1261.55
319.77	1247.21
319.98	1206.25
320.20	1296.36
320.41	1273.84
320.62	1247.21
320.83	1296.36
321.05	1267.69
321.26	1310.70
321.47	1296.36
321.69	1271.79
321.90	1308.65
322.11	1261.55
322.32	1284.08
322.54	1265.64
322.75	1124.33
322.96	1265.64
323.18	1230.83
323.39	1302.51
323.60	1234.93
323.81	1193.97
324.03	1320.94
324.24	1298.41
324.45	1239.02
324.66	1224.69
324.88	1239.02
325.09	1286.12
325.30	1288.17
325.52	1325.04
325.73	1269.74
325.94	1267.69
326.15	1306.60
326.37	1282.03
326.58	1263.60
326.79	1314.80
327.00	1243.12
327.22	1286.12
327.43	1165.29
327.64	1210.35
327.85	1298.41
328.07	1306.60
328.28	1312.75
328.49	1232.88
328.70	1249.26
328.92	1288.17
329.13	1239.02
329.34	1259.50
329.55	1218.54
329.76	1255.40
329.98	1310.70
330.19	1175.53
330.40	1306.60
330.61	1337.32
330.83	1267.69
331.04	1241.07
331.25	1261.55
331.46	1200.11
331.68	1292.27
331.89	1306.60
332.10	1247.21
332.31	1294.32
332.52	1257.45
332.74	1325.04
332.95	1249.26
333.16	1302.51
333.37	1343.47
333.58	1304.56
333.80	1296.36
334.01	1249.26
334.22	1259.50
334.43	1226.73
334.64	1216.49
334.86	1241.07
335.07	1251.31
335.28	1267.69
335.49	1282.03
335.70	1239.02
335.92	1339.37
336.13	1247.21
336.34	1239.02
336.55	1292.27
336.76	1286.12
336.98	1290.22
337.19	1220.59
337.40	1325.04
337.61	1228.78
337.82	1265.64
338.04	1284.08
338.25	1314.80
338.46	1310.70
338.67	1269.74
338.88	1286.12
339.09	1247.21
339.31	1304.56
339.52	1236.97
339.73	1210.35
339.94	1290.22
340.15	1202.16
340.36	1232.88
340.58	1310.70
340.79	1347.56
341.00	1265.64
341.21	1322.99
341.42	1245.16
341.63	1275.88
341.85	1290.22
342.06	1304.56
342.27	1206.25
342.48	1230.83
342.69	1255.40
342.90	1212.40
343.12	1306.60
343.33	1294.32
343.54	1249.26
343.75	1298.41
343.96	1279.98
344.17	1347.56
344.38	1304.56
344.60	1294.32
344.81	1206.25
345.02	1290.22
345.23	1230.83
345.44	1241.07
345.65	1384.43
345.86	1333.23
346.07	1265.64
346.29	1302.51
346.50	1335.28
346.71	1255.40
346.92	1241.07
347.13	1298.41
347.34	1275.88
347.55	1206.25
347.76	1226.73
347.98	1234.93
348.19	1294.32
348.40	1322.99
348.61	1302.51
348.82	1296.36
349.03	1271.79
349.24	1232.88
349.45	1210.35
349.66	1253.36
349.88	1282.03
350.09	1261.55
350.30	1277.93
350.51	1284.08
350.72	1222.64
350.93	1181.68
351.14	1255.40
351.35	1300.46
351.56	1273.84
351.77	1253.36
351.99	1314.80
352.20	1290.22
352.41	1277.93
352.62	1282.03
352.83	1200.11
353.04	1292.27
353.25	1322.99
353.46	1288.17
353.67	1208.30
353.88	1261.55
354.09	1288.17
354.30	1249.26
354.52	1236.97
354.73	1322.99
354.94	1275.88
355.15	1183.73
355.36	1212.40
355.57	1347.56
355.78	1282.03
355.99	1243.12
356.20	1304.56
356.41	1292.27
356.62	1314.80
356.83	1243.12
357.04	1222.64
357.25	1247.21
357.46	1273.84
357.68	1259.50
357.89	1224.69
358.10	1265.64
358.31	1259.50
358.52	1200.11
358.73	1255.40
358.94	1263.60
359.15	1329.13
359.36	1288.17
359.57	1214.45
359.78	1171.44
359.99	1288.17
360.20	1239.02
360.41	1241.07
360.62	1314.80
360.83	1339.37
361.04	1218.54
361.25	1269.74
361.46	1239.02
361.67	1253.36
361.88	1232.88
362.09	1249.26
362.30	1271.79
362.51	1189.87
362.72	1275.88
362.93	1230.83
363.14	1298.41
363.35	1193.97
363.56	1269.74
363.78	1243.12
363.99	1277.93
364.20	1218.54
364.41	1284.08
364.62	1339.37
364.83	1261.55
365.04	1277.93
365.25	1296.36
365.46	1261.55
365.67	1325.04
365.88	1269.74
366.09	1312.75
366.30	1325.04
366.51	1298.41
366.72	1271.79
366.93	1269.74
367.14	1306.60
367.35	1253.36
367.56	1343.47
367.77	1320.94
367.98	1265.64
368.18	1300.46
368.39	1284.08
368.60	1322.99
368.81	1181.68
369.02	1263.60
369.23	1249.26
369.44	1282.03
369.65	1216.49
369.86	1249.26
370.07	1292.27
370.28	1228.78
370.49	1222.64
370.70	1249.26
370.91	1247.21
371.12	1218.54
371.33	1304.56
371.54	1224.69
371.75	1265.64
371.96	1296.36
372.17	1273.84
372.38	1273.84
372.59	1255.40
372.80	1269.74
373.01	1290.22
373.22	1366.00
373.43	1318.89
373.64	1269.74
373.85	1200.11
374.06	1265.64
374.26	1267.69
374.47	1273.84
374.68	1261.55
374.89	1200.11
375.10	1273.84
375.31	1290.22
375.52	1275.88
375.73	1298.41
375.94	1214.45
376.15	1263.60
376.36	1275.88
376.57	1224.69
376.78	1316.84
376.99	1273.84
377.20	1259.50
377.40	1288.17
377.61	1290.22
377.82	1206.25
378.03	1263.60
378.24	1239.02
378.45	1267.69
378.66	1251.31
378.87	1271.79
379.08	1273.84
379.29	1181.68
379.50	1259.50
379.71	1239.02
379.91	1255.40
380.12	1224.69
380.33	1255.40
380.54	1120.24
380.75	1239.02
380.96	1210.35
381.17	1329.13
381.38	1290.22
381.59	1298.41
381.80	1265.64
382.00	1296.36
382.21	1273.84
382.42	1327.08
382.63	1257.45
382.84	1298.41
383.05	1265.64
383.26	1232.88
383.47	1247.21
383.68	1322.99
383.88	1251.31
384.09	1298.41
384.30	1257.45
384.51	1224.69
384.72	1279.98
384.93	1335.28
385.14	1212.40
385.35	1263.60
385.55	1286.12
385.76	1218.54
385.97	1255.40
386.18	1314.80
386.39	1206.25
386.60	1273.84
386.81	1325.04
387.02	1333.23
387.22	1275.88
387.43	1304.56
387.64	1249.26
387.85	1261.55
388.06	1220.59
388.27	1273.84
388.48	1329.13
388.68	1298.41
388.89	1279.98
389.10	1259.50
389.31	1294.32
389.52	1279.98
389.73	1220.59
389.93	1255.40
390.14	1284.08
390.35	1193.97
390.56	1282.03
390.77	1245.16
390.98	1279.98
391.18	1279.98
391.39	1247.21
391.60	1148.91
391.81	1337.32
392.02	1275.88
392.23	1279.98
392.43	1279.98
392.64	1265.64
392.85	1277.93
393.06	1265.64
393.27	1320.94
393.47	1275.88
393.68	1241.07
393.89	1239.02
394.10	1271.79
394.31	1294.32
394.52	1282.03
394.72	1230.83
394.93	1325.04
395.14	1255.40
395.35	1200.11
395.56	1265.64
395.76	1294.32
395.97	1185.77
396.18	1286.12
396.39	1251.31
396.60	1196.01
396.80	1337.32
397.01	1310.70
397.22	1193.97
397.43	1267.69
397.64	1224.69
397.84	1202.16
398.05	1218.54
398.26	1269.74
398.47	1214.45
398.67	1284.08
398.88	1335.28
399.09	1265.64
399.30	1267.69
399.51	1300.46
399.71	1255.40
399.92	1216.49
400.13	1210.35
400.34	1208.30
400.54	1218.54
400.75	1275.88
400.96	1236.97
401.17	1224.69
401.37	1212.40
401.58	1236.97
401.79	1220.59
402.00	1261.55
402.21	1245.16
402.41	1232.88
402.62	1273.84
402.83	1300.46
403.04	1200.11
403.24	1202.16
403.45	1300.46
403.66	1347.56
403.87	1261.55
404.07	1284.08
404.28	1282.03
404.49	1259.50
404.70	1282.03
404.90	1228.78
405.11	1232.88
405.32	1265.64
405.52	1236.97
405.73	1282.03
405.94	1222.64
406.15	1282.03
406.35	1312.75
406.56	1249.26
406.77	1333.23
406.98	1277.93
407.18	1243.12
407.39	1230.83
407.60	1210.35
407.80	1312.75
408.01	1269.74
408.22	1298.41
408.43	1284.08
408.63	1320.94
408.84	1251.31
409.05	1232.88
409.25	1286.12
409.46	1243.12
409.67	1228.78
409.88	1206.25
410.08	1261.55
410.29	1294.32
410.50	1249.26
410.70	1249.26
410.91	1279.98
411.12	1267.69
411.32	1277.93
411.53	1277.93
411.74	1294.32
411.95	1335.28
412.15	1241.07
412.36	1257.45
412.57	1261.55
412.77	1304.56
412.98	1296.36
413.19	1284.08
413.39	1363.95
413.60	1290.22
413.81	1267.69
414.01	1353.71
414.22	1251.31
414.43	1325.04
414.63	1292.27
414.84	1294.32
415.05	1253.36
415.25	1292.27
415.46	1271.79
415.67	1228.78
415.87	1247.21
416.08	1325.04
416.29	1241.07
416.49	1251.31
416.70	1191.92
416.91	1220.59
417.11	1298.41
417.32	1234.93
417.53	1269.74
417.73	1271.79
417.94	1300.46
418.15	1206.25
418.35	1308.65
418.56	1249.26
418.77	1249.26
418.97	1232.88
419.18	1312.75
419.38	1282.03
419.59	1310.70
419.80	1271.79
420.00	1277.93
420.21	1249.26
420.42	1282.03
420.62	1263.60
420.83	1312.75
421.04	1269.74
421.24	1263.60
421.45	1298.41
421.65	1236.97
421.86	1239.02
422.07	1247.21
422.27	1273.84
422.48	1267.69
422.69	1284.08
422.89	1316.84
423.10	1284.08
423.30	1294.32
423.51	1243.12
423.72	1247.21
423.92	1302.51
424.13	1241.07
424.33	1247.21
424.54	1228.78
424.75	1245.16
424.95	1292.27
425.16	1308.65
425.36	1306.60
425.57	1282.03
425.78	1245.16
425.98	1212.40
426.19	1292.27
426.39	1351.66
426.60	1286.12
426.81	1228.78
427.01	1177.58
427.22	1259.50
427.42	1322.99
427.63	1318.89
427.83	1282.03
428.04	1298.41
428.25	1169.39
428.45	1282.03
428.66	1279.98
428.86	1282.03
429.07	1255.40
429.28	1279.98
429.48	1357.80
429.69	1302.51
429.89	1294.32
430.10	1312.75
430.30	1284.08
430.51	1259.50
430.71	1226.73
430.92	1247.21
431.13	1306.60
431.33	1300.46
431.54	1241.07
431.74	1236.97
431.95	1261.55
432.15	1296.36
432.36	1275.88
432.56	1255.40
432.77	1337.32
432.98	1253.36
433.18	1298.41
433.39	1277.93
433.59	1210.35
433.80	1306.60
434.00	1210.35
434.21	1329.13
434.41	1204.21
434.62	1261.55
434.82	1163.25
435.03	1312.75
435.23	1239.02
435.44	1216.49
435.64	1255.40
435.85	1230.83
436.06	1253.36
436.26	1247.21
436.47	1294.32
436.67	1189.87
436.88	1318.89
437.08	1241.07
437.29	1241.07
437.49	1314.80
437.70	1286.12
437.90	1282.03
438.11	1312.75
438.31	1273.84
438.52	1228.78
438.72	1304.56
438.93	1257.45
439.13	1267.69
439.34	1308.65
439.54	1228.78
439.75	1296.36
439.95	1327.08
440.16	1296.36
440.36	1282.03
440.57	1320.94
440.77	1271.79
440.98	1206.25
441.18	1331.18
441.39	1253.36
441.59	1239.02
441.80	1331.18
442.00	1279.98
442.21	1265.64
442.41	1169.39
442.62	1273.84
442.82	1236.97
443.02	1230.83
443.23	1300.46
443.43	1247.21
443.64	1331.18
443.84	1212.40
444.05	1277.93
444.25	1302.51
444.46	1325.04
444.66	1282.03
444.87	1282.03
445.07	1253.36
445.28	1357.80
445.48	1224.69
445.69	1368.04
445.89	1296.36
446.09	1232.88
446.30	1298.41
446.50	1292.27
446.71	1312.75
446.91	1339.37
447.12	1286.12
447.32	1273.84
447.53	1284.08
447.73	1327.08
447.93	1239.02
448.14	1259.50
448.34	1273.84
448.55	1271.79
448.75	1312.75
448.96	1298.41
449.16	1331.18
449.36	1298.41
449.57	1273.84
449.77	1304.56
449.98	1261.55
450.18	1316.84
450.39	1304.56
450.59	1304.56
450.79	1245.16
451.00	1267.69
451.20	1286.12
451.41	1196.01
451.61	1228.78
451.81	1183.73
452.02	1277.93
452.22	1290.22
452.43	1312.75
452.63	1300.46
452.84	1265.64
453.04	1282.03
453.24	1271.79
453.45	1251.31
453.65	1304.56
453.86	1314.80
454.06	1290.22
454.26	1249.26
454.47	1327.08
454.67	1234.93
454.87	1267.69
455.08	1343.47
455.28	1251.31
455.49	1314.80
455.69	1284.08
455.89	1372.14
456.10	1208.30
456.30	1290.22
456.51	1241.07
456.71	1290.22
456.91	1337.32
457.12	1263.60
457.32	1292.27
457.52	1220.59
457.73	1218.54
457.93	1318.89
458.14	1212.40
458.34	1247.21
458.54	1282.03
458.75	1282.03
458.95	1292.27
459.15	1331.18
459.36	1284.08
459.56	1261.55
459.76	1286.12
459.97	1255.40
460.17	1304.56
460.37	1273.84
460.58	1322.99
460.78	1304.56
460.99	1304.56
461.19	1247.21
461.39	1165.29
461.60	1288.17
461.80	1308.65
462.00	1292.27
462.21	1290.22
462.41	1277.93
462.61	1290.22
462.82	1239.02
463.02	1255.40
463.22	1286.12
463.43	1265.64
463.63	1308.65
463.83	1253.36
464.04	1294.32
464.24	1314.80
464.44	1239.02
464.64	1251.31
464.85	1306.60
465.05	1253.36
465.25	1220.59
465.46	1286.12
465.66	1288.17
465.86	1239.02
466.07	1294.32
466.27	1230.83
466.47	1236.97
466.68	1255.40
466.88	1282.03
467.08	1318.89
467.29	1294.32
467.49	1306.60
467.69	1279.98
467.89	1236.97
468.10	1335.28
468.30	1269.74
468.50	1316.84
468.71	1265.64
468.91	1271.79
469.11	1308.65
469.31	1286.12
469.52	1265.64
469.72	1273.84
469.92	1241.07
470.13	1279.98
470.33	1257.45
470.53	1298.41
470.73	1271.79
470.94	1273.84
471.14	1345.52
471.34	1310.70
471.54	1286.12
471.75	1239.02
471.95	1327.08
472.15	1286.12
472.36	1222.64
472.56	1191.92
472.76	1292.27
472.96	1245.16
473.17	1255.40
473.37	1308.65
473.57	1261.55
473.77	1294.32
473.98	1259.50
474.18	1316.84
474.38	1239.02
474.58	1265.64
474.79	1312.75
474.99	1296.36
475.19	1234.93
475.39	1312.75
475.60	1202.16
475.80	1189.87
476.00	1337.32
476.20	1322.99
476.41	1296.36
476.61	1265.64
476.81	1335.28
477.01	1359.85
477.21	1277.93
477.42	1214.45
477.62	1220.59
477.82	1267.69
478.02	1218.54
478.23	1298.41
478.43	1275.88
478.63	1279.98
478.83	1277.93
479.03	1222.64
479.24	1269.74
479.44	1294.32
479.64	1257.45
479.84	1298.41
480.04	1263.60
480.25	1298.41
480.45	1298.41
480.65	1292.27
480.85	1216.49
481.06	1275.88
481.26	1290.22
481.46	1320.94
481.66	1282.03
481.86	1241.07
482.06	1269.74
482.27	1245.16
482.47	1191.92
482.67	1304.56
482.87	1277.93
483.07	1277.93
483.28	1228.78
483.48	1239.02
483.68	1331.18
483.88	1279.98
484.08	1243.12
484.29	1239.02
484.49	1245.16
484.69	1341.42
484.89	1245.16
485.09	1247.21
485.29	1236.97
485.50	1282.03
485.70	1259.50
485.90	1298.41
486.10	1290.22
486.30	1273.84
486.50	1269.74
486.71	1312.75
486.91	1259.50
487.11	1259.50
487.31	1218.54
487.51	1265.64
487.71	1214.45
487.91	1241.07
488.12	1325.04
488.32	1247.21
488.52	1230.83
488.72	1298.41
488.92	1232.88
489.12	1279.98
489.32	1247.21
489.53	1288.17
489.73	1306.60
489.93	1279.98
490.13	1251.31
490.33	1294.32
490.53	1322.99
490.73	1335.28
490.94	1290.22
491.14	1232.88
491.34	1308.65
491.54	1279.98
491.74	1257.45
491.94	1337.32
492.14	1329.13
492.34	1220.59
492.54	1298.41
492.75	1220.59
492.95	1259.50
493.15	1294.32
493.35	1273.84
493.55	1290.22
493.75	1208.30
493.95	1222.64
494.15	1269.74
494.35	1236.97
494.56	1302.51
494.76	1245.16
494.96	1224.69
495.16	1345.52
495.36	1257.45
495.56	1296.36
495.76	1232.88
495.96	1224.69
496.16	1288.17
496.36	1298.41
496.56	1298.41
496.77	1347.56
496.97	1308.65
497.17	1267.69
497.37	1318.89
497.57	1347.56
497.77	1288.17
497.97	1271.79
498.17	1234.93
498.37	1255.40
498.57	1257.45
498.77	1302.51
498.97	1296.36
499.17	1157.10
499.38	1318.89
499.58	1314.80
499.78	1261.55
499.98	1181.68
500.18	1208.30
500.38	1322.99
500.58	1284.08
500.78	1241.07
500.98	1251.31
501.18	1271.79
501.38	1255.40
501.58	1282.03
501.78	1296.36
501.98	1310.70
502.18	1322.99
502.38	1282.03
502.58	1286.12
502.78	1345.52
502.98	1241.07
503.18	1273.84
503.38	1296.36
503.59	1327.08
503.79	1273.84
503.99	1236.97
504.19	1288.17
504.39	1208.30
504.59	1241.07
504.79	1363.95
504.99	1253.36
505.19	1279.98
505.39	1306.60
505.59	1257.45
505.79	1292.27
505.99	1329.13
506.19	1189.87
506.39	1239.02
506.59	1318.89
506.79	1249.26
506.99	1224.69
507.19	1302.51
507.39	1312.75
507.59	1241.07
507.79	1286.12
507.99	1226.73
508.19	1290.22
508.39	1279.98
508.59	1335.28
508.79	1329.13
508.99	1279.98
509.19	1304.56
509.39	1234.93
509.59	1263.60
509.79	1226.73
509.99	1310.70
510.19	1320.94
510.39	1329.13
510.59	1318.89
510.79	1302.51
510.99	1245.16
511.19	1269.74
511.39	1247.21
511.59	1298.41
511.79	1312.75
511.99	1263.60
512.19	1261.55
512.38	1279.98
512.58	1267.69
512.78	1210.35
512.98	1298.41
513.18	1259.50
513.38	1282.03
513.58	1331.18
513.78	1185.77
513.98	1294.32
514.18	1351.66
514.38	1275.88
514.58	1302.51
514.78	1339.37
514.98	1265.64
515.18	1284.08
515.38	1206.25
515.58	1150.96
515.78	1341.42
515.98	1300.46
516.18	1212.40
516.38	1269.74
516.57	1269.74
516.77	1314.80
516.97	1232.88
517.17	1284.08
517.37	1234.93
517.57	1261.55
517.77	1286.12
517.97	1236.97
518.17	1271.79
518.37	1228.78
518.57	1255.40
518.77	1222.64
518.97	1226.73
519.16	1198.06
519.36	1304.56
519.56	1312.75
519.76	1275.88
519.96	1296.36
520.16	1275.88
520.36	1304.56
520.56	1322.99
520.76	1304.56
520.96	1318.89
521.16	1269.74
521.35	1263.60
521.55	1314.80
521.75	1228.78
521.95	1271.79
522.15	1255.40
522.35	1234.93
522.55	1349.61
522.75	1355.76
522.95	1216.49
523.14	1243.12
523.34	1261.55
523.54	1245.16
523.74	1267.69
523.94	1372.14
524.14	1284.08
524.34	1255.40
524.54	1251.31
524.73	1157.10
524.93	1333.23
525.13	1247.21
525.33	1275.88
525.53	1327.08
525.73	1267.69
525.93	1306.60
526.13	1261.55
526.32	1363.95
526.52	1306.60
526.72	1284.08
526.92	1310.70
527.12	1316.84
527.32	1314.80
527.52	1277.93
527.71	1304.56
527.91	1277.93
528.11	1286.12
528.31	1310.70
528.51	1302.51
528.71	1273.84
528.90	1279.98
529.10	1243.12
529.30	1306.60
529.50	1247.21
529.70	1286.12
529.90	1374.19
530.09	1318.89
530.29	1271.79
530.49	1259.50
530.69	1322.99
530.89	1282.03
531.09	1298.41
531.28	1282.03
531.48	1292.27
531.68	1294.32
531.88	1277.93
532.08	1304.56
532.28	1329.13
532.47	1214.45
532.67	1325.04
532.87	1232.88
533.07	1351.66
533.27	1353.71
533.46	1263.60
533.66	1335.28
533.86	1239.02
534.06	1224.69
534.26	1202.16
534.45	1277.93
534.65	1292.27
534.85	1255.40
535.05	1304.56
535.25	1245.16
535.44	1239.02
535.64	1222.64
535.84	1226.73
536.04	1208.30
536.24	1232.88
536.43	1341.42
536.63	1298.41
536.83	1288.17
537.03	1363.95
537.22	1279.98
537.42	1265.64
537.62	1327.08
537.82	1282.03
538.02	1241.07
538.21	1304.56
538.41	1341.42
538.61	1320.94
538.81	1304.56
539.00	1259.50
539.20	1300.46
539.40	1257.45
539.60	1294.32
539.79	1296.36
539.99	1284.08
540.19	1275.88
540.39	1228.78
540.58	1206.25
540.78	1282.03
540.98	1275.88
541.18	1302.51
541.37	1318.89
541.57	1388.52
541.77	1236.97
541.97	1306.60
542.16	1267.69
542.36	1290.22
542.56	1282.03
542.76	1273.84
542.95	1249.26
543.15	1171.44
543.35	1312.75
543.54	1296.36
543.74	1306.60
543.94	1224.69
544.14	1259.50
544.33	1224.69
544.53	1335.28
544.73	1310.70
544.93	1310.70
545.12	1255.40
545.32	1263.60
545.52	1230.83
545.71	1249.26
545.91	1320.94
546.11	1290.22
546.30	1259.50
546.50	1234.93
546.70	1308.65
546.90	1271.79
547.09	1222.64
547.29	1196.01
547.49	1296.36
547.68	1263.60
547.88	1327.08
548.08	1337.32
548.27	1355.76
548.47	1312.75
548.67	1343.47
548.87	1286.12
549.06	1294.32
549.26	1298.41
549.46	1247.21
549.65	1259.50
549.85	1275.88
550.05	1339.37
550.24	1294.32
550.44	1300.46
550.64	1275.88
550.83	1183.73
551.03	1224.69
551.23	1314.80
551.42	1282.03
551.62	1314.80
551.82	1386.47
552.01	1271.79
552.21	1312.75
552.41	1302.51
552.60	1300.46
552.80	1318.89
553.00	1263.60
553.19	1290.22
553.39	1282.03
553.59	1286.12
553.78	1290.22
553.98	1251.31
554.17	1308.65
554.37	1337.32
554.57	1372.14
554.76	1339.37
554.96	1255.40
555.16	1302.51
555.35	1318.89
555.55	1327.08
555.75	1339.37
555.94	1251.31
556.14	1298.41
556.33	1236.97
556.53	1300.46
556.73	1292.27
556.92	1286.12
557.12	1306.60
557.32	1286.12
557.51	1286.12
557.71	1251.31
557.90	1382.38
558.10	1310.70
558.30	1308.65
558.49	1263.60
558.69	1263.60
558.88	1355.76
559.08	1257.45
559.28	1230.83
559.47	1298.41
559.67	1279.98
559.86	1302.51
560.06	1290.22
560.26	1282.03
560.45	1228.78
560.65	1277.93
560.84	1271.79
561.04	1318.89
561.24	1300.46
561.43	1265.64
561.63	1290.22
561.82	1304.56
562.02	1232.88
562.22	1239.02
562.41	1329.13
562.61	1284.08
562.80	1265.64
563.00	1277.93
563.19	1359.85
563.39	1345.52
563.59	1304.56
563.78	1300.46
563.98	1236.97
564.17	1392.62
564.37	1269.74
564.56	1257.45
564.76	1265.64
564.96	1298.41
565.15	1253.36
565.35	1273.84
565.54	1282.03
565.74	1288.17
565.93	1234.93
566.13	1357.80
566.32	1230.83
566.52	1327.08
566.71	1239.02
566.91	1286.12
567.11	1212.40
567.30	1273.84
567.50	1251.31
567.69	1290.22
567.89	1292.27
568.08	1239.02
568.28	1269.74
568.47	1288.17
568.67	1273.84
568.86	1267.69
569.06	1273.84
569.25	1322.99
569.45	1243.12
569.64	1318.89
569.84	1277.93
570.04	1304.56
570.23	1331.18
570.43	1241.07
570.62	1343.47
570.82	1255.40
571.01	1261.55
571.21	1243.12
571.40	1322.99
571.60	1241.07
571.79	1298.41
571.99	1288.17
572.18	1275.88
572.38	1253.36
572.57	1314.80
572.77	1228.78
572.96	1318.89
573.16	1310.70
573.35	1234.93
573.55	1331.18
573.74	1245.16
573.94	1343.47
574.13	1202.16
574.33	1320.94
574.52	1232.88
574.71	1300.46
574.91	1249.26
575.10	1347.56
575.30	1265.64
575.49	1277.93
575.69	1251.31
575.88	1247.21
576.08	1212.40
576.27	1277.93
576.47	1298.41
576.66	1271.79
576.86	1265.64
577.05	1351.66
577.25	1275.88
577.44	1269.74
577.64	1279.98
577.83	1269.74
578.02	1269.74
578.22	1269.74
578.41	1300.46
578.61	1298.41
578.80	1290.22
579.00	1341.42
579.19	1282.03
579.39	1286.12
579.58	1271.79
579.77	1322.99
579.97	1224.69
580.16	1294.32
580.36	1292.27
580.55	1296.36
580.75	1318.89
580.94	1320.94
581.13	1208.30
581.33	1263.60
581.52	1277.93
581.72	1325.04
581.91	1353.71
582.11	1275.88
582.30	1251.31
582.49	1316.84
582.69	1269.74
582.88	1267.69
583.08	1306.60
583.27	1273.84
583.47	1279.98
583.66	1267.69
583.85	1286.12
584.05	1275.88
584.24	1345.52
584.44	1318.89
584.63	1294.32
584.82	1304.56
585.02	1288.17
585.21	1271.79
585.41	1300.46
585.60	1284.08
585.79	1220.59
585.99	1298.41
586.18	1241.07
586.37	1269.74
586.57	1253.36
586.76	1273.84
586.96	1220.59
587.15	1267.69
587.34	1302.51
587.54	1308.65
587.73	1189.87
587.93	1282.03
588.12	1263.60
588.31	1257.45
588.51	1284.08
588.70	1277.93
588.89	1312.75
589.09	1290.22
589.28	1271.79
589.47	1308.65
589.67	1273.84
589.86	1298.41
590.06	1288.17
590.25	1282.03
590.44	1298.41
590.64	1259.50
590.83	1314.80
591.02	1273.84
591.22	1222.64
591.41	1298.41
591.60	1282.03
591.80	1327.08
591.99	1253.36
592.18	1214.45
592.38	1271.79
592.57	1306.60
592.76	1327.08
592.96	1347.56
593.15	1355.76
593.34	1339.37
593.54	1286.12
593.73	1284.08
593.92	1277.93
594.12	1251.31
594.31	1290.22
594.50	1263.60
594.70	1374.19
594.89	1292.27
595.08	1245.16
595.28	1269.74
595.47	1236.97
595.66	1308.65
595.86	1267.69
596.05	1308.65
596.24	1306.60
596.43	1269.74
596.63	1269.74
596.82	1206.25
597.01	1202.16
597.21	1236.97
597.40	1306.60
597.59	1282.03
597.79	1255.40
597.98	1267.69
598.17	1220.59
598.36	1318.89
598.56	1251.31
598.75	1339.37
598.94	1361.90
599.14	1294.32
599.33	1204.21
599.52	1308.65
599.71	1236.97
599.91	1302.51
600.10	1255.40
600.29	1318.89
600.48	1204.21
600.68	1267.69
600.87	1220.59
601.06	1292.27
601.26	1380.33
601.45	1302.51
601.64	1247.21
601.83	1265.64
602.03	1329.13
602.22	1267.69
602.41	1327.08
602.60	1251.31
602.80	1239.02
602.99	1255.40
603.18	1292.27
603.37	1257.45
603.57	1257.45
603.76	1314.80
603.95	1230.83
604.14	1288.17
604.34	1265.64
604.53	1294.32
604.72	1306.60
604.91	1300.46
605.10	1273.84
605.30	1275.88
605.49	1263.60
605.68	1275.88
605.87	1286.12
606.07	1269.74
606.26	1282.03
606.45	1257.45
606.64	1333.23
606.84	1222.64
607.03	1232.88
607.22	1249.26
607.41	1243.12
607.60	1265.64
607.80	1243.12
607.99	1296.36
608.18	1363.95
608.37	1251.31
608.56	1302.51
608.76	1277.93
608.95	1306.60
609.14	1265.64
609.33	1257.45
609.52	1347.56
609.72	1304.56
609.91	1273.84
610.10	1294.32
610.29	1249.26
610.48	1275.88
610.68	1275.88
610.87	1282.03
611.06	1304.56
611.25	1261.55
611.44	1331.18
611.63	1282.03
611.83	1327.08
612.02	1251.31
612.21	1292.27
612.40	1306.60
612.59	1302.51
612.79	1300.46
612.98	1314.80
613.17	1267.69
613.36	1333.23
613.55	1290.22
613.74	1296.36
613.93	1282.03
614.13	1277.93
614.32	1355.76
614.51	1306.60
614.70	1277.93
614.89	1296.36
615.08	1306.60
615.28	1312.75
615.47	1294.32
615.66	1296.36
615.85	1251.31
616.04	1329.13
616.23	1308.65
616.42	1185.77
616.62	1327.08
616.81	1241.07
617.00	1243.12
617.19	1310.70
617.38	1279.98
617.57	1249.26
617.76	1286.12
617.95	1245.16
618.15	1296.36
618.34	1259.50
618.53	1245.16
618.72	1300.46
618.91	1314.80
619.10	1310.70
619.29	1277.93
619.48	1376.24
619.68	1249.26
619.87	1263.60
620.06	1294.32
620.25	1218.54
620.44	1298.41
620.63	1277.93
620.82	1279.98
621.01	1292.27
621.20	1292.27
621.39	1232.88
621.59	1234.93
621.78	1363.95
621.97	1269.74
622.16	1251.31
622.35	1279.98
622.54	1329.13
622.73	1263.60
622.92	1236.97
623.11	1261.55
623.30	1224.69
623.49	1327.08
623.68	1226.73
623.88	1327.08
624.07	1193.97
624.26	1298.41
624.45	1329.13
624.64	1263.60
624.83	1347.56
625.02	1275.88
625.21	1249.26
625.40	1277.93
625.59	1259.50
625.78	1249.26
625.97	1322.99
626.16	1282.03
626.35	1320.94
626.54	1277.93
626.74	1259.50
626.93	1263.60
627.12	1337.32
627.31	1308.65
627.50	1255.40
627.69	1325.04
627.88	1308.65
628.07	1320.94
628.26	1329.13
628.45	1325.04
628.64	1247.21
628.83	1298.41
629.02	1331.18
629.21	1308.65
629.40	1329.13
629.59	1314.80
629.78	1282.03
629.97	1286.12
630.16	1288.17
630.35	1327.08
630.54	1359.85
630.73	1351.66
630.92	1249.26
631.11	1261.55
631.30	1312.75
631.49	1374.19
631.68	1847.27
631.87	6209.44
632.06	22191.79
632.25	43791.72
632.44	46916.92
632.63	47234.35
632.82	25517.69
633.01	12109.64
633.20	6094.76
633.39	2889.68
633.58	2457.56
633.77	2179.04
633.96	1968.10
634.15	1822.69
634.34	1781.73
634.53	1665.00
634.72	1591.27
634.91	1490.92
635.10	1478.63
635.29	1509.35
635.48	1495.02
635.67	1478.63
635.86	1531.88
636.05	1359.85
636.24	1370.09
636.43	1355.76
636.62	1304.56
636.81	1310.70
637.00	1339.37
637.19	1308.65
637.38	1320.94
637.57	1333.23
637.76	1331.18
637.95	1404.91
638.14	1325.04
638.33	1337.32
638.52	1312.75
638.71	1337.32
638.89	1288.17
639.08	1335.28
639.27	1331.18
639.46	1243.12
639.65	1341.42
639.84	1339.37
640.03	1300.46
640.22	1243.12
640.41	1396.71
640.60	1269.74
640.79	1300.46
640.98	1329.13
641.17	1224.69
641.36	1275.88
641.55	1247.21
641.74	1224.69
641.92	1304.56
642.11	1273.84
642.30	1282.03
642.49	1253.36
642.68	1212.40
642.87	1279.98
643.06	1286.12
643.25	1271.79
643.44	1290.22
643.63	1300.46
643.82	1265.64
644.00	1277.93
644.19	1386.47
644.38	1277.93
644.57	1265.64
644.76	1341.42
644.95	1322.99
645.14	1316.84
645.33	1263.60
645.52	1284.08
645.71	1284.08
645.89	1290.22
646.08	1228.78
646.27	1308.65
646.46	1282.03
646.65	1275.88
646.84	1351.66
647.03	1249.26
647.22	1361.90
647.40	1255.40
647.59	1265.64
647.78	1234.93
647.97	1269.74
648.16	1255.40
648.35	1347.56
648.54	1279.98
648.73	1253.36
648.91	1267.69
649.10	1232.88
649.29	1269.74
649.48	1247.21
649.67	1286.12
649.86	1300.46
650.05	1310.70
650.23	1298.41
650.42	1228.78
650.61	1304.56
650.80	1232.88
650.99	1277.93
651.18	1273.84
651.36	1257.45
651.55	1261.55
651.74	1318.89
651.93	1271.79
652.12	1226.73
652.31	1265.64
652.49	1288.17
652.68	1339.37
652.87	1263.60
653.06	1269.74
653.25	1273.84
653.44	1224.69
653.62	1290.22
653.81	1269.74
654.00	1271.79
654.19	1298.41
654.38	1286.12
654.56	1267.69
654.75	1191.92
654.94	1200.11
655.13	1236.97
655.32	1251.31
655.51	1265.64
655.69	1253.36
655.88	1236.97
656.07	1294.32
656.26	1273.84
656.45	1279.98
656.63	1167.34
656.82	1189.87
657.01	1288.17
657.20	1282.03
657.38	1191.92
657.57	1298.41
657.76	1320.94
657.95	1261.55
658.14	1236.97
658.32	1292.27
658.51	1220.59
658.70	1327.08
658.89	1372.14
659.08	1284.08
659.26	1273.84
659.45	1224.69
659.64	1255.40
659.83	1253.36
660.01	1245.16
660.20	1189.87
660.39	1314.80
660.58	1310.70
660.76	1265.64
660.95	1249.26
661.14	1312.75
661.33	1265.64
661.51	1296.36
661.70	1255.40
661.89	1347.56
662.08	1296.36
662.26	1255.40
662.45	1263.60
662.64	1304.56
662.83	1273.84
663.01	1314.80
663.20	1314.80
663.39	1230.83
663.58	1224.69
663.76	1300.46
663.95	1306.60
664.14	1249.26
664.32	1269.74
664.51	1290.22
664.70	1310.70
664.89	1206.25
665.07	1206.25
665.26	1241.07
665.45	1224.69
665.64	1269.74
665.82	1210.35
666.01	1263.60
666.20	1222.64
666.38	1171.44
666.57	1316.84
666.76	1286.12
666.95	1271.79
667.13	1325.04
667.32	1212.40
667.51	1298.41
667.69	1216.49
667.88	1294.32
668.07	1271.79
668.25	1341.42
668.44	1294.32
668.63	1282.03
668.81	1228.78
669.00	1308.65
669.19	1208.30
669.38	1251.31
669.56	1230.83
669.75	1331.18
669.94	1212.40
670.12	1243.12
670.31	1290.22
670.50	1239.02
670.68	1269.74
670.87	1325.04
671.06	1245.16
671.24	1296.36
671.43	1228.78
671.62	1249.26
671.80	1198.06
671.99	1322.99
672.18	1263.60
672.36	1245.16
672.55	1226.73
672.74	1312.75
672.92	1261.55
673.11	1312.75
673.29	1247.21
673.48	1222.64
673.67	1224.69
673.85	1316.84
674.04	1179.63
674.23	1286.12
674.41	1304.56
674.60	1327.08
674.79	1265.64
674.97	1331.18
675.16	1327.08
675.34	1259.50
675.53	1241.07
675.72	1236.97
675.90	1306.60
676.09	1292.27
676.28	1290.22
676.46	1257.45
676.65	1306.60
676.83	1306.60
677.02	1271.79
677.21	1312.75
677.39	1208.30
677.58	1193.97
677.77	1265.64
677.95	1290.22
678.14	1275.88
678.32	1263.60
678.51	1298.41
678.70	1294.32
678.88	1216.49
679.07	1271.79
679.25	1247.21
679.44	1196.01
679.63	1306.60
679.81	1271.79
680.00	1296.36
680.18	1279.98
680.37	1302.51
680.55	1232.88
680.74	1325.04
680.93	1259.50
681.11	1290.22
681.30	1292.27
681.48	1251.31
681.67	1253.36
681.85	1306.60
682.04	1288.17
682.23	1302.51
682.41	1318.89
682.60	1302.51
682.78	1265.64
682.97	1284.08
683.15	1273.84
683.34	1220.59
683.53	1251.31
683.71	1253.36
683.90	1294.32
684.08	1296.36
684.27	1271.79
684.45	1288.17
684.64	1279.98
684.82	1275.88
685.01	1282.03
685.19	1247.21
685.38	1286.12
685.57	1300.46
685.75	1310.70
685.94	1261.55
686.12	1286.12
686.31	1265.64
686.49	1296.36
686.68	1261.55
686.86	1214.45
687.05	1284.08
687.23	1331.18
687.42	1239.02
687.60	1298.41
687.79	1189.87
687.97	1302.51
688.16	1271.79
688.34	1263.60
688.53	1249.26
688.71	1273.84
688.90	1273.84
689.08	1269.74
689.27	1282.03
689.45	1230.83
689.64	1279.98
689.82	1288.17
690.01	1241.07
690.19	1271.79
690.38	1257.45
690.56	1241.07
690.75	1263.60
690.93	1294.32
691.12	1286.12
691.30	1196.01
691.49	1253.36
691.67	1282.03
691.86	1304.56
692.04	1204.21
692.23	1310.70
692.41	1261.55
692.60	1245.16
692.78	1241.07
692.97	1271.79
693.15	1322.99
693.34	1230.83
693.52	1271.79
693.71	1253.36
693.89	1302.51
694.08	1259.50
694.26	1208.30
694.44	1181.68
694.63	1193.97
694.81	1279.98
695.00	1247.21
695.18	1282.03
695.37	1325.04
695.55	1320.94
695.74	1361.90
695.92	1314.80
696.10	1337.32
696.29	1259.50
696.47	1263.60
696.66	1271.79
696.84	1329.13
697.03	1275.88
697.21	1304.56
697.40	1349.61
697.58	1329.13
697.76	1257.45
697.95	1226.73
698.13	1284.08
698.32	1310.70
698.50	1222.64
698.68	1331.18
698.87	1322.99
699.05	1284.08
699.24	1310.70
699.42	1298.41
699.61	1230.83
699.79	1222.64
699.97	1279.98
700.16	1310.70
700.34	1292.27
700.53	1253.36
700.71	1275.88
700.89	1275.88
701.08	1224.69
701.26	1234.93
701.45	1318.89
701.63	1374.19
701.81	1271.79
702.00	1183.73
702.18	1259.50
702.37	1304.56
702.55	1294.32
702.73	1284.08
702.92	1202.16
703.10	1228.78
703.28	1204.21
703.47	1234.93
703.65	1269.74
703.84	1279.98
704.02	1275.88
704.20	1279.98
704.39	1314.80
704.57	1282.03
704.75	1249.26
704.94	1269.74
705.12	1279.98
705.30	1230.83
705.49	1198.06
705.67	1161.20
705.86	1310.70
706.04	1249.26
706.22	1341.42
706.41	1212.40
706.59	1298.41
706.77	1314.80
706.96	1296.36
707.14	1253.36
707.32	1316.84
707.51	1341.42
707.69	1249.26
707.87	1288.17
708.06	1316.84
708.24	1271.79
708.42	1265.64
708.61	1204.21
708.79	1232.88
708.97	1214.45
709.16	1322.99
709.34	1228.78
709.52	1290.22
709.71	1230.83
709.89	1253.36
710.07	1304.56
710.26	1236.97
710.44	1277.93
710.62	1241.07
710.80	1200.11
710.99	1255.40
711.17	1284.08
711.35	1247.21
711.54	1271.79
711.72	1298.41
711.90	1269.74
712.09	1271.79
712.27	1230.83
712.45	1263.60
712.63	1206.25
712.82	1263.60
713.00	1255.40
713.18	1273.84
713.37	1271.79
713.55	1241.07
713.73	1245.16
713.91	1257.45
714.10	1226.73
714.28	1306.60
714.46	1259.50
714.65	1216.49
714.83	1279.98
715.01	1310.70
715.19	1292.27
715.38	1239.02
715.56	1263.60
715.74	1243.12
715.92	1286.12
716.11	1220.59
716.29	1279.98
716.47	1253.36
716.65	1241.07
716.84	1298.41
717.02	1325.04
717.20	1337.32
717.38	1241.07
717.57	1327.08
717.75	1255.40
717.93	1228.78
718.11	1255.40
718.30	1261.55
718.48	1243.12
718.66	1271.79
718.84	1191.92
719.03	1273.84
719.21	1228.78
719.39	1267.69
719.57	1214.45
719.75	1271.79
719.94	1275.88
720.12	1269.74
720.30	1171.44
720.48	1314.80
720.67	1325.04
720.85	1337.32
721.03	1210.35
721.21	1249.26
721.39	1222.64
721.58	1294.32
721.76	1234.93
721.94	1302.51
722.12	1294.32
722.30	1191.92
722.49	1304.56
722.67	1279.98
722.85	1288.17
723.03	1218.54
723.21	1306.60
723.40	1308.65
723.58	1310.70
723.76	1335.28
723.94	1294.32
724.12	1374.19
724.30	1218.54
724.49	1277.93
724.67	1288.17
724.85	1263.60
725.03	1327.08
725.21	1265.64
725.40	1286.12
725.58	1232.88
725.76	1259.50
725.94	1224.69
726.12	1167.34
726.30	1220.59
726.49	1261.55
726.67	1359.85
726.85	1271.79
727.03	1171.44
727.21	1214.45
727.39	1271.79
727.57	1232.88
727.76	1286.12
727.94	1337.32
728.12	1257.45
728.30	1277.93
728.48	1273.84
728.66	1308.65
728.84	1298.41
729.03	1202.16
729.21	1245.16
729.39	1220.59
729.57	1183.73
729.75	1294.32
729.93	1298.41
730.11	1257.45
730.30	1275.88
730.48	1251.31
730.66	1253.36
730.84	1302.51
731.02	1304.56
731.20	1224.69
731.38	1269.74
731.56	1312.75
731.74	1216.49
731.93	1257.45
732.11	1208.30
732.29	1204.21
732.47	1257.45
732.65	1337.32
732.83	1277.93
733.01	1239.02
733.19	1210.35
733.37	1261.55
733.56	1304.56
733.74	1210.35
733.92	1277.93
734.10	1343.47
734.28	1275.88
734.46	1277.93
734.64	1292.27
734.82	1255.40
735.00	1265.64
735.18	1308.65
735.36	1251.31
735.54	1310.70
735.73	1337.32
735.91	1306.60
736.09	1214.45
736.27	1294.32
736.45	1308.65
736.63	1290.22
736.81	1175.53
736.99	1282.03
737.17	1228.78
737.35	1269.74
737.53	1269.74
737.71	1286.12
737.89	1263.60
738.07	1255.40
738.25	1210.35
738.43	1273.84
738.61	1310.70
738.80	1296.36
738.98	1337.32
739.16	1247.21
739.34	1339.37
739.52	1257.45
739.70	1277.93
739.88	1273.84
740.06	1265.64
740.24	1286.12
740.42	1290.22
740.60	1284.08
740.78	1232.88
740.96	1138.67
741.14	1241.07
741.32	1236.97
741.50	1296.36
741.68	1284.08
741.86	1300.46
742.04	1251.31
742.22	1204.21
742.40	1185.77
742.58	1284.08
742.76	1298.41
742.94	1275.88
743.12	1222.64
743.30	1212.40
743.48	1255.40
743.66	1239.02
743.84	1257.45
744.02	1273.84
744.20	1275.88
744.38	1222.64
744.56	1290.22
744.74	1290.22
744.92	1337.32
745.10	1257.45
745.28	1288.17
745.46	1327.08
745.64	1245.16
745.82	1265.64
746.00	1355.76
746.18	1214.45
746.36	1286.12
746.54	1265.64
746.72	1234.93
746.90	1249.26
747.08	1273.84
747.26	1241.07
747.44	1310.70
747.62	1210.35
747.80	1261.55
747.98	1239.02
748.15	1273.84
748.33	1263.60
748.51	1294.32
748.69	1298.41
748.87	1275.88
749.05	1189.87
749.23	1275.88
749.41	1290.22
749.59	1271.79
749.77	1218.54
749.95	1290.22
750.13	1288.17
750.31	1239.02
750.49	1224.69
750.67	1341.42
750.85	1296.36
751.03	1239.02
751.20	1247.21
751.38	1263.60
751.56	1239.02
751.74	1300.46
751.92	1200.11
752.10	1296.36
752.28	1228.78
752.46	1275.88
752.64	1247.21
752.82	1273.84
753.00	1302.51
753.18	1267.69
753.35	1279.98
753.53	1306.60
753.71	1228.78
753.89	1337.32
754.07	1234.93
754.25	1339.37
754.43	1253.36
754.61	1339.37
754.79	1261.55
754.97	1220.59
755.14	1325.04
755.32	1243.12
755.50	1241.07
755.68	1316.84
755.86	1220.59
756.04	1236.97
756.22	1263.60
756.40	1296.36
756.57	1273.84
756.75	1284.08
756.93	1279.98
757.11	1325.04
757.29	1261.55
757.47	1296.36
757.65	1247.21
757.82	1298.41
758.00	1308.65
758.18	1222.64
758.36	1282.03
758.54	1284.08
758.72	1232.88
758.90	1208.30
759.07	1318.89
759.25	1193.97
759.43	1196.01
759.61	1167.34
759.79	1310.70
759.97	1210.35
760.15	1214.45
760.32	1241.07
760.50	1275.88
760.68	1284.08
760.86	1275.88
761.04	1290.22
761.22	1249.26
761.39	1236.97
761.57	1310.70
761.75	1241.07
761.93	1265.64
762.11	1230.83
762.28	1249.26
762.46	1308.65
762.64	1275.88
762.82	1275.88
763.00	1257.45
763.18	1282.03
763.35	1212.40
763.53	1247.21
763.71	1277.93
763.89	1284.08
764.07	1216.49
764.24	1298.41
764.42	1298.41
764.60	1255.40
764.78	1230.83
764.96	1220.59
765.13	1224.69
765.31	1306.60
765.49	1290.22
765.67	1284.08
765.84	1310.70
766.02	1284.08
766.20	1302.51
766.38	1292.27
766.56	1265.64
766.73	1247.21
766.91	1290.22
767.09	1214.45
767.27	1282.03
767.44	1286.12
767.62	1304.56
767.80	1263.60
767.98	1241.07
768.15	1198.06
768.33	1277.93
768.51	1191.92
768.69	1282.03
768.87	1277.93
769.04	1251.31
769.22	1249.26
769.40	1224.69
769.58	1275.88
769.75	1224.69
769.93	1220.59
770.11	1290.22
770.28	1230.83
770.46	1249.26
770.64	1267.69
770.82	1329.13
770.99	1271.79
771.17	1224.69
771.35	1316.84
771.53	1271.79
771.70	1273.84
771.88	1310.70
772.06	1259.50
772.23	1263.60
772.41	1277.93
772.59	1269.74
772.77	1308.65
772.94	1294.32
773.12	1251.31
773.30	1263.60
773.47	1261.55
773.65	1189.87
773.83	1302.51
774.01	1335.28
774.18	1230.83
774.36	1247.21
774.54	1298.41
774.71	1300.46
774.89	1253.36
775.07	1257.45
775.24	1222.64
775.42	1165.29
775.60	1273.84
775.78	1269.74
775.95	1206.25
776.13	1224.69
776.31	1279.98
776.48	1228.78
776.66	1343.47
776.84	1222.64
777.01	1267.69
777.19	1263.60
777.37	1263.60
777.54	1167.34
777.72	1257.45
777.90	1273.84
778.07	1232.88
778.25	1294.32
778.43	1267.69
778.60	1290.22
778.78	1265.64
778.96	1257.45
779.13	1296.36
779.31	1179.63
779.49	1277.93
779.66	1267.69
779.84	1232.88
780.01	1247.21
780.19	1257.45
780.37	1306.60
780.54	1296.36
780.72	1261.55
780.90	1320.94
781.07	1251.31
781.25	1273.84
781.43	1302.51
781.60	1259.50
781.78	1257.45
781.95	1320.94
782.13	1249.26
782.31	1241.07
782.48	1279.98
782.66	1322.99
782.83	1232.88
783.01	1206.25
783.19	1279.98
783.36	1345.52
783.54	1241.07
783.72	1282.03
783.89	1249.26
784.07	1228.78
784.24	1249.26
784.42	1277.93
784.60	1298.41
784.77	1269.74
784.95	1220.59
785.12	1329.13
785.30	1253.36
785.47	1372.14
785.65	1236.97
785.83	1232.88
786.00	1214.45
786.18	1312.75
786.35	1208.30
786.53	1282.03
786.71	1263.60
786.88	1294.32
787.06	1325.04
787.23	1304.56
787.41	1230.83
787.58	1275.88
787.76	1206.25
787.94	1306.60
788.11	1255.40
788.29	1228.78
788.46	1267.69
788.64	1284.08
788.81	1335.28
788.99	1296.36
789.16	1290.22
789.34	1265.64
789.52	1257.45
789.69	1290.22
789.87	1351.66
790.04	1265.64
790.22	1290.22
790.39	1349.61
790.57	1208.30
790.74	1232.88
790.92	1282.03
791.09	1320.94
791.27	1302.51
791.44	1206.25
791.62	1275.88
791.79	1222.64
791.97	1333.23
792.15	1378.28
792.32	1236.97
792.50	1282.03
792.67	1306.60
792.85	1263.60
793.02	1327.08
793.20	1304.56
793.37	1236.97
793.55	1288.17
793.72	1216.49
793.90	1249.26
794.07	1255.40
794.25	1284.08
794.42	1257.45
794.60	1226.73
794.77	1302.51
794.95	1214.45
795.12	1265.64
795.30	1361.90
795.47	1310.70
795.65	1177.58
795.82	1263.60
796.00	1196.01
796.17	1171.44
796.34	1300.46
796.52	1284.08
796.69	1232.88
796.87	1261.55
797.04	1226.73
797.22	1304.56
797.39	1298.41
797.57	1331.18
797.74	1304.56
797.92	1243.12
798.09	1222.64
798.27	1279.98
798.44	1269.74
798.62	1300.46
798.79	1183.73
798.96	1193.97
799.14	1279.98
799.31	1298.41
799.49	1273.84
799.66	1255.40
799.84	1320.94
800.01	1320.94
800.19	1243.12
800.36	1218.54
800.53	1183.73
800.71	1263.60
800.88	1341.42
801.06	1239.02
801.23	1265.64
801.41	1216.49
801.58	1298.41
801.75	1241.07
801.93	1306.60
802.10	1267.69
802.28	1243.12
802.45	1200.11
802.63	1247.21
802.80	1271.79
802.97	1243.12
803.15	1294.32
803.32	1226.73
803.50	1269.74
803.67	1298.41
803.84	1245.16
804.02	1222.64
804.19	1261.55
804.37	1263.60
804.54	1300.46
804.71	1251.31
804.89	1245.16
805.06	1284.08
805.24	1245.16
805.41	1247.21
805.58	1345.52
805.76	1292.27
805.93	1224.69
806.10	1304.56
806.28	1255.40
806.45	1224.69
806.63	1216.49
806.80	1306.60
806.97	1226.73
807.15	1228.78
807.32	1216.49
807.49	1267.69
807.67	1294.32
807.84	1214.45
808.01	1253.36
808.19	1273.84
808.36	1286.12
808.54	1239.02
808.71	1210.35
808.88	1261.55
809.06	1234.93
809.23	1310.70
809.40	1247.21
809.58	1273.84
809.75	1273.84
809.92	1341.42
810.10	1296.36
810.27	1279.98
810.44	1290.22
810.62	1245.16
810.79	1294.32
810.96	1263.60
811.14	1239.02
811.31	1304.56
811.48	1251.31
811.66	1325.04
811.83	1253.36
812.00	1314.80
812.18	1282.03
812.35	1298.41
812.52	1279.98
812.69	1208.30
812.87	1290.22
813.04	1288.17
813.21	1302.51
813.39	1322.99
813.56	1286.12
813.73	1318.89
813.91	1222.64
814.08	1249.26
814.25	1267.69
814.42	1241.07
814.60	1275.88
814.77	1267.69
814.94	1269.74
815.12	1269.74
815.29	1275.88
815.46	1263.60
815.63	1206.25
815.81	1296.36
815.98	1253.36
816.15	1230.83
816.33	1218.54
816.50	1279.98
816.67	1279.98
816.84	1249.26
817.02	1263.60
817.19	1265.64
817.36	1277.93
817.53	1308.65
817.71	1212.40
817.88	1220.59
818.05	1265.64
818.22	1232.88
818.40	1292.27
818.57	1282.03
818.74	1189.87
818.91	1335.28
819.09	1230.83
819.26	1329.13
819.43	1286.12
819.60	1239.02
819.78	1224.69
819.95	1253.36
820.12	1224.69
820.29	1286.12
820.47	1241.07
820.64	1269.74
820.81	1265.64
820.98	1241.07
821.15	1284.08
821.33	1236.97
821.50	1265.64
821.67	1255.40
821.84	1247.21
822.02	1267.69
822.19	1290.22
822.36	1193.97
822.53	1245.16
822.70	1175.53
822.88	1224.69
823.05	1222.64
823.22	1261.55
823.39	1275.88
823.56	1290.22
823.74	1275.88
823.91	1220.59
824.08	1243.12
824.25	1267.69
824.42	1294.32
824.60	1277.93
824.77	1279.98
824.94	1218.54
825.11	1318.89
825.28	1181.68
825.45	1314.80
825.63	1232.88
825.80	1294.32
825.97	1222.64
826.14	1314.80
826.31	1255.40
826.48	1241.07
826.66	1234.93
826.83	1302.51
827.00	1251.31
827.17	1300.46
827.34	1304.56
827.51	1284.08
827.69	1177.58
827.86	1282.03
828.03	1288.17
828.20	1284.08
828.37	1236.97
828.54	1273.84
828.71	1210.35
828.89	1286.12
829.06	1325.04
829.23	1241.07
829.40	1263.60
829.57	1259.50
829.74	1228.78
829.91	1261.55
830.09	1284.08
830.26	1277.93
830.43	1263.60
830.60	1304.56
830.77	1308.65
830.94	1249.26
831.11	1249.26
831.28	1245.16
831.46	1228.78
831.63	1222.64
831.80	1298.41
831.97	1253.36
832.14	1279.98
832.31	1296.36
832.48	1204.21
832.65	1273.84
832.82	1275.88
832.99	1257.45
833.17	1236.97
833.34	1304.56
833.51	1249.26
833.68	1234.93
833.85	1347.56
834.02	1253.36
834.19	1298.41
834.36	1265.64
834.53	1292.27
834.70	1257.45
834.87	1306.60
835.04	1288.17
835.22	1269.74
835.39	1318.89
835.56	1198.06
835.73	1275.88
835.90	1294.32
836.07	1273.84
836.24	1257.45
836.41	1282.03
836.58	1230.83
836.75	1318.89
836.92	1247.21
837.09	1277.93
837.26	1269.74
837.43	1279.98
837.60	1269.74
837.77	1284.08
837.94	1306.60
838.12	1335.28
838.29	1228.78
838.46	1282.03
838.63	1251.31
838.80	1284.08
838.97	1308.65
839.14	1277.93
839.31	1267.69
839.48	1247.21
839.65	1290.22
839.82	1286.12
839.99	1226.73
840.16	1271.79
840.33	1261.55
840.50	1282.03
840.67	1239.02
840.84	1273.84
841.01	1224.69
841.18	1222.64
841.35	1316.84
841.52	1247.21
841.69	1265.64
841.86	1320.94
842.03	1247.21
842.20	1306.60
842.37	1355.76
842.54	1243.12
842.71	1261.55
842.88	1300.46
843.05	1269.74
843.22	1271.79
843.39	1247.21
843.56	1263.60
843.73	1226.73
843.90	1273.84
844.07	1245.16
844.24	1185.77
844.41	1284.08
844.58	1277.93
844.75	1263.60
844.92	1273.84
845.09	1255.40
845.26	1265.64
845.43	1273.84
845.60	1224.69
845.77	1335.28
845.94	1236.97
846.10	1249.26
846.27	1239.02
846.44	1265.64
846.61	1294.32
846.78	1267.69
846.95	1288.17
847.12	1191.92
847.29	1232.88
847.46	1249.26
847.63	1232.88
847.80	1288.17
847.97	1271.79
848.14	1255.40
848.31	1210.35
848.48	1212.40
848.65	1263.60
848.82	1261.55
848.98	1275.88
849.15	1341.42
849.32	1214.45
849.49	1298.41
849.66	1236.97
849.83	1220.59
850.00	1247.21
850.17	1253.36
850.34	1210.35
850.51	1253.36
850.68	1247.21
850.85	1165.29
851.01	1282.03
851.18	1251.31
851.35	1249.26
851.52	1288.17
851.69	1290.22
851.86	1304.56
852.03	1302.51
852.20	1265.64
852.37	1370.09
852.53	1273.84
852.70	1222.64
852.87	1271.79
853.04	1271.79
853.21	1271.79
853.38	1181.68
853.55	1298.41
853.72	1210.35
853.89	1255.40
854.05	1263.60
854.22	1249.26
854.39	1267.69
854.56	1247.21
854.73	1239.02
854.90	1226.73
855.07	1306.60
855.23	1355.76
855.40	1206.25
855.57	1267.69
855.74	1275.88
855.91	1239.02
856.08	1234.93
856.25	1355.76
856.41	1277.93
856.58	1245.16
856.75	1290.22
856.92	1198.06
857.09	1232.88
857.26	1212.40
857.42	1302.51
857.59	1271.79
857.76	1230.83
857.93	1294.32
858.10	1284.08
858.27	1216.49
858.43	1204.21
858.60	1327.08
858.77	1251.31
858.94	1308.65
859.11	1241.07
859.27	1239.02
859.44	1259.50
859.61	1255.40
859.78	1288.17
859.95	1304.56
860.12	1253.36
860.28	1239.02
860.45	1236.97
860.62	1312.75
860.79	1243.12
860.95	1275.88
861.12	1265.64
861.29	1304.56
861.46	1304.56
861.63	1269.74
861.79	1263.60
861.96	1282.03
862.13	1216.49
862.30	1327.08
862.47	1261.55
862.63	1220.59
862.80	1298.41
862.97	1265.64
863.14	1300.46
863.30	1204.21
863.47	1189.87
863.64	1294.32
863.81	1247.21
863.97	1279.98
864.14	1282.03
864.31	1253.36
864.48	1193.97
864.65	1253.36
864.81	1265.64
864.98	1267.69
865.15	1224.69
865.32	1247.21
865.48	1273.84
865.65	1284.08
865.82	1320.94
865.98	1322.99
866.15	1306.60
866.32	1222.64
866.49	1259.50
866.65	1224.69
866.82	1249.26
866.99	1220.59
867.16	1292.27
867.32	1263.60
867.49	1179.63
867.66	1277.93
867.83	1226.73
867.99	1318.89
868.16	1239.02
868.33	1220.59
868.49	1206.25
868.66	1200.11
868.83	1292.27
868.99	1247.21
869.16	1279.98
869.33	1286.12
869.50	1286.12
869.66	1224.69
869.83	1298.41
870.00	1282.03
870.16	1249.26
870.33	1298.41
870.50	1316.84
870.66	1271.79
870.83	1269.74
871.00	1224.69
871.17	1275.88
871.33	1218.54
871.50	1228.78
871.67	1183.73
871.83	1232.88
872.00	1239.02
872.17	1320.94
872.33	1302.51
872.50	1224.69
872.67	1322.99
872.83	1187.82
873.00	1243.12
873.17	1306.60
873.33	1249.26
873.50	1245.16
873.67	1263.60
873.83	1245.16
874.00	1290.22
874.16	1239.02
874.33	1290.22
874.50	1304.56
874.66	1249.26
874.83	1310.70
875.00	1351.66
875.16	1191.92
875.33	1286.12
875.50	1275.88
875.66	1224.69
875.83	1333.23
875.99	1251.31
876.16	1329.13
876.33	1269.74
876.49	1331.18
876.66	1288.17
876.83	1224.69
876.99	1288.17
877.16	1247.21
877.32	1243.12
877.49	1273.84
877.66	1284.08
877.82	1273.84
877.99	1236.97
878.15	1212.40
878.32	1187.82
878.49	1208.30
878.65	1284.08
878.82	1312.75
878.98	1284.08
879.15	1298.41
879.32	1290.22
879.48	1339.37
879.65	1228.78
879.81	1259.50
879.98	1327.08
880.15	1265.64
880.31	1245.16
880.48	1314.80
880.64	1224.69
880.81	1247.21
880.97	1257.45
881.14	1288.17
881.31	1275.88
881.47	1275.88
881.64	1198.06
881.80	1273.84
881.97	1296.36
882.13	1300.46
882.30	1306.60
882.47	1290.22
882.63	1234.93
882.80	1222.64
882.96	1210.35
883.13	1220.59
883.29	1255.40
883.46	1239.02
883.62	1214.45
883.79	1282.03
883.95	1339.37
884.12	1343.47
884.29	1196.01
884.45	1294.32
884.62	1273.84
884.78	1300.46
884.95	1265.64
885.11	1271.79
885.28	1304.56
885.44	1269.74
885.61	1302.51
885.77	1271.79
885.94	1253.36
886.10	1257.45
886.27	1249.26
886.43	1255.40
886.60	1271.79
886.76	1265.64
886.93	1239.02
887.09	1155.05
887.26	1267.69
887.42	1249.26
887.59	1224.69
887.75	1310.70
887.92	1253.36
888.08	1282.03
888.25	1243.12
888.41	1253.36
888.58	1349.61
888.74	1257.45
888.91	1306.60
>>>>>End Processed Spectral Data<<<<<
