SpectraSuite Data File
++++++++++++++++++++++++++++++++++++
Date: Sun Apr 03 19:55:38 CEST 2016
User: root
Dark Spectrum Present: No
Reference Spectrum Present: No
Number of Sampled Component Spectra: 1
Spectrometers: USB4C02835
Integration Time (usec): 10000 (USB4C02835)
Spectra Averaged: 1 (USB4C02835)
Boxcar Smoothing: 0 (USB4C02835)
Correct for Electrical Dark: No (USB4C02835)
Strobe/Lamp Enabled: No (USB4C02835)
Correct for Detector Non-linearity: No (USB4C02835)
Correct for Stray Light: No (USB4C02835)
Number of Pixels in Processed Spectrum: 3648
>>>>>Begin Processed Spectral Data<<<<<
177.47	1220.59
177.69	1220.59
177.91	1220.59
178.13	1271.79
178.36	1249.26
178.58	1320.94
178.80	1251.31
179.02	1247.21
179.24	1243.12
179.46	1277.93
179.68	1255.40
179.90	1263.60
180.13	1249.26
180.35	1255.40
180.57	1282.03
180.79	1267.69
181.01	1261.55
181.23	1222.64
181.45	1243.12
181.67	1234.93
181.90	1232.88
182.12	1337.32
182.34	1314.80
182.56	1228.78
182.78	1310.70
183.00	1273.84
183.22	1251.31
183.44	1310.70
183.66	1304.56
183.89	1288.17
184.11	1265.64
184.33	1298.41
184.55	1243.12
184.77	1257.45
184.99	1234.93
185.21	1249.26
185.43	1243.12
185.65	1286.12
185.87	1343.47
186.10	1265.64
186.32	1210.35
186.54	1284.08
186.76	1247.21
186.98	1212.40
187.20	1286.12
187.42	1220.59
187.64	1312.75
187.86	1228.78
188.08	1261.55
188.30	1171.44
188.52	1241.07
188.75	1251.31
188.97	1257.45
189.19	1304.56
189.41	1255.40
189.63	1318.89
189.85	1290.22
190.07	1251.31
190.29	1267.69
190.51	1163.25
190.73	1275.88
190.95	1257.45
191.17	1273.84
191.39	1224.69
191.61	1292.27
191.84	1351.66
192.06	1286.12
192.28	1230.83
192.50	1251.31
192.72	1300.46
192.94	1265.64
193.16	1220.59
193.38	1253.36
193.60	1175.53
193.82	1286.12
194.04	1220.59
194.26	1222.64
194.48	1275.88
194.70	1253.36
194.92	1241.07
195.14	1263.60
195.36	1284.08
195.58	1210.35
195.80	1259.50
196.02	1296.36
196.24	1290.22
196.46	1282.03
196.69	1277.93
196.91	1234.93
197.13	1273.84
197.35	1279.98
197.57	1304.56
197.79	1247.21
198.01	1247.21
198.23	1224.69
198.45	1308.65
198.67	1249.26
198.89	1222.64
199.11	1265.64
199.33	1236.97
199.55	1290.22
199.77	1298.41
199.99	1253.36
200.21	1290.22
200.43	1196.01
200.65	1261.55
200.87	1273.84
201.09	1241.07
201.31	1224.69
201.53	1284.08
201.75	1228.78
201.97	1298.41
202.19	1196.01
202.41	1279.98
202.63	1251.31
202.85	1263.60
203.07	1181.68
203.29	1173.49
203.51	1232.88
203.73	1261.55
203.95	1390.57
204.17	1318.89
204.39	1271.79
204.61	1226.73
204.83	1173.49
205.05	1220.59
205.27	1277.93
205.49	1271.79
205.71	1241.07
205.93	1253.36
206.15	1208.30
206.37	1183.73
206.59	1253.36
206.81	1345.52
207.03	1335.28
207.25	1177.58
207.47	1331.18
207.69	1277.93
207.91	1224.69
208.13	1257.45
208.34	1269.74
208.56	1245.16
208.78	1216.49
209.00	1241.07
209.22	1224.69
209.44	1191.92
209.66	1292.27
209.88	1273.84
210.10	1306.60
210.32	1251.31
210.54	1279.98
210.76	1241.07
210.98	1292.27
211.20	1288.17
211.42	1257.45
211.64	1236.97
211.86	1265.64
212.08	1239.02
212.30	1288.17
212.52	1282.03
212.74	1249.26
212.96	1228.78
213.17	1239.02
213.39	1290.22
213.61	1220.59
213.83	1232.88
214.05	1298.41
214.27	1273.84
214.49	1255.40
214.71	1253.36
214.93	1339.37
215.15	1263.60
215.37	1320.94
215.59	1243.12
215.81	1269.74
216.03	1257.45
216.24	1284.08
216.46	1277.93
216.68	1347.56
216.90	1267.69
217.12	1263.60
217.34	1316.84
217.56	1228.78
217.78	1300.46
218.00	1216.49
218.22	1302.51
218.44	1257.45
218.66	1212.40
218.87	1275.88
219.09	1214.45
219.31	1277.93
219.53	1265.64
219.75	1273.84
219.97	1269.74
220.19	1310.70
220.41	1298.41
220.63	1320.94
220.85	1220.59
221.06	1300.46
221.28	1277.93
221.50	1243.12
221.72	1241.07
221.94	1357.80
222.16	1261.55
222.38	1294.32
222.60	1279.98
222.82	1298.41
223.03	1257.45
223.25	1277.93
223.47	1290.22
223.69	1273.84
223.91	1259.50
224.13	1245.16
224.35	1212.40
224.57	1296.36
224.78	1316.84
225.00	1273.84
225.22	1298.41
225.44	1292.27
225.66	1191.92
225.88	1257.45
226.10	1277.93
226.32	1292.27
226.53	1259.50
226.75	1224.69
226.97	1296.36
227.19	1265.64
227.41	1236.97
227.63	1259.50
227.85	1298.41
228.06	1220.59
228.28	1273.84
228.50	1290.22
228.72	1257.45
228.94	1241.07
229.16	1288.17
229.37	1284.08
229.59	1241.07
229.81	1263.60
230.03	1267.69
230.25	1296.36
230.47	1300.46
230.69	1214.45
230.90	1282.03
231.12	1339.37
231.34	1212.40
231.56	1288.17
231.78	1210.35
232.00	1300.46
232.21	1220.59
232.43	1292.27
232.65	1304.56
232.87	1269.74
233.09	1263.60
233.30	1308.65
233.52	1284.08
233.74	1277.93
233.96	1294.32
234.18	1306.60
234.40	1277.93
234.61	1224.69
234.83	1257.45
235.05	1185.77
235.27	1224.69
235.49	1337.32
235.70	1257.45
235.92	1300.46
236.14	1310.70
236.36	1259.50
236.58	1302.51
236.79	1247.21
237.01	1247.21
237.23	1273.84
237.45	1251.31
237.67	1269.74
237.88	1343.47
238.10	1325.04
238.32	1167.34
238.54	1249.26
238.76	1228.78
238.97	1279.98
239.19	1226.73
239.41	1284.08
239.63	1249.26
239.85	1202.16
240.06	1325.04
240.28	1282.03
240.50	1267.69
240.72	1396.71
240.93	1286.12
241.15	1279.98
241.37	1214.45
241.59	1224.69
241.81	1216.49
242.02	1253.36
242.24	1257.45
242.46	1232.88
242.68	1259.50
242.89	1273.84
243.11	1167.34
243.33	1298.41
243.55	1241.07
243.76	1282.03
243.98	1212.40
244.20	1314.80
244.42	1214.45
244.64	1245.16
244.85	1284.08
245.07	1273.84
245.29	1376.24
245.51	1218.54
245.72	1320.94
245.94	1298.41
246.16	1310.70
246.38	1269.74
246.59	1214.45
246.81	1273.84
247.03	1325.04
247.24	1247.21
247.46	1318.89
247.68	1241.07
247.90	1261.55
248.11	1296.36
248.33	1259.50
248.55	1226.73
248.77	1230.83
248.98	1327.08
249.20	1257.45
249.42	1290.22
249.64	1273.84
249.85	1298.41
250.07	1245.16
250.29	1312.75
250.50	1273.84
250.72	1343.47
250.94	1216.49
251.16	1239.02
251.37	1263.60
251.59	1202.16
251.81	1265.64
252.02	1222.64
252.24	1249.26
252.46	1257.45
252.68	1271.79
252.89	1247.21
253.11	1243.12
253.33	1265.64
253.54	1239.02
253.76	1251.31
253.98	1290.22
254.20	1292.27
254.41	1335.28
254.63	1261.55
254.85	1302.51
255.06	1275.88
255.28	1343.47
255.50	1228.78
255.71	1210.35
255.93	1290.22
256.15	1263.60
256.36	1347.56
256.58	1228.78
256.80	1253.36
257.02	1296.36
257.23	1290.22
257.45	1331.18
257.67	1298.41
257.88	1214.45
258.10	1224.69
258.32	1298.41
258.53	1269.74
258.75	1222.64
258.97	1247.21
259.18	1271.79
259.40	1361.90
259.62	1267.69
259.83	1292.27
260.05	1286.12
260.27	1277.93
260.48	1298.41
260.70	1284.08
260.92	1210.35
261.13	1208.30
261.35	1214.45
261.57	1269.74
261.78	1314.80
262.00	1263.60
262.22	1267.69
262.43	1251.31
262.65	1277.93
262.86	1279.98
263.08	1279.98
263.30	1193.97
263.51	1245.16
263.73	1239.02
263.95	1202.16
264.16	1265.64
264.38	1251.31
264.60	1314.80
264.81	1265.64
265.03	1284.08
265.25	1261.55
265.46	1366.00
265.68	1277.93
265.89	1296.36
266.11	1239.02
266.33	1236.97
266.54	1271.79
266.76	1239.02
266.98	1302.51
267.19	1267.69
267.41	1292.27
267.62	1261.55
267.84	1290.22
268.06	1261.55
268.27	1298.41
268.49	1271.79
268.70	1259.50
268.92	1257.45
269.14	1298.41
269.35	1304.56
269.57	1275.88
269.79	1255.40
270.00	1290.22
270.22	1322.99
270.43	1308.65
270.65	1277.93
270.87	1193.97
271.08	1210.35
271.30	1249.26
271.51	1282.03
271.73	1214.45
271.95	1312.75
272.16	1245.16
272.38	1298.41
272.59	1253.36
272.81	1255.40
273.02	1314.80
273.24	1259.50
273.46	1310.70
273.67	1247.21
273.89	1286.12
274.10	1263.60
274.32	1263.60
274.54	1236.97
274.75	1210.35
274.97	1255.40
275.18	1298.41
275.40	1282.03
275.61	1312.75
275.83	1286.12
276.05	1279.98
276.26	1300.46
276.48	1249.26
276.69	1263.60
276.91	1322.99
277.12	1302.51
277.34	1300.46
277.55	1257.45
277.77	1255.40
277.99	1261.55
278.20	1308.65
278.42	1261.55
278.63	1253.36
278.85	1269.74
279.06	1212.40
279.28	1200.11
279.49	1275.88
279.71	1255.40
279.93	1257.45
280.14	1206.25
280.36	1300.46
280.57	1249.26
280.79	1275.88
281.00	1279.98
281.22	1265.64
281.43	1290.22
281.65	1236.97
281.86	1304.56
282.08	1212.40
282.29	1226.73
282.51	1279.98
282.73	1269.74
282.94	1370.09
283.16	1286.12
283.37	1284.08
283.59	1159.15
283.80	1308.65
284.02	1294.32
284.23	1245.16
284.45	1322.99
284.66	1220.59
284.88	1312.75
285.09	1335.28
285.31	1312.75
285.52	1327.08
285.74	1271.79
285.95	1308.65
286.17	1204.21
286.38	1228.78
286.60	1247.21
286.81	1265.64
287.03	1255.40
287.24	1208.30
287.46	1347.56
287.67	1273.84
287.89	1269.74
288.10	1247.21
288.32	1286.12
288.53	1271.79
288.75	1267.69
288.96	1257.45
289.18	1241.07
289.39	1329.13
289.61	1196.01
289.82	1210.35
290.04	1308.65
290.25	1255.40
290.47	1314.80
290.68	1269.74
290.90	1300.46
291.11	1273.84
291.33	1249.26
291.54	1198.06
291.76	1302.51
291.97	1236.97
292.18	1284.08
292.40	1271.79
292.61	1275.88
292.83	1347.56
293.04	1236.97
293.26	1277.93
293.47	1239.02
293.69	1290.22
293.90	1173.49
294.12	1331.18
294.33	1249.26
294.55	1265.64
294.76	1314.80
294.97	1290.22
295.19	1288.17
295.40	1279.98
295.62	1304.56
295.83	1191.92
296.05	1296.36
296.26	1271.79
296.48	1271.79
296.69	1271.79
296.90	1275.88
297.12	1282.03
297.33	1282.03
297.55	1255.40
297.76	1243.12
297.98	1224.69
298.19	1255.40
298.41	1255.40
298.62	1318.89
298.83	1318.89
299.05	1230.83
299.26	1257.45
299.48	1206.25
299.69	1286.12
299.90	1234.93
300.12	1243.12
300.33	1339.37
300.55	1322.99
300.76	1212.40
300.98	1236.97
301.19	1288.17
301.40	1267.69
301.62	1224.69
301.83	1234.93
302.05	1318.89
302.26	1290.22
302.47	1157.10
302.69	1208.30
302.90	1253.36
303.12	1183.73
303.33	1273.84
303.54	1241.07
303.76	1302.51
303.97	1308.65
304.19	1251.31
304.40	1247.21
304.61	1322.99
304.83	1284.08
305.04	1275.88
305.26	1298.41
305.47	1239.02
305.68	1347.56
305.90	1196.01
306.11	1261.55
306.33	1277.93
306.54	1251.31
306.75	1236.97
306.97	1279.98
307.18	1271.79
307.39	1279.98
307.61	1284.08
307.82	1220.59
308.04	1212.40
308.25	1249.26
308.46	1275.88
308.68	1320.94
308.89	1241.07
309.10	1302.51
309.32	1251.31
309.53	1275.88
309.74	1290.22
309.96	1298.41
310.17	1325.04
310.39	1269.74
310.60	1322.99
310.81	1271.79
311.03	1282.03
311.24	1282.03
311.45	1263.60
311.67	1247.21
311.88	1232.88
312.09	1234.93
312.31	1282.03
312.52	1282.03
312.73	1247.21
312.95	1251.31
313.16	1296.36
313.37	1273.84
313.59	1198.06
313.80	1310.70
314.01	1267.69
314.23	1224.69
314.44	1228.78
314.65	1296.36
314.87	1318.89
315.08	1286.12
315.29	1343.47
315.51	1241.07
315.72	1208.30
315.93	1300.46
316.15	1259.50
316.36	1355.76
316.57	1271.79
316.79	1304.56
317.00	1249.26
317.21	1271.79
317.43	1290.22
317.64	1282.03
317.85	1267.69
318.07	1247.21
318.28	1314.80
318.49	1247.21
318.70	1271.79
318.92	1204.21
319.13	1232.88
319.34	1239.02
319.56	1222.64
319.77	1273.84
319.98	1294.32
320.20	1208.30
320.41	1282.03
320.62	1249.26
320.83	1294.32
321.05	1267.69
321.26	1275.88
321.47	1265.64
321.69	1273.84
321.90	1263.60
322.11	1353.71
322.32	1275.88
322.54	1245.16
322.75	1220.59
322.96	1316.84
323.18	1253.36
323.39	1214.45
323.60	1277.93
323.81	1249.26
324.03	1265.64
324.24	1263.60
324.45	1228.78
324.66	1259.50
324.88	1228.78
325.09	1245.16
325.30	1247.21
325.52	1241.07
325.73	1228.78
325.94	1261.55
326.15	1273.84
326.37	1245.16
326.58	1267.69
326.79	1302.51
327.00	1271.79
327.22	1304.56
327.43	1257.45
327.64	1292.27
327.85	1284.08
328.07	1284.08
328.28	1251.31
328.49	1249.26
328.70	1232.88
328.92	1290.22
329.13	1234.93
329.34	1300.46
329.55	1290.22
329.76	1226.73
329.98	1290.22
330.19	1282.03
330.40	1245.16
330.61	1239.02
330.83	1255.40
331.04	1257.45
331.25	1226.73
331.46	1271.79
331.68	1253.36
331.89	1239.02
332.10	1208.30
332.31	1265.64
332.52	1243.12
332.74	1222.64
332.95	1243.12
333.16	1279.98
333.37	1269.74
333.58	1286.12
333.80	1316.84
334.01	1259.50
334.22	1267.69
334.43	1253.36
334.64	1245.16
334.86	1261.55
335.07	1261.55
335.28	1224.69
335.49	1216.49
335.70	1308.65
335.92	1239.02
336.13	1310.70
336.34	1222.64
336.55	1249.26
336.76	1322.99
336.98	1290.22
337.19	1288.17
337.40	1288.17
337.61	1273.84
337.82	1271.79
338.04	1269.74
338.25	1282.03
338.46	1271.79
338.67	1236.97
338.88	1275.88
339.09	1261.55
339.31	1273.84
339.52	1245.16
339.73	1284.08
339.94	1226.73
340.15	1218.54
340.36	1263.60
340.58	1273.84
340.79	1187.82
341.00	1245.16
341.21	1339.37
341.42	1306.60
341.63	1236.97
341.85	1290.22
342.06	1247.21
342.27	1208.30
342.48	1212.40
342.69	1224.69
342.90	1218.54
343.12	1253.36
343.33	1259.50
343.54	1304.56
343.75	1247.21
343.96	1265.64
344.17	1310.70
344.38	1273.84
344.60	1232.88
344.81	1306.60
345.02	1214.45
345.23	1216.49
345.44	1236.97
345.65	1275.88
345.86	1277.93
346.07	1243.12
346.29	1265.64
346.50	1239.02
346.71	1292.27
346.92	1286.12
347.13	1277.93
347.34	1253.36
347.55	1304.56
347.76	1345.52
347.98	1228.78
348.19	1249.26
348.40	1288.17
348.61	1236.97
348.82	1284.08
349.03	1310.70
349.24	1302.51
349.45	1249.26
349.66	1271.79
349.88	1226.73
350.09	1255.40
350.30	1261.55
350.51	1294.32
350.72	1259.50
350.93	1234.93
351.14	1255.40
351.35	1232.88
351.56	1218.54
351.77	1310.70
351.99	1318.89
352.20	1214.45
352.41	1310.70
352.62	1267.69
352.83	1255.40
353.04	1329.13
353.25	1298.41
353.46	1302.51
353.67	1312.75
353.88	1263.60
354.09	1243.12
354.30	1314.80
354.52	1345.52
354.73	1245.16
354.94	1290.22
355.15	1234.93
355.36	1327.08
355.57	1304.56
355.78	1255.40
355.99	1243.12
356.20	1193.97
356.41	1273.84
356.62	1277.93
356.83	1296.36
357.04	1265.64
357.25	1347.56
357.46	1232.88
357.68	1267.69
357.89	1298.41
358.10	1220.59
358.31	1269.74
358.52	1214.45
358.73	1269.74
358.94	1257.45
359.15	1345.52
359.36	1294.32
359.57	1304.56
359.78	1269.74
359.99	1322.99
360.20	1282.03
360.41	1294.32
360.62	1234.93
360.83	1314.80
361.04	1312.75
361.25	1277.93
361.46	1259.50
361.67	1228.78
361.88	1294.32
362.09	1310.70
362.30	1339.37
362.51	1241.07
362.72	1300.46
362.93	1202.16
363.14	1249.26
363.35	1232.88
363.56	1228.78
363.78	1179.63
363.99	1251.31
364.20	1284.08
364.41	1298.41
364.62	1312.75
364.83	1212.40
365.04	1216.49
365.25	1290.22
365.46	1263.60
365.67	1267.69
365.88	1239.02
366.09	1318.89
366.30	1273.84
366.51	1208.30
366.72	1318.89
366.93	1204.21
367.14	1327.08
367.35	1249.26
367.56	1310.70
367.77	1230.83
367.98	1339.37
368.18	1282.03
368.39	1210.35
368.60	1337.32
368.81	1288.17
369.02	1228.78
369.23	1337.32
369.44	1282.03
369.65	1261.55
369.86	1282.03
370.07	1310.70
370.28	1204.21
370.49	1320.94
370.70	1253.36
370.91	1218.54
371.12	1245.16
371.33	1288.17
371.54	1398.76
371.75	1214.45
371.96	1255.40
372.17	1224.69
372.38	1216.49
372.59	1302.51
372.80	1288.17
373.01	1228.78
373.22	1249.26
373.43	1320.94
373.64	1267.69
373.85	1232.88
374.06	1222.64
374.26	1251.31
374.47	1290.22
374.68	1275.88
374.89	1284.08
375.10	1241.07
375.31	1345.52
375.52	1247.21
375.73	1277.93
375.94	1206.25
376.15	1331.18
376.36	1368.04
376.57	1249.26
376.78	1216.49
376.99	1245.16
377.20	1245.16
377.40	1243.12
377.61	1282.03
377.82	1286.12
378.03	1257.45
378.24	1251.31
378.45	1245.16
378.66	1282.03
378.87	1196.01
379.08	1277.93
379.29	1259.50
379.50	1316.84
379.71	1275.88
379.91	1259.50
380.12	1259.50
380.33	1267.69
380.54	1296.36
380.75	1308.65
380.96	1218.54
381.17	1236.97
381.38	1288.17
381.59	1222.64
381.80	1286.12
382.00	1279.98
382.21	1265.64
382.42	1239.02
382.63	1224.69
382.84	1376.24
383.05	1257.45
383.26	1226.73
383.47	1310.70
383.68	1308.65
383.88	1265.64
384.09	1290.22
384.30	1279.98
384.51	1241.07
384.72	1245.16
384.93	1239.02
385.14	1327.08
385.35	1282.03
385.55	1214.45
385.76	1193.97
385.97	1239.02
386.18	1277.93
386.39	1216.49
386.60	1230.83
386.81	1228.78
387.02	1261.55
387.22	1253.36
387.43	1286.12
387.64	1361.90
387.85	1265.64
388.06	1294.32
388.27	1279.98
388.48	1322.99
388.68	1216.49
388.89	1247.21
389.10	1257.45
389.31	1298.41
389.52	1220.59
389.73	1339.37
389.93	1314.80
390.14	1267.69
390.35	1261.55
390.56	1253.36
390.77	1333.23
390.98	1292.27
391.18	1226.73
391.39	1198.06
391.60	1308.65
391.81	1253.36
392.02	1243.12
392.23	1265.64
392.43	1220.59
392.64	1257.45
392.85	1273.84
393.06	1296.36
393.27	1208.30
393.47	1306.60
393.68	1380.33
393.89	1325.04
394.10	1193.97
394.31	1294.32
394.52	1273.84
394.72	1224.69
394.93	1265.64
395.14	1271.79
395.35	1288.17
395.56	1335.28
395.76	1306.60
395.97	1263.60
396.18	1304.56
396.39	1255.40
396.60	1296.36
396.80	1331.18
397.01	1265.64
397.22	1275.88
397.43	1290.22
397.64	1271.79
397.84	1265.64
398.05	1212.40
398.26	1267.69
398.47	1298.41
398.67	1361.90
398.88	1298.41
399.09	1282.03
399.30	1275.88
399.51	1255.40
399.71	1257.45
399.92	1271.79
400.13	1241.07
400.34	1304.56
400.54	1351.66
400.75	1257.45
400.96	1239.02
401.17	1249.26
401.37	1224.69
401.58	1284.08
401.79	1230.83
402.00	1206.25
402.21	1271.79
402.41	1277.93
402.62	1314.80
402.83	1282.03
403.04	1267.69
403.24	1279.98
403.45	1290.22
403.66	1335.28
403.87	1331.18
404.07	1261.55
404.28	1245.16
404.49	1271.79
404.70	1228.78
404.90	1245.16
405.11	1245.16
405.32	1277.93
405.52	1226.73
405.73	1288.17
405.94	1224.69
406.15	1343.47
406.35	1249.26
406.56	1345.52
406.77	1249.26
406.98	1273.84
407.18	1327.08
407.39	1284.08
407.60	1243.12
407.80	1251.31
408.01	1249.26
408.22	1191.92
408.43	1236.97
408.63	1292.27
408.84	1286.12
409.05	1288.17
409.25	1269.74
409.46	1322.99
409.67	1159.15
409.88	1245.16
410.08	1292.27
410.29	1212.40
410.50	1241.07
410.70	1273.84
410.91	1320.94
411.12	1253.36
411.32	1202.16
411.53	1259.50
411.74	1341.42
411.95	1312.75
412.15	1257.45
412.36	1196.01
412.57	1210.35
412.77	1269.74
412.98	1310.70
413.19	1306.60
413.39	1282.03
413.60	1271.79
413.81	1249.26
414.01	1255.40
414.22	1249.26
414.43	1271.79
414.63	1329.13
414.84	1275.88
415.05	1220.59
415.25	1279.98
415.46	1257.45
415.67	1214.45
415.87	1372.14
416.08	1339.37
416.29	1200.11
416.49	1239.02
416.70	1241.07
416.91	1269.74
417.11	1267.69
417.32	1236.97
417.53	1200.11
417.73	1247.21
417.94	1277.93
418.15	1257.45
418.35	1263.60
418.56	1261.55
418.77	1239.02
418.97	1191.92
419.18	1226.73
419.38	1302.51
419.59	1142.77
419.80	1351.66
420.00	1269.74
420.21	1259.50
420.42	1304.56
420.62	1208.30
420.83	1232.88
421.04	1320.94
421.24	1273.84
421.45	1296.36
421.65	1255.40
421.86	1298.41
422.07	1290.22
422.27	1257.45
422.48	1222.64
422.69	1294.32
422.89	1284.08
423.10	1218.54
423.30	1228.78
423.51	1282.03
423.72	1314.80
423.92	1251.31
424.13	1251.31
424.33	1312.75
424.54	1263.60
424.75	1353.71
424.95	1226.73
425.16	1290.22
425.36	1343.47
425.57	1290.22
425.78	1288.17
425.98	1277.93
426.19	1249.26
426.39	1288.17
426.60	1236.97
426.81	1191.92
427.01	1150.96
427.22	1255.40
427.42	1247.21
427.63	1306.60
427.83	1220.59
428.04	1261.55
428.25	1337.32
428.45	1279.98
428.66	1275.88
428.86	1275.88
429.07	1286.12
429.28	1284.08
429.48	1263.60
429.69	1216.49
429.89	1286.12
430.10	1337.32
430.30	1339.37
430.51	1253.36
430.71	1335.28
430.92	1300.46
431.13	1302.51
431.33	1341.42
431.54	1226.73
431.74	1236.97
431.95	1265.64
432.15	1277.93
432.36	1290.22
432.56	1284.08
432.77	1269.74
432.98	1306.60
433.18	1251.31
433.39	1249.26
433.59	1253.36
433.80	1316.84
434.00	1296.36
434.21	1269.74
434.41	1208.30
434.62	1271.79
434.82	1218.54
435.03	1298.41
435.23	1318.89
435.44	1269.74
435.64	1249.26
435.85	1329.13
436.06	1271.79
436.26	1325.04
436.47	1232.88
436.67	1200.11
436.88	1316.84
437.08	1279.98
437.29	1327.08
437.49	1279.98
437.70	1271.79
437.90	1212.40
438.11	1273.84
438.31	1347.56
438.52	1228.78
438.72	1222.64
438.93	1279.98
439.13	1314.80
439.34	1314.80
439.54	1310.70
439.75	1224.69
439.95	1296.36
440.16	1286.12
440.36	1193.97
440.57	1236.97
440.77	1318.89
440.98	1183.73
441.18	1275.88
441.39	1277.93
441.59	1282.03
441.80	1302.51
442.00	1279.98
442.21	1261.55
442.41	1257.45
442.62	1339.37
442.82	1273.84
443.02	1277.93
443.23	1216.49
443.43	1322.99
443.64	1290.22
443.84	1222.64
444.05	1282.03
444.25	1288.17
444.46	1216.49
444.66	1310.70
444.87	1308.65
445.07	1312.75
445.28	1251.31
445.48	1241.07
445.69	1259.50
445.89	1193.97
446.09	1308.65
446.30	1273.84
446.50	1282.03
446.71	1343.47
446.91	1269.74
447.12	1224.69
447.32	1308.65
447.53	1282.03
447.73	1306.60
447.93	1202.16
448.14	1318.89
448.34	1273.84
448.55	1253.36
448.75	1241.07
448.96	1310.70
449.16	1196.01
449.36	1290.22
449.57	1282.03
449.77	1239.02
449.98	1282.03
450.18	1232.88
450.39	1208.30
450.59	1288.17
450.79	1267.69
451.00	1308.65
451.20	1298.41
451.41	1298.41
451.61	1294.32
451.81	1286.12
452.02	1322.99
452.22	1304.56
452.43	1284.08
452.63	1226.73
452.84	1257.45
453.04	1271.79
453.24	1263.60
453.45	1286.12
453.65	1304.56
453.86	1191.92
454.06	1296.36
454.26	1212.40
454.47	1320.94
454.67	1255.40
454.87	1275.88
455.08	1271.79
455.28	1269.74
455.49	1279.98
455.69	1308.65
455.89	1279.98
456.10	1294.32
456.30	1267.69
456.51	1273.84
456.71	1296.36
456.91	1339.37
457.12	1220.59
457.32	1308.65
457.52	1282.03
457.73	1226.73
457.93	1284.08
458.14	1279.98
458.34	1394.67
458.54	1249.26
458.75	1267.69
458.95	1241.07
459.15	1286.12
459.36	1312.75
459.56	1267.69
459.76	1288.17
459.97	1288.17
460.17	1286.12
460.37	1269.74
460.58	1251.31
460.78	1306.60
460.99	1271.79
461.19	1279.98
461.39	1296.36
461.60	1298.41
461.80	1351.66
462.00	1329.13
462.21	1353.71
462.41	1247.21
462.61	1325.04
462.82	1220.59
463.02	1286.12
463.22	1241.07
463.43	1292.27
463.63	1234.93
463.83	1249.26
464.04	1234.93
464.24	1218.54
464.44	1267.69
464.64	1277.93
464.85	1234.93
465.05	1271.79
465.25	1208.30
465.46	1253.36
465.66	1288.17
465.86	1310.70
466.07	1269.74
466.27	1239.02
466.47	1269.74
466.68	1245.16
466.88	1220.59
467.08	1331.18
467.29	1284.08
467.49	1251.31
467.69	1310.70
467.89	1273.84
468.10	1275.88
468.30	1269.74
468.50	1292.27
468.71	1243.12
468.91	1218.54
469.11	1304.56
469.31	1282.03
469.52	1265.64
469.72	1255.40
469.92	1273.84
470.13	1308.65
470.33	1275.88
470.53	1265.64
470.73	1275.88
470.94	1249.26
471.14	1239.02
471.34	1267.69
471.54	1339.37
471.75	1322.99
471.95	1249.26
472.15	1286.12
472.36	1261.55
472.56	1279.98
472.76	1241.07
472.96	1239.02
473.17	1263.60
473.37	1257.45
473.57	1331.18
473.77	1275.88
473.98	1241.07
474.18	1314.80
474.38	1259.50
474.58	1251.31
474.79	1308.65
474.99	1325.04
475.19	1277.93
475.39	1327.08
475.60	1355.76
475.80	1265.64
476.00	1249.26
476.20	1247.21
476.41	1304.56
476.61	1241.07
476.81	1320.94
477.01	1234.93
477.21	1241.07
477.42	1261.55
477.62	1236.97
477.82	1263.60
478.02	1247.21
478.23	1187.82
478.43	1267.69
478.63	1273.84
478.83	1222.64
479.03	1259.50
479.24	1296.36
479.44	1261.55
479.64	1261.55
479.84	1261.55
480.04	1286.12
480.25	1247.21
480.45	1286.12
480.65	1232.88
480.85	1275.88
481.06	1286.12
481.26	1239.02
481.46	1277.93
481.66	1265.64
481.86	1368.04
482.06	1228.78
482.27	1288.17
482.47	1314.80
482.67	1286.12
482.87	1282.03
483.07	1318.89
483.28	1187.82
483.48	1269.74
483.68	1208.30
483.88	1288.17
484.08	1284.08
484.29	1298.41
484.49	1261.55
484.69	1265.64
484.89	1251.31
485.09	1292.27
485.29	1308.65
485.50	1294.32
485.70	1277.93
485.90	1292.27
486.10	1232.88
486.30	1224.69
486.50	1286.12
486.71	1282.03
486.91	1234.93
487.11	1236.97
487.31	1253.36
487.51	1314.80
487.71	1288.17
487.91	1265.64
488.12	1232.88
488.32	1265.64
488.52	1302.51
488.72	1241.07
488.92	1275.88
489.12	1249.26
489.32	1257.45
489.53	1382.38
489.73	1208.30
489.93	1288.17
490.13	1300.46
490.33	1294.32
490.53	1271.79
490.73	1251.31
490.94	1296.36
491.14	1228.78
491.34	1327.08
491.54	1259.50
491.74	1370.09
491.94	1312.75
492.14	1191.92
492.34	1249.26
492.54	1282.03
492.75	1345.52
492.95	1239.02
493.15	1312.75
493.35	1327.08
493.55	1286.12
493.75	1288.17
493.95	1259.50
494.15	1286.12
494.35	1239.02
494.56	1351.66
494.76	1212.40
494.96	1255.40
495.16	1282.03
495.36	1284.08
495.56	1282.03
495.76	1179.63
495.96	1288.17
496.16	1349.61
496.36	1300.46
496.56	1273.84
496.77	1210.35
496.97	1269.74
497.17	1279.98
497.37	1298.41
497.57	1271.79
497.77	1292.27
497.97	1208.30
498.17	1279.98
498.37	1288.17
498.57	1288.17
498.77	1310.70
498.97	1224.69
499.17	1310.70
499.38	1271.79
499.58	1222.64
499.78	1288.17
499.98	1306.60
500.18	1325.04
500.38	1277.93
500.58	1265.64
500.78	1316.84
500.98	1284.08
501.18	1179.63
501.38	1318.89
501.58	1271.79
501.78	1245.16
501.98	1273.84
502.18	1302.51
502.38	1282.03
502.58	1271.79
502.78	1249.26
502.98	1271.79
503.18	1236.97
503.38	1193.97
503.59	1247.21
503.79	1327.08
503.99	1308.65
504.19	1210.35
504.39	1230.83
504.59	1232.88
504.79	1298.41
504.99	1257.45
505.19	1331.18
505.39	1251.31
505.59	1310.70
505.79	1241.07
505.99	1366.00
506.19	1243.12
506.39	1308.65
506.59	1239.02
506.79	1257.45
506.99	1343.47
507.19	1288.17
507.39	1269.74
507.59	1208.30
507.79	1261.55
507.99	1347.56
508.19	1304.56
508.39	1234.93
508.59	1239.02
508.79	1370.09
508.99	1302.51
509.19	1255.40
509.39	1277.93
509.59	1300.46
509.79	1265.64
509.99	1349.61
510.19	1333.23
510.39	1267.69
510.59	1286.12
510.79	1271.79
510.99	1267.69
511.19	1263.60
511.39	1329.13
511.59	1345.52
511.79	1269.74
511.99	1257.45
512.19	1302.51
512.38	1357.80
512.58	1312.75
512.78	1245.16
512.98	1279.98
513.18	1302.51
513.38	1284.08
513.58	1226.73
513.78	1253.36
513.98	1304.56
514.18	1298.41
514.38	1302.51
514.58	1216.49
514.78	1355.76
514.98	1296.36
515.18	1226.73
515.38	1286.12
515.58	1304.56
515.78	1294.32
515.98	1296.36
516.18	1286.12
516.38	1253.36
516.57	1196.01
516.77	1294.32
516.97	1366.00
517.17	1304.56
517.37	1275.88
517.57	1236.97
517.77	1273.84
517.97	1232.88
518.17	1318.89
518.37	1275.88
518.57	1300.46
518.77	1265.64
518.97	1271.79
519.16	1273.84
519.36	1245.16
519.56	1298.41
519.76	1292.27
519.96	1277.93
520.16	1273.84
520.36	1288.17
520.56	1257.45
520.76	1314.80
520.96	1288.17
521.16	1304.56
521.35	1273.84
521.55	1251.31
521.75	1234.93
521.95	1196.01
522.15	1302.51
522.35	1292.27
522.55	1224.69
522.75	1396.71
522.95	1277.93
523.14	1279.98
523.34	1230.83
523.54	1232.88
523.74	1257.45
523.94	1247.21
524.14	1353.71
524.34	1282.03
524.54	1322.99
524.73	1257.45
524.93	1230.83
525.13	1316.84
525.33	1318.89
525.53	1335.28
525.73	1314.80
525.93	1298.41
526.13	1331.18
526.32	1273.84
526.52	1224.69
526.72	1290.22
526.92	1304.56
527.12	1282.03
527.32	1255.40
527.52	1236.97
527.71	1271.79
527.91	1267.69
528.11	1259.50
528.31	1265.64
528.51	1304.56
528.71	1347.56
528.90	1320.94
529.10	1271.79
529.30	1363.95
529.50	1214.45
529.70	1329.13
529.90	1314.80
530.09	1261.55
530.29	1282.03
530.49	1327.08
530.69	1343.47
530.89	1267.69
531.09	1271.79
531.28	1308.65
531.48	1318.89
531.68	1318.89
531.88	1239.02
532.08	1286.12
532.28	1322.99
532.47	1257.45
532.67	1284.08
532.87	1230.83
533.07	1343.47
533.27	1318.89
533.46	1314.80
533.66	1255.40
533.86	1282.03
534.06	1341.42
534.26	1232.88
534.45	1228.78
534.65	1335.28
534.85	1261.55
535.05	1282.03
535.25	1200.11
535.44	1273.84
535.64	1288.17
535.84	1290.22
536.04	1265.64
536.24	1277.93
536.43	1167.34
536.63	1304.56
536.83	1296.36
537.03	1304.56
537.22	1263.60
537.42	1325.04
537.62	1304.56
537.82	1306.60
538.02	1347.56
538.21	1333.23
538.41	1275.88
538.61	1236.97
538.81	1255.40
539.00	1200.11
539.20	1208.30
539.40	1325.04
539.60	1277.93
539.79	1269.74
539.99	1300.46
540.19	1241.07
540.39	1282.03
540.58	1282.03
540.78	1263.60
540.98	1306.60
541.18	1298.41
541.37	1302.51
541.57	1232.88
541.77	1304.56
541.97	1253.36
542.16	1286.12
542.36	1245.16
542.56	1318.89
542.76	1372.14
542.95	1232.88
543.15	1335.28
543.35	1296.36
543.54	1296.36
543.74	1325.04
543.94	1267.69
544.14	1247.21
544.33	1320.94
544.53	1298.41
544.73	1257.45
544.93	1226.73
545.12	1269.74
545.32	1325.04
545.52	1204.21
545.71	1255.40
545.91	1306.60
546.11	1261.55
546.30	1234.93
546.50	1298.41
546.70	1230.83
546.90	1290.22
547.09	1284.08
547.29	1265.64
547.49	1284.08
547.68	1345.52
547.88	1284.08
548.08	1265.64
548.27	1404.91
548.47	1282.03
548.67	1378.28
548.87	1298.41
549.06	1251.31
549.26	1300.46
549.46	1208.30
549.65	1261.55
549.85	1290.22
550.05	1206.25
550.24	1261.55
550.44	1265.64
550.64	1273.84
550.83	1255.40
551.03	1251.31
551.23	1304.56
551.42	1257.45
551.62	1292.27
551.82	1269.74
552.01	1279.98
552.21	1251.31
552.41	1286.12
552.60	1304.56
552.80	1271.79
553.00	1327.08
553.19	1306.60
553.39	1259.50
553.59	1226.73
553.78	1273.84
553.98	1277.93
554.17	1224.69
554.37	1239.02
554.57	1300.46
554.76	1282.03
554.96	1357.80
555.16	1257.45
555.35	1296.36
555.55	1261.55
555.75	1259.50
555.94	1339.37
556.14	1177.58
556.33	1286.12
556.53	1329.13
556.73	1347.56
556.92	1286.12
557.12	1232.88
557.32	1298.41
557.51	1261.55
557.71	1224.69
557.90	1267.69
558.10	1300.46
558.30	1331.18
558.49	1286.12
558.69	1288.17
558.88	1310.70
559.08	1202.16
559.28	1275.88
559.47	1298.41
559.67	1306.60
559.86	1290.22
560.06	1224.69
560.26	1277.93
560.45	1302.51
560.65	1277.93
560.84	1335.28
561.04	1300.46
561.24	1320.94
561.43	1255.40
561.63	1249.26
561.82	1241.07
562.02	1343.47
562.22	1265.64
562.41	1275.88
562.61	1292.27
562.80	1247.21
563.00	1304.56
563.19	1320.94
563.39	1353.71
563.59	1277.93
563.78	1302.51
563.98	1210.35
564.17	1298.41
564.37	1335.28
564.56	1288.17
564.76	1263.60
564.96	1267.69
565.15	1232.88
565.35	1351.66
565.54	1314.80
565.74	1306.60
565.93	1232.88
566.13	1263.60
566.32	1337.32
566.52	1388.52
566.71	1294.32
566.91	1286.12
567.11	1253.36
567.30	1253.36
567.50	1337.32
567.69	1249.26
567.89	1320.94
568.08	1239.02
568.28	1341.42
568.47	1282.03
568.67	1277.93
568.86	1230.83
569.06	1255.40
569.25	1261.55
569.45	1212.40
569.64	1296.36
569.84	1413.10
570.04	1288.17
570.23	1322.99
570.43	1316.84
570.62	1279.98
570.82	1277.93
571.01	1271.79
571.21	1265.64
571.40	1267.69
571.60	1171.44
571.79	1320.94
571.99	1277.93
572.18	1318.89
572.38	1345.52
572.57	1269.74
572.77	1255.40
572.96	1290.22
573.16	1300.46
573.35	1279.98
573.55	1236.97
573.74	1269.74
573.94	1306.60
574.13	1251.31
574.33	1333.23
574.52	1325.04
574.71	1312.75
574.91	1292.27
575.10	1257.45
575.30	1298.41
575.49	1306.60
575.69	1284.08
575.88	1282.03
576.08	1284.08
576.27	1224.69
576.47	1273.84
576.66	1312.75
576.86	1353.71
577.05	1249.26
577.25	1304.56
577.44	1216.49
577.64	1320.94
577.83	1263.60
578.02	1269.74
578.22	1277.93
578.41	1214.45
578.61	1374.19
578.80	1290.22
579.00	1269.74
579.19	1275.88
579.39	1296.36
579.58	1357.80
579.77	1310.70
579.97	1228.78
580.16	1312.75
580.36	1290.22
580.55	1298.41
580.75	1333.23
580.94	1286.12
581.13	1253.36
581.33	1286.12
581.52	1243.12
581.72	1275.88
581.91	1322.99
582.11	1114.10
582.30	1318.89
582.49	1216.49
582.69	1298.41
582.88	1380.33
583.08	1247.21
583.27	1279.98
583.47	1320.94
583.66	1288.17
583.85	1341.42
584.05	1251.31
584.24	1251.31
584.44	1316.84
584.63	1282.03
584.82	1253.36
585.02	1351.66
585.21	1339.37
585.41	1316.84
585.60	1318.89
585.79	1302.51
585.99	1339.37
586.18	1286.12
586.37	1314.80
586.57	1314.80
586.76	1361.90
586.96	1288.17
587.15	1226.73
587.34	1245.16
587.54	1288.17
587.73	1286.12
587.93	1335.28
588.12	1284.08
588.31	1243.12
588.51	1282.03
588.70	1212.40
588.89	1341.42
589.09	1357.80
589.28	1339.37
589.47	1228.78
589.67	1322.99
589.86	1298.41
590.06	1292.27
590.25	1200.11
590.44	1279.98
590.64	1298.41
590.83	1310.70
591.02	1251.31
591.22	1294.32
591.41	1308.65
591.60	1251.31
591.80	1261.55
591.99	1208.30
592.18	1308.65
592.38	1259.50
592.57	1316.84
592.76	1239.02
592.96	1269.74
593.15	1322.99
593.34	1304.56
593.54	1300.46
593.73	1298.41
593.92	1306.60
594.12	1208.30
594.31	1329.13
594.50	1288.17
594.70	1290.22
594.89	1232.88
595.08	1320.94
595.28	1322.99
595.47	1245.16
595.66	1279.98
595.86	1257.45
596.05	1304.56
596.24	1333.23
596.43	1310.70
596.63	1265.64
596.82	1368.04
597.01	1310.70
597.21	1331.18
597.40	1265.64
597.59	1273.84
597.79	1296.36
597.98	1286.12
598.17	1288.17
598.36	1286.12
598.56	1273.84
598.75	1185.77
598.94	1245.16
599.14	1247.21
599.33	1271.79
599.52	1236.97
599.71	1271.79
599.91	1275.88
600.10	1224.69
600.29	1325.04
600.48	1218.54
600.68	1216.49
600.87	1253.36
601.06	1316.84
601.26	1290.22
601.45	1267.69
601.64	1236.97
601.83	1300.46
602.03	1312.75
602.22	1245.16
602.41	1267.69
602.60	1290.22
602.80	1320.94
602.99	1263.60
603.18	1265.64
603.37	1208.30
603.57	1251.31
603.76	1279.98
603.95	1296.36
604.14	1300.46
604.34	1335.28
604.53	1269.74
604.72	1228.78
604.91	1292.27
605.10	1232.88
605.30	1208.30
605.49	1273.84
605.68	1241.07
605.87	1251.31
606.07	1269.74
606.26	1304.56
606.45	1255.40
606.64	1337.32
606.84	1327.08
607.03	1265.64
607.22	1230.83
607.41	1216.49
607.60	1273.84
607.80	1294.32
607.99	1294.32
608.18	1198.06
608.37	1234.93
608.56	1327.08
608.76	1355.76
608.95	1212.40
609.14	1331.18
609.33	1265.64
609.52	1282.03
609.72	1249.26
609.91	1259.50
610.10	1271.79
610.29	1298.41
610.48	1306.60
610.68	1314.80
610.87	1363.95
611.06	1296.36
611.25	1234.93
611.44	1296.36
611.63	1241.07
611.83	1294.32
612.02	1308.65
612.21	1273.84
612.40	1273.84
612.59	1300.46
612.79	1261.55
612.98	1234.93
613.17	1263.60
613.36	1331.18
613.55	1241.07
613.74	1312.75
613.93	1245.16
614.13	1298.41
614.32	1255.40
614.51	1325.04
614.70	1298.41
614.89	1335.28
615.08	1302.51
615.28	1302.51
615.47	1310.70
615.66	1318.89
615.85	1316.84
616.04	1255.40
616.23	1253.36
616.42	1304.56
616.62	1261.55
616.81	1249.26
617.00	1236.97
617.19	1226.73
617.38	1312.75
617.57	1253.36
617.76	1253.36
617.95	1316.84
618.15	1314.80
618.34	1273.84
618.53	1314.80
618.72	1302.51
618.91	1191.92
619.10	1349.61
619.29	1322.99
619.48	1312.75
619.68	1333.23
619.87	1284.08
620.06	1214.45
620.25	1288.17
620.44	1308.65
620.63	1214.45
620.82	1236.97
621.01	1363.95
621.20	1298.41
621.39	1267.69
621.59	1275.88
621.78	1310.70
621.97	1298.41
622.16	1310.70
622.35	1267.69
622.54	1331.18
622.73	1316.84
622.92	1261.55
623.11	1380.33
623.30	1337.32
623.49	1255.40
623.68	1245.16
623.88	1243.12
624.07	1333.23
624.26	1269.74
624.45	1304.56
624.64	1241.07
624.83	1290.22
625.02	1269.74
625.21	1275.88
625.40	1345.52
625.59	1353.71
625.78	1257.45
625.97	1216.49
626.16	1325.04
626.35	1263.60
626.54	1318.89
626.74	1386.47
626.93	1277.93
627.12	1253.36
627.31	1363.95
627.50	1310.70
627.69	1290.22
627.88	1282.03
628.07	1224.69
628.26	1312.75
628.45	1298.41
628.64	1306.60
628.83	1333.23
629.02	1316.84
629.21	1288.17
629.40	1222.64
629.59	1255.40
629.78	1286.12
629.97	1368.04
630.16	1310.70
630.35	1241.07
630.54	1288.17
630.73	1347.56
630.92	1331.18
631.11	1392.62
631.30	1331.18
631.49	1368.04
631.68	1798.12
631.87	5672.87
632.06	21749.43
632.25	46355.77
632.44	39894.43
632.63	31243.81
632.82	24563.34
633.01	7327.63
633.20	3565.51
633.39	3016.66
633.58	2707.41
633.77	1976.29
633.96	1732.58
634.15	1720.29
634.34	1728.49
634.53	1570.79
634.72	1548.26
634.91	1476.59
635.10	1492.97
635.29	1511.40
635.48	1458.15
635.67	1398.76
635.86	1421.29
636.05	1431.53
636.24	1421.29
636.43	1433.58
636.62	1378.28
636.81	1331.18
637.00	1429.48
637.19	1431.53
637.38	1363.95
637.57	1402.86
637.76	1310.70
637.95	1341.42
638.14	1335.28
638.33	1349.61
638.52	1279.98
638.71	1271.79
638.89	1284.08
639.08	1366.00
639.27	1277.93
639.46	1331.18
639.65	1335.28
639.84	1312.75
640.03	1351.66
640.22	1269.74
640.41	1263.60
640.60	1267.69
640.79	1284.08
640.98	1306.60
641.17	1304.56
641.36	1247.21
641.55	1361.90
641.74	1241.07
641.92	1277.93
642.11	1220.59
642.30	1302.51
642.49	1357.80
642.68	1310.70
642.87	1282.03
643.06	1269.74
643.25	1216.49
643.44	1277.93
643.63	1290.22
643.82	1208.30
644.00	1296.36
644.19	1296.36
644.38	1290.22
644.57	1224.69
644.76	1292.27
644.95	1230.83
645.14	1273.84
645.33	1329.13
645.52	1320.94
645.71	1255.40
645.89	1279.98
646.08	1265.64
646.27	1302.51
646.46	1329.13
646.65	1294.32
646.84	1241.07
647.03	1230.83
647.22	1292.27
647.40	1261.55
647.59	1302.51
647.78	1316.84
647.97	1249.26
648.16	1290.22
648.35	1253.36
648.54	1290.22
648.73	1253.36
648.91	1298.41
649.10	1241.07
649.29	1177.58
649.48	1306.60
649.67	1288.17
649.86	1222.64
650.05	1284.08
650.23	1314.80
650.42	1249.26
650.61	1247.21
650.80	1298.41
650.99	1343.47
651.18	1216.49
651.36	1249.26
651.55	1294.32
651.74	1196.01
651.93	1316.84
652.12	1282.03
652.31	1243.12
652.49	1302.51
652.68	1253.36
652.87	1370.09
653.06	1290.22
653.25	1239.02
653.44	1288.17
653.62	1277.93
653.81	1306.60
654.00	1271.79
654.19	1335.28
654.38	1218.54
654.56	1247.21
654.75	1316.84
654.94	1296.36
655.13	1236.97
655.32	1337.32
655.51	1222.64
655.69	1265.64
655.88	1275.88
656.07	1220.59
656.26	1331.18
656.45	1304.56
656.63	1253.36
656.82	1245.16
657.01	1267.69
657.20	1304.56
657.38	1196.01
657.57	1253.36
657.76	1230.83
657.95	1302.51
658.14	1232.88
658.32	1290.22
658.51	1241.07
658.70	1222.64
658.89	1286.12
659.08	1294.32
659.26	1322.99
659.45	1218.54
659.64	1200.11
659.83	1261.55
660.01	1300.46
660.20	1271.79
660.39	1329.13
660.58	1255.40
660.76	1286.12
660.95	1282.03
661.14	1345.52
661.33	1222.64
661.51	1239.02
661.70	1232.88
661.89	1314.80
662.08	1232.88
662.26	1241.07
662.45	1265.64
662.64	1204.21
662.83	1196.01
663.01	1290.22
663.20	1308.65
663.39	1259.50
663.58	1263.60
663.76	1265.64
663.95	1322.99
664.14	1279.98
664.32	1224.69
664.51	1239.02
664.70	1232.88
664.89	1312.75
665.07	1177.58
665.26	1263.60
665.45	1228.78
665.64	1257.45
665.82	1255.40
666.01	1218.54
666.20	1247.21
666.38	1286.12
666.57	1298.41
666.76	1243.12
666.95	1277.93
667.13	1271.79
667.32	1327.08
667.51	1343.47
667.69	1210.35
667.88	1310.70
668.07	1253.36
668.25	1228.78
668.44	1228.78
668.63	1341.42
668.81	1228.78
669.00	1257.45
669.19	1294.32
669.38	1249.26
669.56	1245.16
669.75	1183.73
669.94	1253.36
670.12	1290.22
670.31	1224.69
670.50	1331.18
670.68	1241.07
670.87	1277.93
671.06	1259.50
671.24	1361.90
671.43	1239.02
671.62	1208.30
671.80	1308.65
671.99	1329.13
672.18	1241.07
672.36	1294.32
672.55	1271.79
672.74	1314.80
672.92	1288.17
673.11	1251.31
673.29	1234.93
673.48	1284.08
673.67	1267.69
673.85	1335.28
674.04	1259.50
674.23	1300.46
674.41	1271.79
674.60	1226.73
674.79	1275.88
674.97	1241.07
675.16	1265.64
675.34	1204.21
675.53	1304.56
675.72	1331.18
675.90	1196.01
676.09	1263.60
676.28	1279.98
676.46	1247.21
676.65	1257.45
676.83	1247.21
677.02	1286.12
677.21	1279.98
677.39	1312.75
677.58	1277.93
677.77	1277.93
677.95	1251.31
678.14	1263.60
678.32	1318.89
678.51	1269.74
678.70	1318.89
678.88	1265.64
679.07	1339.37
679.25	1210.35
679.44	1241.07
679.63	1265.64
679.81	1296.36
680.00	1341.42
680.18	1284.08
680.37	1294.32
680.55	1310.70
680.74	1333.23
680.93	1249.26
681.11	1253.36
681.30	1226.73
681.48	1267.69
681.67	1343.47
681.85	1314.80
682.04	1331.18
682.23	1286.12
682.41	1263.60
682.60	1216.49
682.78	1257.45
682.97	1226.73
683.15	1290.22
683.34	1286.12
683.53	1284.08
683.71	1288.17
683.90	1271.79
684.08	1261.55
684.27	1228.78
684.45	1296.36
684.64	1318.89
684.82	1249.26
685.01	1261.55
685.19	1212.40
685.38	1284.08
685.57	1241.07
685.75	1322.99
685.94	1224.69
686.12	1284.08
686.31	1204.21
686.49	1325.04
686.68	1290.22
686.86	1234.93
687.05	1212.40
687.23	1241.07
687.42	1312.75
687.60	1265.64
687.79	1210.35
687.97	1210.35
688.16	1208.30
688.34	1228.78
688.53	1290.22
688.71	1273.84
688.90	1325.04
689.08	1359.85
689.27	1306.60
689.45	1288.17
689.64	1259.50
689.82	1226.73
690.01	1243.12
690.19	1290.22
690.38	1290.22
690.56	1292.27
690.75	1187.82
690.93	1267.69
691.12	1284.08
691.30	1208.30
691.49	1275.88
691.67	1277.93
691.86	1343.47
692.04	1232.88
692.23	1257.45
692.41	1306.60
692.60	1251.31
692.78	1222.64
692.97	1239.02
693.15	1318.89
693.34	1263.60
693.52	1269.74
693.71	1265.64
693.89	1273.84
694.08	1255.40
694.26	1290.22
694.44	1185.77
694.63	1198.06
694.81	1228.78
695.00	1282.03
695.18	1208.30
695.37	1306.60
695.55	1267.69
695.74	1347.56
695.92	1300.46
696.10	1279.98
696.29	1212.40
696.47	1265.64
696.66	1257.45
696.84	1249.26
697.03	1273.84
697.21	1320.94
697.40	1302.51
697.58	1322.99
697.76	1288.17
697.95	1292.27
698.13	1304.56
698.32	1267.69
698.50	1273.84
698.68	1298.41
698.87	1333.23
699.05	1368.04
699.24	1255.40
699.42	1304.56
699.61	1214.45
699.79	1241.07
699.97	1275.88
700.16	1288.17
700.34	1257.45
700.53	1284.08
700.71	1290.22
700.89	1187.82
701.08	1277.93
701.26	1314.80
701.45	1284.08
701.63	1204.21
701.81	1271.79
702.00	1253.36
702.18	1300.46
702.37	1269.74
702.55	1282.03
702.73	1282.03
702.92	1304.56
703.10	1306.60
703.28	1308.65
703.47	1247.21
703.65	1202.16
703.84	1302.51
704.02	1255.40
704.20	1282.03
704.39	1302.51
704.57	1249.26
704.75	1286.12
704.94	1255.40
705.12	1282.03
705.30	1298.41
705.49	1286.12
705.67	1296.36
705.86	1345.52
706.04	1341.42
706.22	1243.12
706.41	1282.03
706.59	1241.07
706.77	1265.64
706.96	1247.21
707.14	1239.02
707.32	1259.50
707.51	1251.31
707.69	1304.56
707.87	1208.30
708.06	1241.07
708.24	1232.88
708.42	1286.12
708.61	1290.22
708.79	1224.69
708.97	1251.31
709.16	1255.40
709.34	1282.03
709.52	1300.46
709.71	1251.31
709.89	1296.36
710.07	1200.11
710.26	1249.26
710.44	1243.12
710.62	1296.36
710.80	1249.26
710.99	1261.55
711.17	1236.97
711.35	1296.36
711.54	1241.07
711.72	1290.22
711.90	1282.03
712.09	1243.12
712.27	1339.37
712.45	1232.88
712.63	1296.36
712.82	1230.83
713.00	1288.17
713.18	1298.41
713.37	1259.50
713.55	1310.70
713.73	1208.30
713.91	1239.02
714.10	1214.45
714.28	1284.08
714.46	1236.97
714.65	1222.64
714.83	1239.02
715.01	1275.88
715.19	1232.88
715.38	1304.56
715.56	1284.08
715.74	1193.97
715.92	1267.69
716.11	1269.74
716.29	1277.93
716.47	1286.12
716.65	1247.21
716.84	1230.83
717.02	1228.78
717.20	1247.21
717.38	1249.26
717.57	1277.93
717.75	1277.93
717.93	1249.26
718.11	1245.16
718.30	1210.35
718.48	1322.99
718.66	1331.18
718.84	1239.02
719.03	1294.32
719.21	1316.84
719.39	1265.64
719.57	1255.40
719.75	1294.32
719.94	1216.49
720.12	1222.64
720.30	1236.97
720.48	1310.70
720.67	1296.36
720.85	1228.78
721.03	1277.93
721.21	1216.49
721.39	1226.73
721.58	1241.07
721.76	1243.12
721.94	1341.42
722.12	1198.06
722.30	1353.71
722.49	1222.64
722.67	1318.89
722.85	1251.31
723.03	1255.40
723.21	1230.83
723.40	1263.60
723.58	1247.21
723.76	1251.31
723.94	1259.50
724.12	1228.78
724.30	1241.07
724.49	1267.69
724.67	1220.59
724.85	1208.30
725.03	1247.21
725.21	1226.73
725.40	1226.73
725.58	1157.10
725.76	1327.08
725.94	1222.64
726.12	1241.07
726.30	1282.03
726.49	1296.36
726.67	1220.59
726.85	1259.50
727.03	1153.01
727.21	1243.12
727.39	1255.40
727.57	1288.17
727.76	1325.04
727.94	1288.17
728.12	1265.64
728.30	1306.60
728.48	1228.78
728.66	1202.16
728.84	1255.40
729.03	1288.17
729.21	1304.56
729.39	1271.79
729.57	1236.97
729.75	1290.22
729.93	1257.45
730.11	1228.78
730.30	1253.36
730.48	1243.12
730.66	1206.25
730.84	1290.22
731.02	1300.46
731.20	1234.93
731.38	1271.79
731.56	1204.21
731.74	1216.49
731.93	1302.51
732.11	1269.74
732.29	1275.88
732.47	1300.46
732.65	1228.78
732.83	1331.18
733.01	1306.60
733.19	1277.93
733.37	1267.69
733.56	1302.51
733.74	1308.65
733.92	1271.79
734.10	1335.28
734.28	1185.77
734.46	1265.64
734.64	1310.70
734.82	1222.64
735.00	1251.31
735.18	1214.45
735.36	1259.50
735.54	1259.50
735.73	1273.84
735.91	1349.61
736.09	1290.22
736.27	1349.61
736.45	1181.68
736.63	1279.98
736.81	1218.54
736.99	1245.16
737.17	1216.49
737.35	1245.16
737.53	1247.21
737.71	1216.49
737.89	1265.64
738.07	1255.40
738.25	1306.60
738.43	1204.21
738.61	1269.74
738.80	1263.60
738.98	1333.23
739.16	1302.51
739.34	1200.11
739.52	1286.12
739.70	1191.92
739.88	1294.32
740.06	1253.36
740.24	1269.74
740.42	1255.40
740.60	1296.36
740.78	1257.45
740.96	1345.52
741.14	1265.64
741.32	1263.60
741.50	1286.12
741.68	1239.02
741.86	1214.45
742.04	1193.97
742.22	1294.32
742.40	1288.17
742.58	1228.78
742.76	1284.08
742.94	1251.31
743.12	1245.16
743.30	1304.56
743.48	1226.73
743.66	1239.02
743.84	1253.36
744.02	1296.36
744.20	1255.40
744.38	1247.21
744.56	1288.17
744.74	1337.32
744.92	1275.88
745.10	1228.78
745.28	1308.65
745.46	1216.49
745.64	1241.07
745.82	1288.17
746.00	1124.33
746.18	1300.46
746.36	1271.79
746.54	1239.02
746.72	1218.54
746.90	1239.02
747.08	1241.07
747.26	1257.45
747.44	1300.46
747.62	1255.40
747.80	1241.07
747.98	1329.13
748.15	1279.98
748.33	1282.03
748.51	1284.08
748.69	1284.08
748.87	1304.56
749.05	1359.85
749.23	1257.45
749.41	1275.88
749.59	1243.12
749.77	1253.36
749.95	1247.21
750.13	1347.56
750.31	1269.74
750.49	1206.25
750.67	1239.02
750.85	1181.68
751.03	1277.93
751.20	1279.98
751.38	1171.44
751.56	1290.22
751.74	1257.45
751.92	1284.08
752.10	1267.69
752.28	1230.83
752.46	1302.51
752.64	1269.74
752.82	1230.83
753.00	1232.88
753.18	1292.27
753.35	1363.95
753.53	1259.50
753.71	1263.60
753.89	1234.93
754.07	1259.50
754.25	1298.41
754.43	1267.69
754.61	1304.56
754.79	1288.17
754.97	1234.93
755.14	1247.21
755.32	1228.78
755.50	1200.11
755.68	1271.79
755.86	1284.08
756.04	1241.07
756.22	1243.12
756.40	1304.56
756.57	1269.74
756.75	1189.87
756.93	1318.89
757.11	1228.78
757.29	1300.46
757.47	1255.40
757.65	1267.69
757.82	1286.12
758.00	1316.84
758.18	1308.65
758.36	1265.64
758.54	1320.94
758.72	1312.75
758.90	1282.03
759.07	1249.26
759.25	1236.97
759.43	1241.07
759.61	1241.07
759.79	1325.04
759.97	1273.84
760.15	1230.83
760.32	1241.07
760.50	1263.60
760.68	1253.36
760.86	1261.55
761.04	1232.88
761.22	1243.12
761.39	1314.80
761.57	1220.59
761.75	1310.70
761.93	1245.16
762.11	1302.51
762.28	1212.40
762.46	1245.16
762.64	1284.08
762.82	1302.51
763.00	1325.04
763.18	1232.88
763.35	1214.45
763.53	1247.21
763.71	1202.16
763.89	1232.88
764.07	1292.27
764.24	1279.98
764.42	1269.74
764.60	1249.26
764.78	1224.69
764.96	1320.94
765.13	1273.84
765.31	1318.89
765.49	1239.02
765.67	1275.88
765.84	1245.16
766.02	1204.21
766.20	1222.64
766.38	1245.16
766.56	1187.82
766.73	1339.37
766.91	1275.88
767.09	1222.64
767.27	1306.60
767.44	1306.60
767.62	1228.78
767.80	1290.22
767.98	1251.31
768.15	1282.03
768.33	1230.83
768.51	1325.04
768.69	1329.13
768.87	1265.64
769.04	1257.45
769.22	1333.23
769.40	1296.36
769.58	1216.49
769.75	1220.59
769.93	1222.64
770.11	1327.08
770.28	1345.52
770.46	1320.94
770.64	1243.12
770.82	1329.13
770.99	1220.59
771.17	1218.54
771.35	1228.78
771.53	1288.17
771.70	1263.60
771.88	1234.93
772.06	1265.64
772.23	1292.27
772.41	1251.31
772.59	1236.97
772.77	1271.79
772.94	1228.78
773.12	1239.02
773.30	1255.40
773.47	1261.55
773.65	1163.25
773.83	1263.60
774.01	1265.64
774.18	1224.69
774.36	1296.36
774.54	1273.84
774.71	1216.49
774.89	1282.03
775.07	1220.59
775.24	1267.69
775.42	1236.97
775.60	1296.36
775.78	1259.50
775.95	1191.92
776.13	1286.12
776.31	1179.63
776.48	1243.12
776.66	1261.55
776.84	1224.69
777.01	1314.80
777.19	1243.12
777.37	1189.87
777.54	1243.12
777.72	1386.47
777.90	1290.22
778.07	1253.36
778.25	1310.70
778.43	1271.79
778.60	1234.93
778.78	1273.84
778.96	1232.88
779.13	1212.40
779.31	1167.34
779.49	1263.60
779.66	1279.98
779.84	1345.52
780.01	1329.13
780.19	1251.31
780.37	1259.50
780.54	1282.03
780.72	1279.98
780.90	1286.12
781.07	1322.99
781.25	1249.26
781.43	1239.02
781.60	1312.75
781.78	1216.49
781.95	1300.46
782.13	1173.49
782.31	1294.32
782.48	1202.16
782.66	1267.69
782.83	1243.12
783.01	1339.37
783.19	1269.74
783.36	1232.88
783.54	1222.64
783.72	1269.74
783.89	1218.54
784.07	1298.41
784.24	1318.89
784.42	1331.18
784.60	1220.59
784.77	1294.32
784.95	1253.36
785.12	1261.55
785.30	1261.55
785.47	1286.12
785.65	1277.93
785.83	1331.18
786.00	1282.03
786.18	1243.12
786.35	1290.22
786.53	1232.88
786.71	1236.97
786.88	1331.18
787.06	1294.32
787.23	1183.73
787.41	1239.02
787.58	1308.65
787.76	1275.88
787.94	1284.08
788.11	1357.80
788.29	1271.79
788.46	1220.59
788.64	1296.36
788.81	1316.84
788.99	1265.64
789.16	1257.45
789.34	1265.64
789.52	1288.17
789.69	1232.88
789.87	1314.80
790.04	1216.49
790.22	1249.26
790.39	1294.32
790.57	1243.12
790.74	1230.83
790.92	1292.27
791.09	1286.12
791.27	1337.32
791.44	1200.11
791.62	1286.12
791.79	1251.31
791.97	1214.45
792.15	1224.69
792.32	1273.84
792.50	1296.36
792.67	1355.76
792.85	1290.22
793.02	1218.54
793.20	1253.36
793.37	1232.88
793.55	1228.78
793.72	1296.36
793.90	1263.60
794.07	1282.03
794.25	1265.64
794.42	1234.93
794.60	1249.26
794.77	1308.65
794.95	1271.79
795.12	1322.99
795.30	1275.88
795.47	1294.32
795.65	1284.08
795.82	1302.51
796.00	1263.60
796.17	1243.12
796.34	1277.93
796.52	1269.74
796.69	1286.12
796.87	1325.04
797.04	1279.98
797.22	1257.45
797.39	1265.64
797.57	1300.46
797.74	1216.49
797.92	1241.07
798.09	1316.84
798.27	1196.01
798.44	1241.07
798.62	1308.65
798.79	1202.16
798.96	1241.07
799.14	1263.60
799.31	1286.12
799.49	1320.94
799.66	1214.45
799.84	1265.64
800.01	1343.47
800.19	1208.30
800.36	1187.82
800.53	1249.26
800.71	1265.64
800.88	1304.56
801.06	1259.50
801.23	1232.88
801.41	1288.17
801.58	1247.21
801.75	1298.41
801.93	1261.55
802.10	1275.88
802.28	1226.73
802.45	1271.79
802.63	1257.45
802.80	1273.84
802.97	1259.50
803.15	1320.94
803.32	1312.75
803.50	1269.74
803.67	1200.11
803.84	1341.42
804.02	1208.30
804.19	1202.16
804.37	1222.64
804.54	1165.29
804.71	1249.26
804.89	1208.30
805.06	1200.11
805.24	1306.60
805.41	1232.88
805.58	1282.03
805.76	1277.93
805.93	1279.98
806.10	1277.93
806.28	1277.93
806.45	1222.64
806.63	1279.98
806.80	1208.30
806.97	1216.49
807.15	1304.56
807.32	1265.64
807.49	1322.99
807.67	1208.30
807.84	1241.07
808.01	1191.92
808.19	1224.69
808.36	1247.21
808.54	1282.03
808.71	1232.88
808.88	1314.80
809.06	1224.69
809.23	1216.49
809.40	1284.08
809.58	1263.60
809.75	1245.16
809.92	1290.22
810.10	1294.32
810.27	1298.41
810.44	1247.21
810.62	1296.36
810.79	1204.21
810.96	1257.45
811.14	1224.69
811.31	1310.70
811.48	1275.88
811.66	1265.64
811.83	1273.84
812.00	1304.56
812.18	1290.22
812.35	1296.36
812.52	1308.65
812.69	1265.64
812.87	1263.60
813.04	1304.56
813.21	1314.80
813.39	1265.64
813.56	1257.45
813.73	1200.11
813.91	1255.40
814.08	1241.07
814.25	1275.88
814.42	1378.28
814.60	1189.87
814.77	1232.88
814.94	1288.17
815.12	1294.32
815.29	1300.46
815.46	1273.84
815.63	1320.94
815.81	1226.73
815.98	1175.53
816.15	1255.40
816.33	1296.36
816.50	1271.79
816.67	1284.08
816.84	1282.03
817.02	1267.69
817.19	1239.02
817.36	1232.88
817.53	1245.16
817.71	1263.60
817.88	1210.35
818.05	1259.50
818.22	1292.27
818.40	1279.98
818.57	1271.79
818.74	1286.12
818.91	1214.45
819.09	1202.16
819.26	1267.69
819.43	1251.31
819.60	1230.83
819.78	1206.25
819.95	1300.46
820.12	1284.08
820.29	1300.46
820.47	1255.40
820.64	1265.64
820.81	1279.98
820.98	1292.27
821.15	1208.30
821.33	1259.50
821.50	1257.45
821.67	1300.46
821.84	1312.75
822.02	1257.45
822.19	1245.16
822.36	1216.49
822.53	1277.93
822.70	1273.84
822.88	1259.50
823.05	1304.56
823.22	1273.84
823.39	1224.69
823.56	1255.40
823.74	1302.51
823.91	1220.59
824.08	1302.51
824.25	1239.02
824.42	1312.75
824.60	1224.69
824.77	1337.32
824.94	1226.73
825.11	1284.08
825.28	1292.27
825.45	1302.51
825.63	1212.40
825.80	1392.62
825.97	1216.49
826.14	1277.93
826.31	1310.70
826.48	1241.07
826.66	1196.01
826.83	1232.88
827.00	1327.08
827.17	1236.97
827.34	1298.41
827.51	1224.69
827.69	1286.12
827.86	1279.98
828.03	1294.32
828.20	1265.64
828.37	1216.49
828.54	1263.60
828.71	1300.46
828.89	1312.75
829.06	1230.83
829.23	1345.52
829.40	1290.22
829.57	1265.64
829.74	1279.98
829.91	1259.50
830.09	1265.64
830.26	1245.16
830.43	1304.56
830.60	1267.69
830.77	1306.60
830.94	1298.41
831.11	1183.73
831.28	1298.41
831.46	1208.30
831.63	1316.84
831.80	1294.32
831.97	1275.88
832.14	1265.64
832.31	1298.41
832.48	1286.12
832.65	1284.08
832.82	1234.93
832.99	1312.75
833.17	1282.03
833.34	1196.01
833.51	1198.06
833.68	1277.93
833.85	1263.60
834.02	1259.50
834.19	1243.12
834.36	1298.41
834.53	1236.97
834.70	1296.36
834.87	1234.93
835.04	1241.07
835.22	1267.69
835.39	1236.97
835.56	1247.21
835.73	1308.65
835.90	1200.11
836.07	1236.97
836.24	1226.73
836.41	1372.14
836.58	1292.27
836.75	1282.03
836.92	1279.98
837.09	1355.76
837.26	1333.23
837.43	1286.12
837.60	1318.89
837.77	1286.12
837.94	1288.17
838.12	1339.37
838.29	1216.49
838.46	1290.22
838.63	1224.69
838.80	1310.70
838.97	1220.59
839.14	1282.03
839.31	1214.45
839.48	1343.47
839.65	1279.98
839.82	1253.36
839.99	1273.84
840.16	1261.55
840.33	1304.56
840.50	1300.46
840.67	1316.84
840.84	1263.60
841.01	1261.55
841.18	1251.31
841.35	1257.45
841.52	1247.21
841.69	1208.30
841.86	1208.30
842.03	1269.74
842.20	1234.93
842.37	1234.93
842.54	1290.22
842.71	1269.74
842.88	1253.36
843.05	1282.03
843.22	1294.32
843.39	1251.31
843.56	1187.82
843.73	1271.79
843.90	1304.56
844.07	1292.27
844.24	1347.56
844.41	1234.93
844.58	1282.03
844.75	1347.56
844.92	1306.60
845.09	1302.51
845.26	1292.27
845.43	1259.50
845.60	1253.36
845.77	1294.32
845.94	1212.40
846.10	1263.60
846.27	1200.11
846.44	1261.55
846.61	1224.69
846.78	1261.55
846.95	1255.40
847.12	1314.80
847.29	1232.88
847.46	1232.88
847.63	1239.02
847.80	1239.02
847.97	1232.88
848.14	1245.16
848.31	1216.49
848.48	1261.55
848.65	1249.26
848.82	1222.64
848.98	1382.38
849.15	1294.32
849.32	1294.32
849.49	1163.25
849.66	1306.60
849.83	1253.36
850.00	1253.36
850.17	1296.36
850.34	1241.07
850.51	1298.41
850.68	1337.32
850.85	1337.32
851.01	1322.99
851.18	1196.01
851.35	1353.71
851.52	1286.12
851.69	1230.83
851.86	1200.11
852.03	1232.88
852.20	1204.21
852.37	1282.03
852.53	1208.30
852.70	1232.88
852.87	1224.69
853.04	1310.70
853.21	1239.02
853.38	1222.64
853.55	1282.03
853.72	1261.55
853.89	1212.40
854.05	1284.08
854.22	1265.64
854.39	1253.36
854.56	1288.17
854.73	1265.64
854.90	1304.56
855.07	1304.56
855.23	1327.08
855.40	1232.88
855.57	1234.93
855.74	1214.45
855.91	1247.21
856.08	1232.88
856.25	1226.73
856.41	1314.80
856.58	1310.70
856.75	1267.69
856.92	1290.22
857.09	1263.60
857.26	1339.37
857.42	1292.27
857.59	1251.31
857.76	1210.35
857.93	1269.74
858.10	1284.08
858.27	1288.17
858.43	1257.45
858.60	1177.58
858.77	1224.69
858.94	1310.70
859.11	1296.36
859.27	1302.51
859.44	1222.64
859.61	1322.99
859.78	1247.21
859.95	1286.12
860.12	1302.51
860.28	1279.98
860.45	1216.49
860.62	1269.74
860.79	1239.02
860.95	1251.31
861.12	1298.41
861.29	1275.88
861.46	1218.54
861.63	1302.51
861.79	1277.93
861.96	1298.41
862.13	1308.65
862.30	1320.94
862.47	1261.55
862.63	1308.65
862.80	1249.26
862.97	1263.60
863.14	1216.49
863.30	1226.73
863.47	1355.76
863.64	1224.69
863.81	1298.41
863.97	1298.41
864.14	1329.13
864.31	1220.59
864.48	1241.07
864.65	1206.25
864.81	1294.32
864.98	1251.31
865.15	1239.02
865.32	1259.50
865.48	1261.55
865.65	1298.41
865.82	1279.98
865.98	1284.08
866.15	1298.41
866.32	1284.08
866.49	1310.70
866.65	1243.12
866.82	1292.27
866.99	1210.35
867.16	1177.58
867.32	1179.63
867.49	1241.07
867.66	1230.83
867.83	1226.73
867.99	1273.84
868.16	1298.41
868.33	1241.07
868.49	1241.07
868.66	1302.51
868.83	1263.60
868.99	1257.45
869.16	1261.55
869.33	1204.21
869.50	1267.69
869.66	1187.82
869.83	1243.12
870.00	1230.83
870.16	1292.27
870.33	1234.93
870.50	1222.64
870.66	1271.79
870.83	1296.36
871.00	1253.36
871.17	1318.89
871.33	1224.69
871.50	1314.80
871.67	1271.79
871.83	1247.21
872.00	1288.17
872.17	1304.56
872.33	1304.56
872.50	1331.18
872.67	1196.01
872.83	1257.45
873.00	1204.21
873.17	1294.32
873.33	1263.60
873.50	1349.61
873.67	1261.55
873.83	1306.60
874.00	1241.07
874.16	1249.26
874.33	1263.60
874.50	1249.26
874.66	1243.12
874.83	1265.64
875.00	1320.94
875.16	1253.36
875.33	1243.12
875.50	1286.12
875.66	1239.02
875.83	1204.21
875.99	1265.64
876.16	1241.07
876.33	1304.56
876.49	1296.36
876.66	1259.50
876.83	1208.30
876.99	1269.74
877.16	1273.84
877.32	1239.02
877.49	1239.02
877.66	1302.51
877.82	1259.50
877.99	1302.51
878.15	1249.26
878.32	1189.87
878.49	1232.88
878.65	1200.11
878.82	1273.84
878.98	1263.60
879.15	1243.12
879.32	1267.69
879.48	1290.22
879.65	1279.98
879.81	1265.64
879.98	1273.84
880.15	1239.02
880.31	1282.03
880.48	1222.64
880.64	1282.03
880.81	1243.12
880.97	1304.56
881.14	1302.51
881.31	1263.60
881.47	1314.80
881.64	1224.69
881.80	1316.84
881.97	1316.84
882.13	1392.62
882.30	1298.41
882.47	1304.56
882.63	1257.45
882.80	1222.64
882.96	1298.41
883.13	1273.84
883.29	1286.12
883.46	1304.56
883.62	1255.40
883.79	1320.94
883.95	1300.46
884.12	1292.27
884.29	1312.75
884.45	1251.31
884.62	1216.49
884.78	1331.18
884.95	1255.40
885.11	1255.40
885.28	1296.36
885.44	1249.26
885.61	1265.64
885.77	1329.13
885.94	1296.36
886.10	1247.21
886.27	1298.41
886.43	1253.36
886.60	1294.32
886.76	1251.31
886.93	1261.55
887.09	1251.31
887.26	1267.69
887.42	1306.60
887.59	1275.88
887.75	1249.26
887.92	1222.64
888.08	1355.76
888.25	1314.80
888.41	1306.60
888.58	1296.36
888.74	1251.31
888.91	1208.30
>>>>>End Processed Spectral Data<<<<<
