SpectraSuite Data File
++++++++++++++++++++++++++++++++++++
Date: Sun Apr 03 19:55:33 CEST 2016
User: root
Dark Spectrum Present: No
Reference Spectrum Present: No
Number of Sampled Component Spectra: 1
Spectrometers: USB4C02835
Integration Time (usec): 10000 (USB4C02835)
Spectra Averaged: 1 (USB4C02835)
Boxcar Smoothing: 0 (USB4C02835)
Correct for Electrical Dark: No (USB4C02835)
Strobe/Lamp Enabled: No (USB4C02835)
Correct for Detector Non-linearity: No (USB4C02835)
Correct for Stray Light: No (USB4C02835)
Number of Pixels in Processed Spectrum: 3648
>>>>>Begin Processed Spectral Data<<<<<
177.47	1275.88
177.69	1275.88
177.91	1275.88
178.13	1306.60
178.36	1226.73
178.58	1327.08
178.80	1277.93
179.02	1259.50
179.24	1310.70
179.46	1216.49
179.68	1304.56
179.90	1214.45
180.13	1230.83
180.35	1261.55
180.57	1306.60
180.79	1296.36
181.01	1320.94
181.23	1279.98
181.45	1325.04
181.67	1267.69
181.90	1234.93
182.12	1234.93
182.34	1349.61
182.56	1200.11
182.78	1300.46
183.00	1314.80
183.22	1298.41
183.44	1269.74
183.66	1269.74
183.89	1263.60
184.11	1239.02
184.33	1200.11
184.55	1241.07
184.77	1224.69
184.99	1286.12
185.21	1263.60
185.43	1226.73
185.65	1208.30
185.87	1269.74
186.10	1269.74
186.32	1230.83
186.54	1245.16
186.76	1329.13
186.98	1308.65
187.20	1366.00
187.42	1249.26
187.64	1273.84
187.86	1290.22
188.08	1273.84
188.30	1236.97
188.52	1206.25
188.75	1265.64
188.97	1277.93
189.19	1269.74
189.41	1232.88
189.63	1249.26
189.85	1206.25
190.07	1200.11
190.29	1282.03
190.51	1290.22
190.73	1210.35
190.95	1226.73
191.17	1214.45
191.39	1243.12
191.61	1277.93
191.84	1294.32
192.06	1236.97
192.28	1245.16
192.50	1339.37
192.72	1335.28
192.94	1206.25
193.16	1241.07
193.38	1234.93
193.60	1306.60
193.82	1282.03
194.04	1277.93
194.26	1275.88
194.48	1210.35
194.70	1310.70
194.92	1288.17
195.14	1355.76
195.36	1236.97
195.58	1288.17
195.80	1243.12
196.02	1271.79
196.24	1318.89
196.46	1228.78
196.69	1329.13
196.91	1241.07
197.13	1277.93
197.35	1357.80
197.57	1243.12
197.79	1320.94
198.01	1222.64
198.23	1296.36
198.45	1333.23
198.67	1265.64
198.89	1304.56
199.11	1279.98
199.33	1308.65
199.55	1351.66
199.77	1288.17
199.99	1251.31
200.21	1239.02
200.43	1359.85
200.65	1241.07
200.87	1279.98
201.09	1261.55
201.31	1247.21
201.53	1286.12
201.75	1273.84
201.97	1212.40
202.19	1247.21
202.41	1310.70
202.63	1318.89
202.85	1187.82
203.07	1177.58
203.29	1220.59
203.51	1241.07
203.73	1273.84
203.95	1277.93
204.17	1329.13
204.39	1261.55
204.61	1290.22
204.83	1259.50
205.05	1290.22
205.27	1292.27
205.49	1224.69
205.71	1294.32
205.93	1310.70
206.15	1277.93
206.37	1257.45
206.59	1343.47
206.81	1251.31
207.03	1279.98
207.25	1255.40
207.47	1341.42
207.69	1265.64
207.91	1275.88
208.13	1314.80
208.34	1249.26
208.56	1349.61
208.78	1292.27
209.00	1259.50
209.22	1224.69
209.44	1288.17
209.66	1320.94
209.88	1277.93
210.10	1298.41
210.32	1298.41
210.54	1288.17
210.76	1259.50
210.98	1288.17
211.20	1255.40
211.42	1257.45
211.64	1224.69
211.86	1298.41
212.08	1273.84
212.30	1304.56
212.52	1226.73
212.74	1273.84
212.96	1304.56
213.17	1337.32
213.39	1314.80
213.61	1220.59
213.83	1191.92
214.05	1296.36
214.27	1327.08
214.49	1200.11
214.71	1302.51
214.93	1296.36
215.15	1304.56
215.37	1183.73
215.59	1257.45
215.81	1298.41
216.03	1232.88
216.24	1271.79
216.46	1220.59
216.68	1337.32
216.90	1271.79
217.12	1282.03
217.34	1253.36
217.56	1263.60
217.78	1253.36
218.00	1298.41
218.22	1265.64
218.44	1333.23
218.66	1232.88
218.87	1239.02
219.09	1329.13
219.31	1325.04
219.53	1208.30
219.75	1290.22
219.97	1208.30
220.19	1282.03
220.41	1363.95
220.63	1277.93
220.85	1284.08
221.06	1284.08
221.28	1331.18
221.50	1241.07
221.72	1202.16
221.94	1224.69
222.16	1349.61
222.38	1282.03
222.60	1232.88
222.82	1222.64
223.03	1312.75
223.25	1273.84
223.47	1271.79
223.69	1263.60
223.91	1202.16
224.13	1292.27
224.35	1290.22
224.57	1304.56
224.78	1312.75
225.00	1261.55
225.22	1236.97
225.44	1257.45
225.66	1275.88
225.88	1331.18
226.10	1339.37
226.32	1271.79
226.53	1249.26
226.75	1314.80
226.97	1325.04
227.19	1243.12
227.41	1284.08
227.63	1333.23
227.85	1206.25
228.06	1298.41
228.28	1267.69
228.50	1296.36
228.72	1216.49
228.94	1243.12
229.16	1257.45
229.37	1257.45
229.59	1253.36
229.81	1261.55
230.03	1155.05
230.25	1282.03
230.47	1275.88
230.69	1316.84
230.90	1335.28
231.12	1320.94
231.34	1224.69
231.56	1220.59
231.78	1357.80
232.00	1277.93
232.21	1306.60
232.43	1335.28
232.65	1230.83
232.87	1337.32
233.09	1259.50
233.30	1275.88
233.52	1253.36
233.74	1286.12
233.96	1224.69
234.18	1296.36
234.40	1308.65
234.61	1191.92
234.83	1318.89
235.05	1247.21
235.27	1261.55
235.49	1333.23
235.70	1331.18
235.92	1263.60
236.14	1234.93
236.36	1282.03
236.58	1226.73
236.79	1302.51
237.01	1257.45
237.23	1279.98
237.45	1224.69
237.67	1273.84
237.88	1275.88
238.10	1261.55
238.32	1198.06
238.54	1308.65
238.76	1261.55
238.97	1245.16
239.19	1228.78
239.41	1228.78
239.63	1302.51
239.85	1284.08
240.06	1306.60
240.28	1308.65
240.50	1187.82
240.72	1277.93
240.93	1308.65
241.15	1277.93
241.37	1259.50
241.59	1282.03
241.81	1247.21
242.02	1208.30
242.24	1269.74
242.46	1314.80
242.68	1230.83
242.89	1320.94
243.11	1251.31
243.33	1253.36
243.55	1265.64
243.76	1269.74
243.98	1210.35
244.20	1263.60
244.42	1294.32
244.64	1259.50
244.85	1286.12
245.07	1292.27
245.29	1243.12
245.51	1236.97
245.72	1243.12
245.94	1290.22
246.16	1263.60
246.38	1251.31
246.59	1320.94
246.81	1249.26
247.03	1200.11
247.24	1337.32
247.46	1226.73
247.68	1273.84
247.90	1279.98
248.11	1298.41
248.33	1277.93
248.55	1320.94
248.77	1359.85
248.98	1249.26
249.20	1239.02
249.42	1312.75
249.64	1218.54
249.85	1314.80
250.07	1267.69
250.29	1282.03
250.50	1243.12
250.72	1286.12
250.94	1290.22
251.16	1306.60
251.37	1241.07
251.59	1306.60
251.81	1314.80
252.02	1279.98
252.24	1318.89
252.46	1286.12
252.68	1241.07
252.89	1267.69
253.11	1282.03
253.33	1335.28
253.54	1249.26
253.76	1216.49
253.98	1312.75
254.20	1265.64
254.41	1277.93
254.63	1279.98
254.85	1234.93
255.06	1286.12
255.28	1290.22
255.50	1312.75
255.71	1241.07
255.93	1312.75
256.15	1251.31
256.36	1200.11
256.58	1308.65
256.80	1228.78
257.02	1177.58
257.23	1271.79
257.45	1337.32
257.67	1234.93
257.88	1243.12
258.10	1273.84
258.32	1214.45
258.53	1294.32
258.75	1236.97
258.97	1247.21
259.18	1267.69
259.40	1253.36
259.62	1288.17
259.83	1239.02
260.05	1216.49
260.27	1282.03
260.48	1316.84
260.70	1257.45
260.92	1216.49
261.13	1294.32
261.35	1263.60
261.57	1220.59
261.78	1298.41
262.00	1239.02
262.22	1306.60
262.43	1261.55
262.65	1243.12
262.86	1314.80
263.08	1255.40
263.30	1226.73
263.51	1257.45
263.73	1290.22
263.95	1263.60
264.16	1296.36
264.38	1271.79
264.60	1273.84
264.81	1329.13
265.03	1255.40
265.25	1286.12
265.46	1198.06
265.68	1261.55
265.89	1234.93
266.11	1339.37
266.33	1263.60
266.54	1226.73
266.76	1312.75
266.98	1282.03
267.19	1308.65
267.41	1226.73
267.62	1300.46
267.84	1255.40
268.06	1261.55
268.27	1263.60
268.49	1228.78
268.70	1273.84
268.92	1308.65
269.14	1257.45
269.35	1308.65
269.57	1193.97
269.79	1300.46
270.00	1267.69
270.22	1318.89
270.43	1292.27
270.65	1214.45
270.87	1277.93
271.08	1275.88
271.30	1263.60
271.51	1181.68
271.73	1230.83
271.95	1306.60
272.16	1228.78
272.38	1218.54
272.59	1277.93
272.81	1200.11
273.02	1275.88
273.24	1247.21
273.46	1337.32
273.67	1322.99
273.89	1210.35
274.10	1210.35
274.32	1286.12
274.54	1286.12
274.75	1284.08
274.97	1318.89
275.18	1259.50
275.40	1245.16
275.61	1265.64
275.83	1277.93
276.05	1320.94
276.26	1263.60
276.48	1286.12
276.69	1306.60
276.91	1304.56
277.12	1208.30
277.34	1251.31
277.55	1277.93
277.77	1292.27
277.99	1243.12
278.20	1251.31
278.42	1249.26
278.63	1277.93
278.85	1296.36
279.06	1249.26
279.28	1234.93
279.49	1273.84
279.71	1282.03
279.93	1339.37
280.14	1253.36
280.36	1345.52
280.57	1210.35
280.79	1265.64
281.00	1273.84
281.22	1312.75
281.43	1277.93
281.65	1302.51
281.86	1265.64
282.08	1300.46
282.29	1331.18
282.51	1286.12
282.73	1292.27
282.94	1247.21
283.16	1218.54
283.37	1222.64
283.59	1247.21
283.80	1339.37
284.02	1218.54
284.23	1226.73
284.45	1228.78
284.66	1300.46
284.88	1226.73
285.09	1335.28
285.31	1302.51
285.52	1257.45
285.74	1271.79
285.95	1277.93
286.17	1294.32
286.38	1275.88
286.60	1363.95
286.81	1220.59
287.03	1265.64
287.24	1263.60
287.46	1265.64
287.67	1243.12
287.89	1279.98
288.10	1322.99
288.32	1265.64
288.53	1318.89
288.75	1298.41
288.96	1228.78
289.18	1257.45
289.39	1232.88
289.61	1171.44
289.82	1267.69
290.04	1220.59
290.25	1241.07
290.47	1288.17
290.68	1255.40
290.90	1345.52
291.11	1191.92
291.33	1349.61
291.54	1271.79
291.76	1265.64
291.97	1247.21
292.18	1193.97
292.40	1265.64
292.61	1349.61
292.83	1302.51
293.04	1224.69
293.26	1189.87
293.47	1226.73
293.69	1320.94
293.90	1259.50
294.12	1259.50
294.33	1277.93
294.55	1296.36
294.76	1306.60
294.97	1302.51
295.19	1230.83
295.40	1265.64
295.62	1288.17
295.83	1216.49
296.05	1300.46
296.26	1275.88
296.48	1196.01
296.69	1230.83
296.90	1290.22
297.12	1210.35
297.33	1269.74
297.55	1267.69
297.76	1263.60
297.98	1333.23
298.19	1286.12
298.41	1247.21
298.62	1236.97
298.83	1216.49
299.05	1333.23
299.26	1239.02
299.48	1239.02
299.69	1230.83
299.90	1263.60
300.12	1249.26
300.33	1300.46
300.55	1294.32
300.76	1198.06
300.98	1290.22
301.19	1308.65
301.40	1298.41
301.62	1314.80
301.83	1220.59
302.05	1316.84
302.26	1257.45
302.47	1253.36
302.69	1265.64
302.90	1253.36
303.12	1284.08
303.33	1302.51
303.54	1261.55
303.76	1191.92
303.97	1310.70
304.19	1261.55
304.40	1273.84
304.61	1288.17
304.83	1277.93
305.04	1290.22
305.26	1253.36
305.47	1331.18
305.68	1282.03
305.90	1304.56
306.11	1327.08
306.33	1277.93
306.54	1316.84
306.75	1284.08
306.97	1308.65
307.18	1259.50
307.39	1308.65
307.61	1210.35
307.82	1327.08
308.04	1228.78
308.25	1298.41
308.46	1312.75
308.68	1300.46
308.89	1316.84
309.10	1282.03
309.32	1247.21
309.53	1236.97
309.74	1284.08
309.96	1236.97
310.17	1226.73
310.39	1277.93
310.60	1224.69
310.81	1255.40
311.03	1316.84
311.24	1275.88
311.45	1277.93
311.67	1312.75
311.88	1337.32
312.09	1327.08
312.31	1196.01
312.52	1290.22
312.73	1277.93
312.95	1298.41
313.16	1249.26
313.37	1228.78
313.59	1290.22
313.80	1232.88
314.01	1318.89
314.23	1220.59
314.44	1259.50
314.65	1265.64
314.87	1261.55
315.08	1331.18
315.29	1322.99
315.51	1206.25
315.72	1269.74
315.93	1196.01
316.15	1198.06
316.36	1343.47
316.57	1259.50
316.79	1257.45
317.00	1302.51
317.21	1245.16
317.43	1241.07
317.64	1316.84
317.85	1249.26
318.07	1290.22
318.28	1304.56
318.49	1267.69
318.70	1290.22
318.92	1288.17
319.13	1257.45
319.34	1275.88
319.56	1302.51
319.77	1212.40
319.98	1277.93
320.20	1290.22
320.41	1343.47
320.62	1390.57
320.83	1253.36
321.05	1306.60
321.26	1357.80
321.47	1304.56
321.69	1282.03
321.90	1200.11
322.11	1325.04
322.32	1265.64
322.54	1372.14
322.75	1222.64
322.96	1245.16
323.18	1269.74
323.39	1269.74
323.60	1206.25
323.81	1288.17
324.03	1206.25
324.24	1220.59
324.45	1292.27
324.66	1234.93
324.88	1245.16
325.09	1269.74
325.30	1236.97
325.52	1269.74
325.73	1230.83
325.94	1288.17
326.15	1282.03
326.37	1249.26
326.58	1273.84
326.79	1265.64
327.00	1269.74
327.22	1261.55
327.43	1181.68
327.64	1279.98
327.85	1224.69
328.07	1263.60
328.28	1216.49
328.49	1261.55
328.70	1228.78
328.92	1273.84
329.13	1245.16
329.34	1230.83
329.55	1251.31
329.76	1273.84
329.98	1224.69
330.19	1261.55
330.40	1265.64
330.61	1271.79
330.83	1208.30
331.04	1232.88
331.25	1251.31
331.46	1302.51
331.68	1306.60
331.89	1298.41
332.10	1267.69
332.31	1267.69
332.52	1286.12
332.74	1329.13
332.95	1263.60
333.16	1312.75
333.37	1253.36
333.58	1267.69
333.80	1224.69
334.01	1243.12
334.22	1247.21
334.43	1259.50
334.64	1222.64
334.86	1288.17
335.07	1196.01
335.28	1308.65
335.49	1273.84
335.70	1265.64
335.92	1310.70
336.13	1220.59
336.34	1161.20
336.55	1282.03
336.76	1269.74
336.98	1308.65
337.19	1282.03
337.40	1243.12
337.61	1333.23
337.82	1261.55
338.04	1286.12
338.25	1325.04
338.46	1224.69
338.67	1269.74
338.88	1253.36
339.09	1257.45
339.31	1263.60
339.52	1298.41
339.73	1249.26
339.94	1267.69
340.15	1239.02
340.36	1294.32
340.58	1214.45
340.79	1304.56
341.00	1253.36
341.21	1273.84
341.42	1222.64
341.63	1292.27
341.85	1236.97
342.06	1288.17
342.27	1216.49
342.48	1302.51
342.69	1271.79
342.90	1314.80
343.12	1296.36
343.33	1228.78
343.54	1173.49
343.75	1273.84
343.96	1282.03
344.17	1200.11
344.38	1265.64
344.60	1236.97
344.81	1255.40
345.02	1241.07
345.23	1228.78
345.44	1236.97
345.65	1257.45
345.86	1282.03
346.07	1255.40
346.29	1224.69
346.50	1277.93
346.71	1404.91
346.92	1255.40
347.13	1284.08
347.34	1249.26
347.55	1271.79
347.76	1275.88
347.98	1286.12
348.19	1331.18
348.40	1243.12
348.61	1267.69
348.82	1325.04
349.03	1249.26
349.24	1282.03
349.45	1263.60
349.66	1255.40
349.88	1269.74
350.09	1224.69
350.30	1277.93
350.51	1222.64
350.72	1345.52
350.93	1226.73
351.14	1286.12
351.35	1273.84
351.56	1269.74
351.77	1187.82
351.99	1314.80
352.20	1204.21
352.41	1333.23
352.62	1251.31
352.83	1316.84
353.04	1232.88
353.25	1273.84
353.46	1286.12
353.67	1322.99
353.88	1263.60
354.09	1214.45
354.30	1325.04
354.52	1322.99
354.73	1335.28
354.94	1241.07
355.15	1282.03
355.36	1310.70
355.57	1249.26
355.78	1292.27
355.99	1282.03
356.20	1290.22
356.41	1282.03
356.62	1335.28
356.83	1314.80
357.04	1279.98
357.25	1222.64
357.46	1286.12
357.68	1300.46
357.89	1298.41
358.10	1179.63
358.31	1265.64
358.52	1265.64
358.73	1196.01
358.94	1259.50
359.15	1267.69
359.36	1251.31
359.57	1335.28
359.78	1279.98
359.99	1239.02
360.20	1222.64
360.41	1243.12
360.62	1284.08
360.83	1286.12
361.04	1286.12
361.25	1222.64
361.46	1214.45
361.67	1236.97
361.88	1253.36
362.09	1310.70
362.30	1208.30
362.51	1212.40
362.72	1347.56
362.93	1290.22
363.14	1202.16
363.35	1290.22
363.56	1288.17
363.78	1259.50
363.99	1265.64
364.20	1251.31
364.41	1292.27
364.62	1265.64
364.83	1249.26
365.04	1271.79
365.25	1298.41
365.46	1331.18
365.67	1236.97
365.88	1273.84
366.09	1284.08
366.30	1335.28
366.51	1294.32
366.72	1396.71
366.93	1292.27
367.14	1265.64
367.35	1288.17
367.56	1241.07
367.77	1314.80
367.98	1308.65
368.18	1267.69
368.39	1265.64
368.60	1269.74
368.81	1255.40
369.02	1263.60
369.23	1259.50
369.44	1306.60
369.65	1329.13
369.86	1286.12
370.07	1241.07
370.28	1243.12
370.49	1271.79
370.70	1298.41
370.91	1234.93
371.12	1259.50
371.33	1347.56
371.54	1286.12
371.75	1298.41
371.96	1216.49
372.17	1253.36
372.38	1263.60
372.59	1316.84
372.80	1255.40
373.01	1294.32
373.22	1245.16
373.43	1292.27
373.64	1208.30
373.85	1241.07
374.06	1245.16
374.26	1294.32
374.47	1214.45
374.68	1239.02
374.89	1210.35
375.10	1245.16
375.31	1279.98
375.52	1327.08
375.73	1269.74
375.94	1241.07
376.15	1329.13
376.36	1249.26
376.57	1239.02
376.78	1259.50
376.99	1222.64
377.20	1298.41
377.40	1316.84
377.61	1279.98
377.82	1286.12
378.03	1286.12
378.24	1267.69
378.45	1259.50
378.66	1230.83
378.87	1212.40
379.08	1228.78
379.29	1255.40
379.50	1249.26
379.71	1282.03
379.91	1259.50
380.12	1363.95
380.33	1325.04
380.54	1271.79
380.75	1331.18
380.96	1279.98
381.17	1310.70
381.38	1247.21
381.59	1343.47
381.80	1314.80
382.00	1279.98
382.21	1302.51
382.42	1245.16
382.63	1290.22
382.84	1232.88
383.05	1263.60
383.26	1282.03
383.47	1257.45
383.68	1247.21
383.88	1198.06
384.09	1271.79
384.30	1267.69
384.51	1308.65
384.72	1279.98
384.93	1318.89
385.14	1236.97
385.35	1245.16
385.55	1316.84
385.76	1265.64
385.97	1187.82
386.18	1304.56
386.39	1239.02
386.60	1265.64
386.81	1241.07
387.02	1241.07
387.22	1298.41
387.43	1265.64
387.64	1318.89
387.85	1308.65
388.06	1261.55
388.27	1247.21
388.48	1292.27
388.68	1279.98
388.89	1288.17
389.10	1239.02
389.31	1277.93
389.52	1312.75
389.73	1345.52
389.93	1251.31
390.14	1331.18
390.35	1312.75
390.56	1257.45
390.77	1234.93
390.98	1267.69
391.18	1304.56
391.39	1243.12
391.60	1279.98
391.81	1269.74
392.02	1282.03
392.23	1249.26
392.43	1308.65
392.64	1224.69
392.85	1198.06
393.06	1343.47
393.27	1271.79
393.47	1267.69
393.68	1302.51
393.89	1253.36
394.10	1212.40
394.31	1230.83
394.52	1343.47
394.72	1210.35
394.93	1206.25
395.14	1247.21
395.35	1241.07
395.56	1282.03
395.76	1230.83
395.97	1300.46
396.18	1288.17
396.39	1320.94
396.60	1298.41
396.80	1339.37
397.01	1236.97
397.22	1331.18
397.43	1284.08
397.64	1198.06
397.84	1218.54
398.05	1267.69
398.26	1261.55
398.47	1320.94
398.67	1320.94
398.88	1267.69
399.09	1290.22
399.30	1239.02
399.51	1288.17
399.71	1239.02
399.92	1318.89
400.13	1206.25
400.34	1224.69
400.54	1212.40
400.75	1294.32
400.96	1286.12
401.17	1345.52
401.37	1255.40
401.58	1261.55
401.79	1212.40
402.00	1327.08
402.21	1224.69
402.41	1351.66
402.62	1216.49
402.83	1277.93
403.04	1261.55
403.24	1286.12
403.45	1212.40
403.66	1273.84
403.87	1286.12
404.07	1236.97
404.28	1286.12
404.49	1230.83
404.70	1165.29
404.90	1329.13
405.11	1318.89
405.32	1265.64
405.52	1243.12
405.73	1290.22
405.94	1224.69
406.15	1259.50
406.35	1271.79
406.56	1318.89
406.77	1294.32
406.98	1284.08
407.18	1249.26
407.39	1222.64
407.60	1171.44
407.80	1232.88
408.01	1259.50
408.22	1329.13
408.43	1310.70
408.63	1249.26
408.84	1208.30
409.05	1265.64
409.25	1261.55
409.46	1292.27
409.67	1230.83
409.88	1239.02
410.08	1236.97
410.29	1255.40
410.50	1245.16
410.70	1175.53
410.91	1249.26
411.12	1290.22
411.32	1255.40
411.53	1310.70
411.74	1267.69
411.95	1279.98
412.15	1284.08
412.36	1316.84
412.57	1265.64
412.77	1253.36
412.98	1284.08
413.19	1302.51
413.39	1267.69
413.60	1267.69
413.81	1165.29
414.01	1284.08
414.22	1220.59
414.43	1312.75
414.63	1271.79
414.84	1273.84
415.05	1327.08
415.25	1263.60
415.46	1210.35
415.67	1312.75
415.87	1282.03
416.08	1253.36
416.29	1257.45
416.49	1247.21
416.70	1279.98
416.91	1255.40
417.11	1257.45
417.32	1243.12
417.53	1253.36
417.73	1253.36
417.94	1214.45
418.15	1263.60
418.35	1298.41
418.56	1257.45
418.77	1290.22
418.97	1296.36
419.18	1206.25
419.38	1302.51
419.59	1292.27
419.80	1292.27
420.00	1247.21
420.21	1277.93
420.42	1314.80
420.62	1343.47
420.83	1228.78
421.04	1279.98
421.24	1279.98
421.45	1273.84
421.65	1216.49
421.86	1259.50
422.07	1322.99
422.27	1294.32
422.48	1296.36
422.69	1288.17
422.89	1257.45
423.10	1282.03
423.30	1290.22
423.51	1310.70
423.72	1282.03
423.92	1230.83
424.13	1273.84
424.33	1230.83
424.54	1257.45
424.75	1241.07
424.95	1304.56
425.16	1304.56
425.36	1249.26
425.57	1286.12
425.78	1191.92
425.98	1290.22
426.19	1226.73
426.39	1239.02
426.60	1259.50
426.81	1282.03
427.01	1277.93
427.22	1292.27
427.42	1204.21
427.63	1310.70
427.83	1247.21
428.04	1251.31
428.25	1300.46
428.45	1206.25
428.66	1292.27
428.86	1312.75
429.07	1249.26
429.28	1312.75
429.48	1189.87
429.69	1200.11
429.89	1298.41
430.10	1208.30
430.30	1275.88
430.51	1325.04
430.71	1339.37
430.92	1294.32
431.13	1241.07
431.33	1269.74
431.54	1216.49
431.74	1296.36
431.95	1304.56
432.15	1308.65
432.36	1261.55
432.56	1284.08
432.77	1165.29
432.98	1249.26
433.18	1298.41
433.39	1261.55
433.59	1253.36
433.80	1234.93
434.00	1286.12
434.21	1314.80
434.41	1333.23
434.62	1282.03
434.82	1271.79
435.03	1269.74
435.23	1234.93
435.44	1294.32
435.64	1261.55
435.85	1290.22
436.06	1333.23
436.26	1333.23
436.47	1226.73
436.67	1306.60
436.88	1247.21
437.08	1263.60
437.29	1253.36
437.49	1267.69
437.70	1269.74
437.90	1294.32
438.11	1220.59
438.31	1253.36
438.52	1282.03
438.72	1253.36
438.93	1288.17
439.13	1234.93
439.34	1265.64
439.54	1153.01
439.75	1220.59
439.95	1306.60
440.16	1294.32
440.36	1232.88
440.57	1343.47
440.77	1247.21
440.98	1249.26
441.18	1308.65
441.39	1322.99
441.59	1232.88
441.80	1329.13
442.00	1243.12
442.21	1288.17
442.41	1265.64
442.62	1296.36
442.82	1298.41
443.02	1275.88
443.23	1222.64
443.43	1273.84
443.64	1290.22
443.84	1275.88
444.05	1239.02
444.25	1279.98
444.46	1290.22
444.66	1212.40
444.87	1271.79
445.07	1247.21
445.28	1273.84
445.48	1228.78
445.69	1292.27
445.89	1267.69
446.09	1247.21
446.30	1314.80
446.50	1345.52
446.71	1273.84
446.91	1286.12
447.12	1257.45
447.32	1232.88
447.53	1261.55
447.73	1234.93
447.93	1218.54
448.14	1327.08
448.34	1279.98
448.55	1320.94
448.75	1286.12
448.96	1302.51
449.16	1267.69
449.36	1277.93
449.57	1318.89
449.77	1243.12
449.98	1277.93
450.18	1286.12
450.39	1363.95
450.59	1255.40
450.79	1282.03
451.00	1312.75
451.20	1267.69
451.41	1339.37
451.61	1275.88
451.81	1265.64
452.02	1251.31
452.22	1259.50
452.43	1296.36
452.63	1302.51
452.84	1331.18
453.04	1257.45
453.24	1292.27
453.45	1286.12
453.65	1312.75
453.86	1294.32
454.06	1312.75
454.26	1282.03
454.47	1294.32
454.67	1302.51
454.87	1249.26
455.08	1261.55
455.28	1271.79
455.49	1318.89
455.69	1265.64
455.89	1290.22
456.10	1261.55
456.30	1241.07
456.51	1247.21
456.71	1310.70
456.91	1241.07
457.12	1247.21
457.32	1288.17
457.52	1269.74
457.73	1257.45
457.93	1304.56
458.14	1329.13
458.34	1341.42
458.54	1269.74
458.75	1312.75
458.95	1368.04
459.15	1312.75
459.36	1302.51
459.56	1271.79
459.76	1306.60
459.97	1222.64
460.17	1318.89
460.37	1284.08
460.58	1271.79
460.78	1277.93
460.99	1308.65
461.19	1296.36
461.39	1288.17
461.60	1241.07
461.80	1325.04
462.00	1306.60
462.21	1322.99
462.41	1265.64
462.61	1214.45
462.82	1206.25
463.02	1345.52
463.22	1234.93
463.43	1267.69
463.63	1247.21
463.83	1322.99
464.04	1282.03
464.24	1183.73
464.44	1193.97
464.64	1361.90
464.85	1257.45
465.05	1333.23
465.25	1306.60
465.46	1290.22
465.66	1271.79
465.86	1290.22
466.07	1228.78
466.27	1298.41
466.47	1206.25
466.68	1222.64
466.88	1282.03
467.08	1222.64
467.29	1232.88
467.49	1181.68
467.69	1253.36
467.89	1327.08
468.10	1279.98
468.30	1298.41
468.50	1331.18
468.71	1251.31
468.91	1249.26
469.11	1306.60
469.31	1282.03
469.52	1255.40
469.72	1273.84
469.92	1271.79
470.13	1370.09
470.33	1255.40
470.53	1269.74
470.73	1257.45
470.94	1335.28
471.14	1224.69
471.34	1273.84
471.54	1230.83
471.75	1251.31
471.95	1288.17
472.15	1335.28
472.36	1259.50
472.56	1290.22
472.76	1329.13
472.96	1298.41
473.17	1294.32
473.37	1327.08
473.57	1259.50
473.77	1222.64
473.98	1306.60
474.18	1290.22
474.38	1304.56
474.58	1265.64
474.79	1302.51
474.99	1271.79
475.19	1349.61
475.39	1234.93
475.60	1282.03
475.80	1208.30
476.00	1269.74
476.20	1210.35
476.41	1275.88
476.61	1284.08
476.81	1310.70
477.01	1232.88
477.21	1290.22
477.42	1286.12
477.62	1259.50
477.82	1249.26
478.02	1241.07
478.23	1263.60
478.43	1224.69
478.63	1267.69
478.83	1286.12
479.03	1333.23
479.24	1284.08
479.44	1277.93
479.64	1286.12
479.84	1282.03
480.04	1282.03
480.25	1339.37
480.45	1241.07
480.65	1198.06
480.85	1308.65
481.06	1273.84
481.26	1257.45
481.46	1228.78
481.66	1312.75
481.86	1232.88
482.06	1310.70
482.27	1277.93
482.47	1247.21
482.67	1294.32
482.87	1249.26
483.07	1251.31
483.28	1288.17
483.48	1290.22
483.68	1322.99
483.88	1279.98
484.08	1230.83
484.29	1228.78
484.49	1218.54
484.69	1206.25
484.89	1306.60
485.09	1271.79
485.29	1355.76
485.50	1290.22
485.70	1288.17
485.90	1286.12
486.10	1247.21
486.30	1335.28
486.50	1228.78
486.71	1230.83
486.91	1306.60
487.11	1327.08
487.31	1284.08
487.51	1241.07
487.71	1226.73
487.91	1322.99
488.12	1320.94
488.32	1259.50
488.52	1296.36
488.72	1241.07
488.92	1255.40
489.12	1304.56
489.32	1236.97
489.53	1224.69
489.73	1327.08
489.93	1286.12
490.13	1271.79
490.33	1228.78
490.53	1271.79
490.73	1263.60
490.94	1298.41
491.14	1331.18
491.34	1308.65
491.54	1357.80
491.74	1255.40
491.94	1271.79
492.14	1218.54
492.34	1269.74
492.54	1282.03
492.75	1241.07
492.95	1349.61
493.15	1269.74
493.35	1247.21
493.55	1251.31
493.75	1292.27
493.95	1290.22
494.15	1249.26
494.35	1265.64
494.56	1271.79
494.76	1353.71
494.96	1312.75
495.16	1302.51
495.36	1200.11
495.56	1308.65
495.76	1288.17
495.96	1279.98
496.16	1216.49
496.36	1279.98
496.56	1300.46
496.77	1277.93
496.97	1282.03
497.17	1288.17
497.37	1298.41
497.57	1294.32
497.77	1282.03
497.97	1296.36
498.17	1347.56
498.37	1269.74
498.57	1220.59
498.77	1230.83
498.97	1310.70
499.17	1378.28
499.38	1253.36
499.58	1267.69
499.78	1236.97
499.98	1320.94
500.18	1316.84
500.38	1316.84
500.58	1196.01
500.78	1310.70
500.98	1312.75
501.18	1355.76
501.38	1349.61
501.58	1226.73
501.78	1298.41
501.98	1255.40
502.18	1230.83
502.38	1273.84
502.58	1288.17
502.78	1273.84
502.98	1191.92
503.18	1269.74
503.38	1327.08
503.59	1341.42
503.79	1339.37
503.99	1251.31
504.19	1355.76
504.39	1236.97
504.59	1271.79
504.79	1288.17
504.99	1318.89
505.19	1220.59
505.39	1322.99
505.59	1257.45
505.79	1251.31
505.99	1265.64
506.19	1284.08
506.39	1257.45
506.59	1198.06
506.79	1286.12
506.99	1290.22
507.19	1216.49
507.39	1286.12
507.59	1322.99
507.79	1294.32
507.99	1271.79
508.19	1273.84
508.39	1282.03
508.59	1277.93
508.79	1247.21
508.99	1298.41
509.19	1318.89
509.39	1265.64
509.59	1286.12
509.79	1343.47
509.99	1263.60
510.19	1302.51
510.39	1255.40
510.59	1290.22
510.79	1290.22
510.99	1314.80
511.19	1249.26
511.39	1206.25
511.59	1282.03
511.79	1288.17
511.99	1245.16
512.19	1290.22
512.38	1286.12
512.58	1312.75
512.78	1275.88
512.98	1308.65
513.18	1230.83
513.38	1224.69
513.58	1273.84
513.78	1263.60
513.98	1279.98
514.18	1290.22
514.38	1335.28
514.58	1292.27
514.78	1265.64
514.98	1271.79
515.18	1273.84
515.38	1279.98
515.58	1353.71
515.78	1226.73
515.98	1267.69
516.18	1282.03
516.38	1347.56
516.57	1357.80
516.77	1253.36
516.97	1290.22
517.17	1253.36
517.37	1288.17
517.57	1288.17
517.77	1269.74
517.97	1265.64
518.17	1232.88
518.37	1282.03
518.57	1261.55
518.77	1267.69
518.97	1400.81
519.16	1318.89
519.36	1304.56
519.56	1249.26
519.76	1259.50
519.96	1257.45
520.16	1335.28
520.36	1320.94
520.56	1269.74
520.76	1220.59
520.96	1259.50
521.16	1249.26
521.35	1216.49
521.55	1279.98
521.75	1277.93
521.95	1304.56
522.15	1226.73
522.35	1282.03
522.55	1249.26
522.75	1261.55
522.95	1331.18
523.14	1331.18
523.34	1284.08
523.54	1294.32
523.74	1241.07
523.94	1277.93
524.14	1290.22
524.34	1312.75
524.54	1284.08
524.73	1318.89
524.93	1271.79
525.13	1308.65
525.33	1325.04
525.53	1308.65
525.73	1249.26
525.93	1290.22
526.13	1275.88
526.32	1304.56
526.52	1257.45
526.72	1304.56
526.92	1306.60
527.12	1320.94
527.32	1277.93
527.52	1265.64
527.71	1306.60
527.91	1345.52
528.11	1239.02
528.31	1318.89
528.51	1335.28
528.71	1249.26
528.90	1224.69
529.10	1308.65
529.30	1298.41
529.50	1312.75
529.70	1259.50
529.90	1232.88
530.09	1294.32
530.29	1312.75
530.49	1331.18
530.69	1253.36
530.89	1286.12
531.09	1263.60
531.28	1214.45
531.48	1282.03
531.68	1279.98
531.88	1320.94
532.08	1241.07
532.28	1345.52
532.47	1243.12
532.67	1314.80
532.87	1304.56
533.07	1347.56
533.27	1363.95
533.46	1216.49
533.66	1370.09
533.86	1282.03
534.06	1277.93
534.26	1320.94
534.45	1316.84
534.65	1253.36
534.85	1271.79
535.05	1304.56
535.25	1286.12
535.44	1263.60
535.64	1269.74
535.84	1325.04
536.04	1337.32
536.24	1359.85
536.43	1259.50
536.63	1294.32
536.83	1318.89
537.03	1341.42
537.22	1275.88
537.42	1279.98
537.62	1202.16
537.82	1253.36
538.02	1298.41
538.21	1310.70
538.41	1331.18
538.61	1300.46
538.81	1366.00
539.00	1318.89
539.20	1275.88
539.40	1257.45
539.60	1355.76
539.79	1335.28
539.99	1325.04
540.19	1314.80
540.39	1302.51
540.58	1263.60
540.78	1282.03
540.98	1269.74
541.18	1306.60
541.37	1298.41
541.57	1261.55
541.77	1349.61
541.97	1308.65
542.16	1331.18
542.36	1267.69
542.56	1296.36
542.76	1296.36
542.95	1376.24
543.15	1306.60
543.35	1298.41
543.54	1214.45
543.74	1263.60
543.94	1292.27
544.14	1263.60
544.33	1187.82
544.53	1296.36
544.73	1322.99
544.93	1243.12
545.12	1243.12
545.32	1288.17
545.52	1292.27
545.71	1226.73
545.91	1310.70
546.11	1247.21
546.30	1277.93
546.50	1363.95
546.70	1265.64
546.90	1292.27
547.09	1368.04
547.29	1226.73
547.49	1183.73
547.68	1255.40
547.88	1279.98
548.08	1318.89
548.27	1251.31
548.47	1243.12
548.67	1341.42
548.87	1290.22
549.06	1282.03
549.26	1347.56
549.46	1310.70
549.65	1267.69
549.85	1269.74
550.05	1296.36
550.24	1251.31
550.44	1261.55
550.64	1218.54
550.83	1277.93
551.03	1245.16
551.23	1204.21
551.42	1267.69
551.62	1298.41
551.82	1253.36
552.01	1288.17
552.21	1253.36
552.41	1267.69
552.60	1259.50
552.80	1322.99
553.00	1255.40
553.19	1288.17
553.39	1271.79
553.59	1298.41
553.78	1300.46
553.98	1343.47
554.17	1341.42
554.37	1218.54
554.57	1337.32
554.76	1304.56
554.96	1302.51
555.16	1347.56
555.35	1296.36
555.55	1193.97
555.75	1306.60
555.94	1275.88
556.14	1210.35
556.33	1355.76
556.53	1245.16
556.73	1208.30
556.92	1269.74
557.12	1337.32
557.32	1236.97
557.51	1259.50
557.71	1296.36
557.90	1357.80
558.10	1261.55
558.30	1275.88
558.49	1292.27
558.69	1275.88
558.88	1318.89
559.08	1304.56
559.28	1294.32
559.47	1273.84
559.67	1222.64
559.86	1247.21
560.06	1284.08
560.26	1327.08
560.45	1339.37
560.65	1316.84
560.84	1259.50
561.04	1343.47
561.24	1316.84
561.43	1275.88
561.63	1292.27
561.82	1245.16
562.02	1263.60
562.22	1298.41
562.41	1208.30
562.61	1216.49
562.80	1232.88
563.00	1255.40
563.19	1302.51
563.39	1308.65
563.59	1296.36
563.78	1355.76
563.98	1273.84
564.17	1363.95
564.37	1290.22
564.56	1314.80
564.76	1259.50
564.96	1304.56
565.15	1363.95
565.35	1329.13
565.54	1294.32
565.74	1308.65
565.93	1286.12
566.13	1265.64
566.32	1255.40
566.52	1316.84
566.71	1306.60
566.91	1294.32
567.11	1212.40
567.30	1277.93
567.50	1368.04
567.69	1286.12
567.89	1353.71
568.08	1318.89
568.28	1284.08
568.47	1269.74
568.67	1279.98
568.86	1267.69
569.06	1271.79
569.25	1325.04
569.45	1320.94
569.64	1279.98
569.84	1306.60
570.04	1279.98
570.23	1265.64
570.43	1347.56
570.62	1230.83
570.82	1288.17
571.01	1253.36
571.21	1243.12
571.40	1292.27
571.60	1316.84
571.79	1255.40
571.99	1216.49
572.18	1318.89
572.38	1304.56
572.57	1347.56
572.77	1253.36
572.96	1310.70
573.16	1306.60
573.35	1243.12
573.55	1298.41
573.74	1198.06
573.94	1282.03
574.13	1277.93
574.33	1312.75
574.52	1292.27
574.71	1290.22
574.91	1316.84
575.10	1230.83
575.30	1245.16
575.49	1257.45
575.69	1314.80
575.88	1279.98
576.08	1251.31
576.27	1265.64
576.47	1286.12
576.66	1296.36
576.86	1306.60
577.05	1282.03
577.25	1241.07
577.44	1290.22
577.64	1263.60
577.83	1320.94
578.02	1269.74
578.22	1304.56
578.41	1331.18
578.61	1253.36
578.80	1345.52
579.00	1314.80
579.19	1222.64
579.39	1255.40
579.58	1261.55
579.77	1337.32
579.97	1257.45
580.16	1294.32
580.36	1314.80
580.55	1343.47
580.75	1308.65
580.94	1273.84
581.13	1320.94
581.33	1259.50
581.52	1261.55
581.72	1298.41
581.91	1214.45
582.11	1267.69
582.30	1249.26
582.49	1279.98
582.69	1259.50
582.88	1316.84
583.08	1306.60
583.27	1263.60
583.47	1267.69
583.66	1314.80
583.85	1263.60
584.05	1306.60
584.24	1331.18
584.44	1337.32
584.63	1322.99
584.82	1343.47
585.02	1271.79
585.21	1269.74
585.41	1236.97
585.60	1253.36
585.79	1171.44
585.99	1261.55
586.18	1271.79
586.37	1282.03
586.57	1355.76
586.76	1269.74
586.96	1275.88
587.15	1320.94
587.34	1275.88
587.54	1335.28
587.73	1282.03
587.93	1314.80
588.12	1255.40
588.31	1318.89
588.51	1341.42
588.70	1265.64
588.89	1247.21
589.09	1357.80
589.28	1302.51
589.47	1288.17
589.67	1351.66
589.86	1335.28
590.06	1314.80
590.25	1290.22
590.44	1306.60
590.64	1286.12
590.83	1257.45
591.02	1335.28
591.22	1261.55
591.41	1269.74
591.60	1224.69
591.80	1359.85
591.99	1277.93
592.18	1310.70
592.38	1245.16
592.57	1296.36
592.76	1226.73
592.96	1273.84
593.15	1267.69
593.34	1304.56
593.54	1294.32
593.73	1249.26
593.92	1310.70
594.12	1337.32
594.31	1286.12
594.50	1363.95
594.70	1271.79
594.89	1353.71
595.08	1212.40
595.28	1247.21
595.47	1411.05
595.66	1288.17
595.86	1286.12
596.05	1298.41
596.24	1322.99
596.43	1304.56
596.63	1232.88
596.82	1322.99
597.01	1298.41
597.21	1347.56
597.40	1241.07
597.59	1302.51
597.79	1300.46
597.98	1263.60
598.17	1243.12
598.36	1331.18
598.56	1302.51
598.75	1306.60
598.94	1318.89
599.14	1277.93
599.33	1257.45
599.52	1251.31
599.71	1343.47
599.91	1325.04
600.10	1294.32
600.29	1273.84
600.48	1343.47
600.68	1273.84
600.87	1267.69
601.06	1374.19
601.26	1251.31
601.45	1273.84
601.64	1261.55
601.83	1279.98
602.03	1247.21
602.22	1292.27
602.41	1265.64
602.60	1282.03
602.80	1331.18
602.99	1234.93
603.18	1245.16
603.37	1273.84
603.57	1296.36
603.76	1306.60
603.95	1290.22
604.14	1318.89
604.34	1327.08
604.53	1325.04
604.72	1255.40
604.91	1259.50
605.10	1284.08
605.30	1290.22
605.49	1349.61
605.68	1269.74
605.87	1343.47
606.07	1279.98
606.26	1294.32
606.45	1312.75
606.64	1271.79
606.84	1212.40
607.03	1292.27
607.22	1253.36
607.41	1282.03
607.60	1310.70
607.80	1253.36
607.99	1267.69
608.18	1286.12
608.37	1243.12
608.56	1286.12
608.76	1347.56
608.95	1318.89
609.14	1363.95
609.33	1279.98
609.52	1312.75
609.72	1282.03
609.91	1277.93
610.10	1347.56
610.29	1292.27
610.48	1206.25
610.68	1318.89
610.87	1150.96
611.06	1255.40
611.25	1202.16
611.44	1286.12
611.63	1325.04
611.83	1239.02
612.02	1308.65
612.21	1241.07
612.40	1279.98
612.59	1261.55
612.79	1243.12
612.98	1310.70
613.17	1257.45
613.36	1312.75
613.55	1351.66
613.74	1234.93
613.93	1337.32
614.13	1306.60
614.32	1257.45
614.51	1318.89
614.70	1308.65
614.89	1241.07
615.08	1322.99
615.28	1265.64
615.47	1228.78
615.66	1226.73
615.85	1304.56
616.04	1273.84
616.23	1288.17
616.42	1273.84
616.62	1255.40
616.81	1273.84
617.00	1322.99
617.19	1292.27
617.38	1226.73
617.57	1273.84
617.76	1239.02
617.95	1255.40
618.15	1282.03
618.34	1298.41
618.53	1282.03
618.72	1290.22
618.91	1241.07
619.10	1284.08
619.29	1243.12
619.48	1306.60
619.68	1253.36
619.87	1265.64
620.06	1261.55
620.25	1359.85
620.44	1279.98
620.63	1339.37
620.82	1298.41
621.01	1204.21
621.20	1306.60
621.39	1290.22
621.59	1271.79
621.78	1279.98
621.97	1273.84
622.16	1222.64
622.35	1282.03
622.54	1296.36
622.73	1333.23
622.92	1234.93
623.11	1230.83
623.30	1265.64
623.49	1267.69
623.68	1314.80
623.88	1220.59
624.07	1304.56
624.26	1196.01
624.45	1239.02
624.64	1269.74
624.83	1320.94
625.02	1249.26
625.21	1296.36
625.40	1275.88
625.59	1290.22
625.78	1247.21
625.97	1341.42
626.16	1269.74
626.35	1300.46
626.54	1241.07
626.74	1335.28
626.93	1279.98
627.12	1341.42
627.31	1232.88
627.50	1267.69
627.69	1284.08
627.88	1396.71
628.07	1345.52
628.26	1232.88
628.45	1257.45
628.64	1300.46
628.83	1245.16
629.02	1228.78
629.21	1306.60
629.40	1429.48
629.59	1279.98
629.78	1337.32
629.97	1288.17
630.16	1247.21
630.35	1234.93
630.54	1331.18
630.73	1347.56
630.92	1370.09
631.11	1294.32
631.30	1320.94
631.49	1388.52
631.68	1357.80
631.87	1396.71
632.06	1445.87
632.25	1415.15
632.44	1464.30
632.63	1427.43
632.82	1429.48
633.01	1447.91
633.20	1413.10
633.39	1423.34
633.58	1464.30
633.77	1361.90
633.96	1478.63
634.15	1505.26
634.34	1667.05
634.53	1820.64
634.72	1644.52
634.91	1468.39
635.10	1490.92
635.29	1611.75
635.48	1730.53
635.67	1773.54
635.86	1820.64
636.05	1658.85
636.24	1544.17
636.43	1517.54
636.62	1533.93
636.81	1437.67
637.00	1427.43
637.19	1406.95
637.38	1339.37
637.57	1347.56
637.76	1370.09
637.95	1333.23
638.14	1282.03
638.33	1322.99
638.52	1269.74
638.71	1347.56
638.89	1322.99
639.08	1290.22
639.27	1288.17
639.46	1279.98
639.65	1290.22
639.84	1304.56
640.03	1312.75
640.22	1310.70
640.41	1335.28
640.60	1316.84
640.79	1214.45
640.98	1300.46
641.17	1251.31
641.36	1228.78
641.55	1265.64
641.74	1261.55
641.92	1255.40
642.11	1257.45
642.30	1224.69
642.49	1310.70
642.68	1216.49
642.87	1265.64
643.06	1273.84
643.25	1302.51
643.44	1282.03
643.63	1255.40
643.82	1257.45
644.00	1273.84
644.19	1402.86
644.38	1308.65
644.57	1282.03
644.76	1316.84
644.95	1249.26
645.14	1300.46
645.33	1282.03
645.52	1292.27
645.71	1245.16
645.89	1279.98
646.08	1318.89
646.27	1310.70
646.46	1245.16
646.65	1343.47
646.84	1265.64
647.03	1261.55
647.22	1253.36
647.40	1288.17
647.59	1269.74
647.78	1271.79
647.97	1292.27
648.16	1261.55
648.35	1265.64
648.54	1271.79
648.73	1368.04
648.91	1277.93
649.10	1306.60
649.29	1363.95
649.48	1241.07
649.67	1245.16
649.86	1290.22
650.05	1267.69
650.23	1335.28
650.42	1308.65
650.61	1245.16
650.80	1310.70
650.99	1267.69
651.18	1335.28
651.36	1243.12
651.55	1232.88
651.74	1384.43
651.93	1355.76
652.12	1265.64
652.31	1298.41
652.49	1263.60
652.68	1236.97
652.87	1402.86
653.06	1302.51
653.25	1241.07
653.44	1310.70
653.62	1267.69
653.81	1286.12
654.00	1343.47
654.19	1310.70
654.38	1318.89
654.56	1273.84
654.75	1267.69
654.94	1331.18
655.13	1271.79
655.32	1216.49
655.51	1241.07
655.69	1230.83
655.88	1208.30
656.07	1208.30
656.26	1232.88
656.45	1196.01
656.63	1232.88
656.82	1279.98
657.01	1314.80
657.20	1247.21
657.38	1359.85
657.57	1239.02
657.76	1279.98
657.95	1302.51
658.14	1363.95
658.32	1269.74
658.51	1337.32
658.70	1232.88
658.89	1275.88
659.08	1208.30
659.26	1255.40
659.45	1245.16
659.64	1241.07
659.83	1275.88
660.01	1370.09
660.20	1273.84
660.39	1257.45
660.58	1206.25
660.76	1288.17
660.95	1226.73
661.14	1320.94
661.33	1292.27
661.51	1288.17
661.70	1310.70
661.89	1275.88
662.08	1312.75
662.26	1255.40
662.45	1255.40
662.64	1282.03
662.83	1304.56
663.01	1259.50
663.20	1202.16
663.39	1273.84
663.58	1251.31
663.76	1288.17
663.95	1318.89
664.14	1247.21
664.32	1267.69
664.51	1220.59
664.70	1290.22
664.89	1228.78
665.07	1222.64
665.26	1312.75
665.45	1167.34
665.64	1359.85
665.82	1267.69
666.01	1273.84
666.20	1279.98
666.38	1320.94
666.57	1210.35
666.76	1296.36
666.95	1298.41
667.13	1265.64
667.32	1249.26
667.51	1290.22
667.69	1253.36
667.88	1308.65
668.07	1245.16
668.25	1273.84
668.44	1290.22
668.63	1265.64
668.81	1294.32
669.00	1273.84
669.19	1382.38
669.38	1310.70
669.56	1308.65
669.75	1212.40
669.94	1204.21
670.12	1267.69
670.31	1300.46
670.50	1218.54
670.68	1335.28
670.87	1286.12
671.06	1253.36
671.24	1296.36
671.43	1331.18
671.62	1261.55
671.80	1290.22
671.99	1318.89
672.18	1343.47
672.36	1273.84
672.55	1261.55
672.74	1224.69
672.92	1232.88
673.11	1337.32
673.29	1292.27
673.48	1279.98
673.67	1251.31
673.85	1290.22
674.04	1265.64
674.23	1222.64
674.41	1290.22
674.60	1286.12
674.79	1284.08
674.97	1275.88
675.16	1308.65
675.34	1247.21
675.53	1302.51
675.72	1320.94
675.90	1341.42
676.09	1265.64
676.28	1318.89
676.46	1286.12
676.65	1279.98
676.83	1239.02
677.02	1253.36
677.21	1288.17
677.39	1269.74
677.58	1239.02
677.77	1255.40
677.95	1300.46
678.14	1314.80
678.32	1277.93
678.51	1306.60
678.70	1210.35
678.88	1290.22
679.07	1267.69
679.25	1204.21
679.44	1236.97
679.63	1269.74
679.81	1267.69
680.00	1243.12
680.18	1269.74
680.37	1177.58
680.55	1275.88
680.74	1257.45
680.93	1288.17
681.11	1339.37
681.30	1294.32
681.48	1292.27
681.67	1259.50
681.85	1302.51
682.04	1263.60
682.23	1286.12
682.41	1304.56
682.60	1359.85
682.78	1286.12
682.97	1132.53
683.15	1214.45
683.34	1294.32
683.53	1206.25
683.71	1322.99
683.90	1259.50
684.08	1308.65
684.27	1288.17
684.45	1275.88
684.64	1288.17
684.82	1263.60
685.01	1339.37
685.19	1259.50
685.38	1284.08
685.57	1239.02
685.75	1312.75
685.94	1226.73
686.12	1320.94
686.31	1277.93
686.49	1333.23
686.68	1249.26
686.86	1271.79
687.05	1271.79
687.23	1241.07
687.42	1253.36
687.60	1265.64
687.79	1325.04
687.97	1236.97
688.16	1230.83
688.34	1275.88
688.53	1171.44
688.71	1300.46
688.90	1322.99
689.08	1288.17
689.27	1300.46
689.45	1263.60
689.64	1251.31
689.82	1290.22
690.01	1245.16
690.19	1224.69
690.38	1220.59
690.56	1226.73
690.75	1275.88
690.93	1306.60
691.12	1294.32
691.30	1265.64
691.49	1236.97
691.67	1300.46
691.86	1277.93
692.04	1216.49
692.23	1275.88
692.41	1265.64
692.60	1226.73
692.78	1308.65
692.97	1335.28
693.15	1286.12
693.34	1310.70
693.52	1263.60
693.71	1245.16
693.89	1263.60
694.08	1275.88
694.26	1279.98
694.44	1259.50
694.63	1249.26
694.81	1212.40
695.00	1234.93
695.18	1277.93
695.37	1269.74
695.55	1245.16
695.74	1208.30
695.92	1275.88
696.10	1282.03
696.29	1263.60
696.47	1265.64
696.66	1214.45
696.84	1257.45
697.03	1322.99
697.21	1304.56
697.40	1255.40
697.58	1318.89
697.76	1300.46
697.95	1273.84
698.13	1265.64
698.32	1294.32
698.50	1247.21
698.68	1310.70
698.87	1267.69
699.05	1269.74
699.24	1290.22
699.42	1282.03
699.61	1230.83
699.79	1265.64
699.97	1226.73
700.16	1257.45
700.34	1329.13
700.53	1245.16
700.71	1239.02
700.89	1234.93
701.08	1214.45
701.26	1292.27
701.45	1292.27
701.63	1230.83
701.81	1216.49
702.00	1306.60
702.18	1267.69
702.37	1214.45
702.55	1304.56
702.73	1370.09
702.92	1271.79
703.10	1236.97
703.28	1273.84
703.47	1271.79
703.65	1239.02
703.84	1234.93
704.02	1251.31
704.20	1300.46
704.39	1329.13
704.57	1298.41
704.75	1247.21
704.94	1322.99
705.12	1230.83
705.30	1277.93
705.49	1247.21
705.67	1232.88
705.86	1333.23
706.04	1302.51
706.22	1173.49
706.41	1284.08
706.59	1290.22
706.77	1282.03
706.96	1257.45
707.14	1255.40
707.32	1249.26
707.51	1275.88
707.69	1294.32
707.87	1290.22
708.06	1349.61
708.24	1322.99
708.42	1208.30
708.61	1249.26
708.79	1308.65
708.97	1322.99
709.16	1359.85
709.34	1273.84
709.52	1277.93
709.71	1261.55
709.89	1294.32
710.07	1183.73
710.26	1171.44
710.44	1218.54
710.62	1304.56
710.80	1159.15
710.99	1142.77
711.17	1302.51
711.35	1228.78
711.54	1257.45
711.72	1292.27
711.90	1345.52
712.09	1239.02
712.27	1251.31
712.45	1216.49
712.63	1232.88
712.82	1308.65
713.00	1361.90
713.18	1298.41
713.37	1314.80
713.55	1296.36
713.73	1282.03
713.91	1230.83
714.10	1228.78
714.28	1282.03
714.46	1228.78
714.65	1210.35
714.83	1226.73
715.01	1241.07
715.19	1314.80
715.38	1253.36
715.56	1286.12
715.74	1304.56
715.92	1298.41
716.11	1204.21
716.29	1304.56
716.47	1294.32
716.65	1222.64
716.84	1255.40
717.02	1255.40
717.20	1298.41
717.38	1269.74
717.57	1284.08
717.75	1214.45
717.93	1292.27
718.11	1302.51
718.30	1267.69
718.48	1275.88
718.66	1290.22
718.84	1241.07
719.03	1236.97
719.21	1269.74
719.39	1277.93
719.57	1265.64
719.75	1175.53
719.94	1243.12
720.12	1298.41
720.30	1228.78
720.48	1234.93
720.67	1269.74
720.85	1279.98
721.03	1232.88
721.21	1345.52
721.39	1222.64
721.58	1273.84
721.76	1279.98
721.94	1216.49
722.12	1292.27
722.30	1185.77
722.49	1286.12
722.67	1187.82
722.85	1247.21
723.03	1282.03
723.21	1314.80
723.40	1261.55
723.58	1310.70
723.76	1304.56
723.94	1249.26
724.12	1220.59
724.30	1265.64
724.49	1257.45
724.67	1286.12
724.85	1277.93
725.03	1316.84
725.21	1255.40
725.40	1220.59
725.58	1327.08
725.76	1288.17
725.94	1294.32
726.12	1292.27
726.30	1232.88
726.49	1214.45
726.67	1251.31
726.85	1304.56
727.03	1286.12
727.21	1230.83
727.39	1241.07
727.57	1282.03
727.76	1282.03
727.94	1245.16
728.12	1243.12
728.30	1314.80
728.48	1253.36
728.66	1269.74
728.84	1251.31
729.03	1234.93
729.21	1351.66
729.39	1224.69
729.57	1243.12
729.75	1286.12
729.93	1226.73
730.11	1253.36
730.30	1204.21
730.48	1239.02
730.66	1296.36
730.84	1279.98
731.02	1261.55
731.20	1257.45
731.38	1279.98
731.56	1306.60
731.74	1253.36
731.93	1310.70
732.11	1269.74
732.29	1259.50
732.47	1241.07
732.65	1236.97
732.83	1230.83
733.01	1241.07
733.19	1277.93
733.37	1191.92
733.56	1273.84
733.74	1232.88
733.92	1255.40
734.10	1193.97
734.28	1302.51
734.46	1255.40
734.64	1212.40
734.82	1320.94
735.00	1302.51
735.18	1312.75
735.36	1226.73
735.54	1239.02
735.73	1261.55
735.91	1296.36
736.09	1251.31
736.27	1312.75
736.45	1284.08
736.63	1296.36
736.81	1269.74
736.99	1241.07
737.17	1316.84
737.35	1327.08
737.53	1234.93
737.71	1284.08
737.89	1251.31
738.07	1222.64
738.25	1320.94
738.43	1286.12
738.61	1239.02
738.80	1196.01
738.98	1245.16
739.16	1259.50
739.34	1333.23
739.52	1316.84
739.70	1253.36
739.88	1239.02
740.06	1284.08
740.24	1284.08
740.42	1253.36
740.60	1306.60
740.78	1300.46
740.96	1236.97
741.14	1247.21
741.32	1247.21
741.50	1271.79
741.68	1279.98
741.86	1269.74
742.04	1302.51
742.22	1329.13
742.40	1320.94
742.58	1273.84
742.76	1320.94
742.94	1304.56
743.12	1271.79
743.30	1216.49
743.48	1224.69
743.66	1316.84
743.84	1292.27
744.02	1343.47
744.20	1320.94
744.38	1236.97
744.56	1193.97
744.74	1316.84
744.92	1286.12
745.10	1277.93
745.28	1267.69
745.46	1292.27
745.64	1263.60
745.82	1255.40
746.00	1239.02
746.18	1220.59
746.36	1232.88
746.54	1243.12
746.72	1179.63
746.90	1267.69
747.08	1318.89
747.26	1314.80
747.44	1306.60
747.62	1290.22
747.80	1255.40
747.98	1286.12
748.15	1204.21
748.33	1269.74
748.51	1349.61
748.69	1298.41
748.87	1210.35
749.05	1253.36
749.23	1292.27
749.41	1302.51
749.59	1236.97
749.77	1275.88
749.95	1292.27
750.13	1255.40
750.31	1226.73
750.49	1202.16
750.67	1271.79
750.85	1300.46
751.03	1279.98
751.20	1300.46
751.38	1298.41
751.56	1234.93
751.74	1341.42
751.92	1273.84
752.10	1310.70
752.28	1249.26
752.46	1249.26
752.64	1228.78
752.82	1300.46
753.00	1284.08
753.18	1232.88
753.35	1255.40
753.53	1187.82
753.71	1329.13
753.89	1198.06
754.07	1249.26
754.25	1259.50
754.43	1296.36
754.61	1255.40
754.79	1247.21
754.97	1265.64
755.14	1263.60
755.32	1271.79
755.50	1241.07
755.68	1355.76
755.86	1286.12
756.04	1241.07
756.22	1247.21
756.40	1329.13
756.57	1286.12
756.75	1243.12
756.93	1320.94
757.11	1331.18
757.29	1253.36
757.47	1277.93
757.65	1257.45
757.82	1320.94
758.00	1222.64
758.18	1325.04
758.36	1259.50
758.54	1277.93
758.72	1249.26
758.90	1222.64
759.07	1245.16
759.25	1247.21
759.43	1282.03
759.61	1243.12
759.79	1282.03
759.97	1318.89
760.15	1290.22
760.32	1290.22
760.50	1277.93
760.68	1351.66
760.86	1308.65
761.04	1302.51
761.22	1236.97
761.39	1239.02
761.57	1245.16
761.75	1212.40
761.93	1208.30
762.11	1257.45
762.28	1236.97
762.46	1255.40
762.64	1224.69
762.82	1249.26
763.00	1267.69
763.18	1265.64
763.35	1318.89
763.53	1257.45
763.71	1312.75
763.89	1273.84
764.07	1339.37
764.24	1224.69
764.42	1247.21
764.60	1325.04
764.78	1282.03
764.96	1282.03
765.13	1269.74
765.31	1282.03
765.49	1300.46
765.67	1230.83
765.84	1230.83
766.02	1249.26
766.20	1300.46
766.38	1320.94
766.56	1212.40
766.73	1261.55
766.91	1275.88
767.09	1241.07
767.27	1345.52
767.44	1267.69
767.62	1339.37
767.80	1288.17
767.98	1243.12
768.15	1236.97
768.33	1322.99
768.51	1345.52
768.69	1187.82
768.87	1306.60
769.04	1357.80
769.22	1245.16
769.40	1273.84
769.58	1277.93
769.75	1181.68
769.93	1263.60
770.11	1271.79
770.28	1265.64
770.46	1234.93
770.64	1286.12
770.82	1228.78
770.99	1255.40
771.17	1279.98
771.35	1165.29
771.53	1234.93
771.70	1310.70
771.88	1325.04
772.06	1286.12
772.23	1279.98
772.41	1224.69
772.59	1234.93
772.77	1228.78
772.94	1259.50
773.12	1247.21
773.30	1216.49
773.47	1249.26
773.65	1269.74
773.83	1277.93
774.01	1224.69
774.18	1290.22
774.36	1273.84
774.54	1312.75
774.71	1275.88
774.89	1279.98
775.07	1271.79
775.24	1298.41
775.42	1222.64
775.60	1177.58
775.78	1245.16
775.95	1191.92
776.13	1169.39
776.31	1224.69
776.48	1290.22
776.66	1259.50
776.84	1316.84
777.01	1296.36
777.19	1257.45
777.37	1306.60
777.54	1294.32
777.72	1298.41
777.90	1198.06
778.07	1329.13
778.25	1353.71
778.43	1325.04
778.60	1351.66
778.78	1265.64
778.96	1216.49
779.13	1292.27
779.31	1302.51
779.49	1314.80
779.66	1191.92
779.84	1245.16
780.01	1257.45
780.19	1255.40
780.37	1294.32
780.54	1230.83
780.72	1243.12
780.90	1230.83
781.07	1294.32
781.25	1200.11
781.43	1253.36
781.60	1279.98
781.78	1259.50
781.95	1249.26
782.13	1222.64
782.31	1247.21
782.48	1224.69
782.66	1212.40
782.83	1212.40
783.01	1234.93
783.19	1316.84
783.36	1222.64
783.54	1216.49
783.72	1271.79
783.89	1247.21
784.07	1253.36
784.24	1251.31
784.42	1279.98
784.60	1210.35
784.77	1247.21
784.95	1216.49
785.12	1239.02
785.30	1277.93
785.47	1345.52
785.65	1267.69
785.83	1259.50
786.00	1273.84
786.18	1212.40
786.35	1312.75
786.53	1251.31
786.71	1288.17
786.88	1302.51
787.06	1224.69
787.23	1253.36
787.41	1263.60
787.58	1355.76
787.76	1200.11
787.94	1232.88
788.11	1308.65
788.29	1228.78
788.46	1222.64
788.64	1308.65
788.81	1226.73
788.99	1282.03
789.16	1255.40
789.34	1347.56
789.52	1331.18
789.69	1257.45
789.87	1189.87
790.04	1312.75
790.22	1239.02
790.39	1267.69
790.57	1232.88
790.74	1282.03
790.92	1271.79
791.09	1251.31
791.27	1312.75
791.44	1267.69
791.62	1277.93
791.79	1329.13
791.97	1208.30
792.15	1267.69
792.32	1226.73
792.50	1226.73
792.67	1269.74
792.85	1220.59
793.02	1304.56
793.20	1267.69
793.37	1232.88
793.55	1296.36
793.72	1249.26
793.90	1269.74
794.07	1222.64
794.25	1255.40
794.42	1261.55
794.60	1232.88
794.77	1251.31
794.95	1306.60
795.12	1314.80
795.30	1218.54
795.47	1179.63
795.65	1259.50
795.82	1265.64
796.00	1224.69
796.17	1267.69
796.34	1273.84
796.52	1275.88
796.69	1200.11
796.87	1259.50
797.04	1320.94
797.22	1243.12
797.39	1243.12
797.57	1269.74
797.74	1279.98
797.92	1271.79
798.09	1212.40
798.27	1277.93
798.44	1239.02
798.62	1282.03
798.79	1269.74
798.96	1288.17
799.14	1259.50
799.31	1320.94
799.49	1331.18
799.66	1259.50
799.84	1277.93
800.01	1208.30
800.19	1314.80
800.36	1245.16
800.53	1361.90
800.71	1286.12
800.88	1325.04
801.06	1224.69
801.23	1222.64
801.41	1261.55
801.58	1261.55
801.75	1245.16
801.93	1331.18
802.10	1284.08
802.28	1304.56
802.45	1277.93
802.63	1302.51
802.80	1239.02
802.97	1269.74
803.15	1220.59
803.32	1247.21
803.50	1290.22
803.67	1302.51
803.84	1224.69
804.02	1236.97
804.19	1239.02
804.37	1200.11
804.54	1261.55
804.71	1261.55
804.89	1269.74
805.06	1198.06
805.24	1177.58
805.41	1284.08
805.58	1318.89
805.76	1263.60
805.93	1234.93
806.10	1222.64
806.28	1206.25
806.45	1322.99
806.63	1239.02
806.80	1236.97
806.97	1222.64
807.15	1181.68
807.32	1259.50
807.49	1325.04
807.67	1294.32
807.84	1279.98
808.01	1279.98
808.19	1335.28
808.36	1300.46
808.54	1333.23
808.71	1284.08
808.88	1273.84
809.06	1294.32
809.23	1259.50
809.40	1318.89
809.58	1204.21
809.75	1224.69
809.92	1279.98
810.10	1333.23
810.27	1366.00
810.44	1249.26
810.62	1271.79
810.79	1284.08
810.96	1361.90
811.14	1320.94
811.31	1279.98
811.48	1267.69
811.66	1249.26
811.83	1296.36
812.00	1279.98
812.18	1239.02
812.35	1286.12
812.52	1265.64
812.69	1269.74
812.87	1253.36
813.04	1282.03
813.21	1347.56
813.39	1173.49
813.56	1275.88
813.73	1257.45
813.91	1286.12
814.08	1226.73
814.25	1255.40
814.42	1288.17
814.60	1271.79
814.77	1269.74
814.94	1284.08
815.12	1333.23
815.29	1282.03
815.46	1290.22
815.63	1296.36
815.81	1224.69
815.98	1308.65
816.15	1251.31
816.33	1255.40
816.50	1273.84
816.67	1267.69
816.84	1220.59
817.02	1196.01
817.19	1290.22
817.36	1277.93
817.53	1196.01
817.71	1312.75
817.88	1226.73
818.05	1249.26
818.22	1249.26
818.40	1282.03
818.57	1241.07
818.74	1261.55
818.91	1300.46
819.09	1239.02
819.26	1257.45
819.43	1255.40
819.60	1320.94
819.78	1232.88
819.95	1320.94
820.12	1247.21
820.29	1314.80
820.47	1345.52
820.64	1239.02
820.81	1261.55
820.98	1257.45
821.15	1255.40
821.33	1245.16
821.50	1239.02
821.67	1310.70
821.84	1265.64
822.02	1290.22
822.19	1271.79
822.36	1249.26
822.53	1239.02
822.70	1277.93
822.88	1271.79
823.05	1232.88
823.22	1275.88
823.39	1292.27
823.56	1259.50
823.74	1185.77
823.91	1228.78
824.08	1275.88
824.25	1300.46
824.42	1232.88
824.60	1253.36
824.77	1292.27
824.94	1284.08
825.11	1290.22
825.28	1261.55
825.45	1302.51
825.63	1294.32
825.80	1249.26
825.97	1214.45
826.14	1300.46
826.31	1277.93
826.48	1251.31
826.66	1290.22
826.83	1249.26
827.00	1267.69
827.17	1263.60
827.34	1300.46
827.51	1265.64
827.69	1314.80
827.86	1263.60
828.03	1269.74
828.20	1361.90
828.37	1290.22
828.54	1302.51
828.71	1220.59
828.89	1261.55
829.06	1202.16
829.23	1245.16
829.40	1282.03
829.57	1329.13
829.74	1259.50
829.91	1273.84
830.09	1257.45
830.26	1247.21
830.43	1255.40
830.60	1265.64
830.77	1261.55
830.94	1259.50
831.11	1249.26
831.28	1273.84
831.46	1202.16
831.63	1263.60
831.80	1318.89
831.97	1247.21
832.14	1224.69
832.31	1218.54
832.48	1239.02
832.65	1200.11
832.82	1277.93
832.99	1247.21
833.17	1273.84
833.34	1269.74
833.51	1335.28
833.68	1294.32
833.85	1329.13
834.02	1304.56
834.19	1255.40
834.36	1288.17
834.53	1239.02
834.70	1269.74
834.87	1273.84
835.04	1239.02
835.22	1239.02
835.39	1277.93
835.56	1355.76
835.73	1357.80
835.90	1220.59
836.07	1279.98
836.24	1228.78
836.41	1185.77
836.58	1302.51
836.75	1269.74
836.92	1234.93
837.09	1333.23
837.26	1245.16
837.43	1239.02
837.60	1243.12
837.77	1245.16
837.94	1269.74
838.12	1286.12
838.29	1329.13
838.46	1290.22
838.63	1253.36
838.80	1345.52
838.97	1228.78
839.14	1257.45
839.31	1265.64
839.48	1277.93
839.65	1243.12
839.82	1320.94
839.99	1273.84
840.16	1161.20
840.33	1320.94
840.50	1249.26
840.67	1243.12
840.84	1341.42
841.01	1286.12
841.18	1322.99
841.35	1198.06
841.52	1273.84
841.69	1335.28
841.86	1282.03
842.03	1226.73
842.20	1304.56
842.37	1310.70
842.54	1322.99
842.71	1228.78
842.88	1257.45
843.05	1251.31
843.22	1292.27
843.39	1214.45
843.56	1265.64
843.73	1236.97
843.90	1216.49
844.07	1271.79
844.24	1226.73
844.41	1249.26
844.58	1284.08
844.75	1255.40
844.92	1214.45
845.09	1290.22
845.26	1273.84
845.43	1216.49
845.60	1277.93
845.77	1298.41
845.94	1282.03
846.10	1253.36
846.27	1230.83
846.44	1273.84
846.61	1279.98
846.78	1214.45
846.95	1247.21
847.12	1214.45
847.29	1271.79
847.46	1292.27
847.63	1249.26
847.80	1312.75
847.97	1267.69
848.14	1198.06
848.31	1339.37
848.48	1269.74
848.65	1241.07
848.82	1245.16
848.98	1290.22
849.15	1292.27
849.32	1310.70
849.49	1304.56
849.66	1296.36
849.83	1290.22
850.00	1329.13
850.17	1232.88
850.34	1306.60
850.51	1216.49
850.68	1284.08
850.85	1259.50
851.01	1216.49
851.18	1230.83
851.35	1236.97
851.52	1232.88
851.69	1349.61
851.86	1193.97
852.03	1263.60
852.20	1214.45
852.37	1220.59
852.53	1286.12
852.70	1294.32
852.87	1226.73
853.04	1216.49
853.21	1236.97
853.38	1298.41
853.55	1294.32
853.72	1282.03
853.89	1275.88
854.05	1267.69
854.22	1255.40
854.39	1265.64
854.56	1259.50
854.73	1271.79
854.90	1292.27
855.07	1212.40
855.23	1259.50
855.40	1306.60
855.57	1208.30
855.74	1230.83
855.91	1337.32
856.08	1277.93
856.25	1265.64
856.41	1245.16
856.58	1335.28
856.75	1282.03
856.92	1286.12
857.09	1273.84
857.26	1322.99
857.42	1224.69
857.59	1273.84
857.76	1216.49
857.93	1290.22
858.10	1316.84
858.27	1355.76
858.43	1267.69
858.60	1249.26
858.77	1306.60
858.94	1261.55
859.11	1232.88
859.27	1236.97
859.44	1325.04
859.61	1236.97
859.78	1310.70
859.95	1224.69
860.12	1279.98
860.28	1288.17
860.45	1312.75
860.62	1239.02
860.79	1249.26
860.95	1294.32
861.12	1292.27
861.29	1306.60
861.46	1296.36
861.63	1228.78
861.79	1255.40
861.96	1253.36
862.13	1259.50
862.30	1282.03
862.47	1290.22
862.63	1212.40
862.80	1304.56
862.97	1271.79
863.14	1312.75
863.30	1294.32
863.47	1232.88
863.64	1273.84
863.81	1290.22
863.97	1200.11
864.14	1345.52
864.31	1253.36
864.48	1255.40
864.65	1251.31
864.81	1259.50
864.98	1282.03
865.15	1255.40
865.32	1300.46
865.48	1236.97
865.65	1271.79
865.82	1243.12
865.98	1308.65
866.15	1296.36
866.32	1296.36
866.49	1202.16
866.65	1302.51
866.82	1236.97
866.99	1236.97
867.16	1288.17
867.32	1241.07
867.49	1314.80
867.66	1241.07
867.83	1277.93
867.99	1257.45
868.16	1306.60
868.33	1247.21
868.49	1253.36
868.66	1304.56
868.83	1282.03
868.99	1310.70
869.16	1200.11
869.33	1327.08
869.50	1214.45
869.66	1208.30
869.83	1187.82
870.00	1312.75
870.16	1247.21
870.33	1286.12
870.50	1236.97
870.66	1234.93
870.83	1327.08
871.00	1275.88
871.17	1228.78
871.33	1286.12
871.50	1355.76
871.67	1284.08
871.83	1265.64
872.00	1286.12
872.17	1239.02
872.33	1257.45
872.50	1312.75
872.67	1275.88
872.83	1325.04
873.00	1263.60
873.17	1259.50
873.33	1257.45
873.50	1314.80
873.67	1275.88
873.83	1306.60
874.00	1300.46
874.16	1302.51
874.33	1236.97
874.50	1292.27
874.66	1310.70
874.83	1368.04
875.00	1218.54
875.16	1257.45
875.33	1292.27
875.50	1308.65
875.66	1261.55
875.83	1286.12
875.99	1277.93
876.16	1257.45
876.33	1245.16
876.49	1286.12
876.66	1234.93
876.83	1216.49
876.99	1306.60
877.16	1224.69
877.32	1302.51
877.49	1243.12
877.66	1247.21
877.82	1239.02
877.99	1263.60
878.15	1296.36
878.32	1290.22
878.49	1290.22
878.65	1279.98
878.82	1296.36
878.98	1220.59
879.15	1269.74
879.32	1245.16
879.48	1296.36
879.65	1284.08
879.81	1257.45
879.98	1208.30
880.15	1300.46
880.31	1275.88
880.48	1310.70
880.64	1245.16
880.81	1271.79
880.97	1327.08
881.14	1247.21
881.31	1273.84
881.47	1282.03
881.64	1279.98
881.80	1261.55
881.97	1251.31
882.13	1191.92
882.30	1279.98
882.47	1269.74
882.63	1288.17
882.80	1265.64
882.96	1253.36
883.13	1247.21
883.29	1306.60
883.46	1310.70
883.62	1294.32
883.79	1253.36
883.95	1253.36
884.12	1306.60
884.29	1308.65
884.45	1294.32
884.62	1275.88
884.78	1259.50
884.95	1253.36
885.11	1255.40
885.28	1363.95
885.44	1331.18
885.61	1230.83
885.77	1220.59
885.94	1193.97
886.10	1275.88
886.27	1236.97
886.43	1327.08
886.60	1310.70
886.76	1267.69
886.93	1255.40
887.09	1269.74
887.26	1198.06
887.42	1290.22
887.59	1247.21
887.75	1216.49
887.92	1249.26
888.08	1245.16
888.25	1333.23
888.41	1290.22
888.58	1247.21
888.74	1282.03
888.91	1265.64
>>>>>End Processed Spectral Data<<<<<
