SpectraSuite Data File
++++++++++++++++++++++++++++++++++++
Date: Sun Apr 03 19:55:36 CEST 2016
User: root
Dark Spectrum Present: No
Reference Spectrum Present: No
Number of Sampled Component Spectra: 1
Spectrometers: USB4C02835
Integration Time (usec): 10000 (USB4C02835)
Spectra Averaged: 1 (USB4C02835)
Boxcar Smoothing: 0 (USB4C02835)
Correct for Electrical Dark: No (USB4C02835)
Strobe/Lamp Enabled: No (USB4C02835)
Correct for Detector Non-linearity: No (USB4C02835)
Correct for Stray Light: No (USB4C02835)
Number of Pixels in Processed Spectrum: 3648
>>>>>Begin Processed Spectral Data<<<<<
177.47	1226.73
177.69	1226.73
177.91	1226.73
178.13	1218.54
178.36	1294.32
178.58	1245.16
178.80	1247.21
179.02	1257.45
179.24	1200.11
179.46	1218.54
179.68	1263.60
179.90	1275.88
180.13	1331.18
180.35	1212.40
180.57	1271.79
180.79	1292.27
181.01	1318.89
181.23	1351.66
181.45	1359.85
181.67	1224.69
181.90	1322.99
182.12	1230.83
182.34	1339.37
182.56	1320.94
182.78	1292.27
183.00	1245.16
183.22	1224.69
183.44	1310.70
183.66	1304.56
183.89	1255.40
184.11	1275.88
184.33	1277.93
184.55	1220.59
184.77	1277.93
184.99	1325.04
185.21	1206.25
185.43	1273.84
185.65	1273.84
185.87	1228.78
186.10	1261.55
186.32	1288.17
186.54	1351.66
186.76	1181.68
186.98	1290.22
187.20	1271.79
187.42	1284.08
187.64	1259.50
187.86	1257.45
188.08	1331.18
188.30	1306.60
188.52	1304.56
188.75	1253.36
188.97	1267.69
189.19	1251.31
189.41	1232.88
189.63	1288.17
189.85	1290.22
190.07	1234.93
190.29	1234.93
190.51	1243.12
190.73	1261.55
190.95	1335.28
191.17	1241.07
191.39	1271.79
191.61	1312.75
191.84	1318.89
192.06	1316.84
192.28	1259.50
192.50	1269.74
192.72	1214.45
192.94	1267.69
193.16	1273.84
193.38	1241.07
193.60	1282.03
193.82	1236.97
194.04	1294.32
194.26	1245.16
194.48	1290.22
194.70	1279.98
194.92	1265.64
195.14	1279.98
195.36	1271.79
195.58	1284.08
195.80	1286.12
196.02	1265.64
196.24	1312.75
196.46	1234.93
196.69	1224.69
196.91	1269.74
197.13	1267.69
197.35	1241.07
197.57	1247.21
197.79	1302.51
198.01	1267.69
198.23	1243.12
198.45	1271.79
198.67	1253.36
198.89	1193.97
199.11	1306.60
199.33	1292.27
199.55	1241.07
199.77	1279.98
199.99	1269.74
200.21	1259.50
200.43	1259.50
200.65	1228.78
200.87	1273.84
201.09	1335.28
201.31	1300.46
201.53	1243.12
201.75	1296.36
201.97	1216.49
202.19	1343.47
202.41	1343.47
202.63	1273.84
202.85	1265.64
203.07	1282.03
203.29	1306.60
203.51	1255.40
203.73	1271.79
203.95	1306.60
204.17	1234.93
204.39	1236.97
204.61	1320.94
204.83	1294.32
205.05	1236.97
205.27	1259.50
205.49	1249.26
205.71	1290.22
205.93	1222.64
206.15	1257.45
206.37	1257.45
206.59	1259.50
206.81	1263.60
207.03	1302.51
207.25	1284.08
207.47	1331.18
207.69	1232.88
207.91	1226.73
208.13	1243.12
208.34	1255.40
208.56	1232.88
208.78	1255.40
209.00	1282.03
209.22	1314.80
209.44	1298.41
209.66	1226.73
209.88	1263.60
210.10	1263.60
210.32	1265.64
210.54	1290.22
210.76	1302.51
210.98	1273.84
211.20	1251.31
211.42	1171.44
211.64	1222.64
211.86	1257.45
212.08	1249.26
212.30	1218.54
212.52	1249.26
212.74	1286.12
212.96	1228.78
213.17	1255.40
213.39	1290.22
213.61	1357.80
213.83	1253.36
214.05	1300.46
214.27	1312.75
214.49	1277.93
214.71	1273.84
214.93	1232.88
215.15	1345.52
215.37	1304.56
215.59	1257.45
215.81	1265.64
216.03	1251.31
216.24	1308.65
216.46	1318.89
216.68	1243.12
216.90	1306.60
217.12	1341.42
217.34	1222.64
217.56	1314.80
217.78	1298.41
218.00	1306.60
218.22	1263.60
218.44	1249.26
218.66	1271.79
218.87	1275.88
219.09	1353.71
219.31	1277.93
219.53	1253.36
219.75	1288.17
219.97	1241.07
220.19	1320.94
220.41	1261.55
220.63	1322.99
220.85	1241.07
221.06	1271.79
221.28	1275.88
221.50	1304.56
221.72	1320.94
221.94	1290.22
222.16	1335.28
222.38	1298.41
222.60	1275.88
222.82	1247.21
223.03	1277.93
223.25	1329.13
223.47	1273.84
223.69	1339.37
223.91	1255.40
224.13	1271.79
224.35	1312.75
224.57	1208.30
224.78	1220.59
225.00	1259.50
225.22	1255.40
225.44	1251.31
225.66	1300.46
225.88	1265.64
226.10	1304.56
226.32	1228.78
226.53	1220.59
226.75	1261.55
226.97	1267.69
227.19	1331.18
227.41	1269.74
227.63	1288.17
227.85	1339.37
228.06	1247.21
228.28	1249.26
228.50	1312.75
228.72	1249.26
228.94	1314.80
229.16	1261.55
229.37	1277.93
229.59	1318.89
229.81	1282.03
230.03	1329.13
230.25	1230.83
230.47	1234.93
230.69	1284.08
230.90	1333.23
231.12	1275.88
231.34	1257.45
231.56	1239.02
231.78	1290.22
232.00	1288.17
232.21	1277.93
232.43	1277.93
232.65	1318.89
232.87	1312.75
233.09	1243.12
233.30	1273.84
233.52	1312.75
233.74	1290.22
233.96	1236.97
234.18	1325.04
234.40	1282.03
234.61	1304.56
234.83	1290.22
235.05	1269.74
235.27	1347.56
235.49	1310.70
235.70	1236.97
235.92	1253.36
236.14	1273.84
236.36	1273.84
236.58	1273.84
236.79	1173.49
237.01	1282.03
237.23	1335.28
237.45	1269.74
237.67	1271.79
237.88	1294.32
238.10	1167.34
238.32	1333.23
238.54	1279.98
238.76	1277.93
238.97	1316.84
239.19	1224.69
239.41	1249.26
239.63	1271.79
239.85	1322.99
240.06	1284.08
240.28	1298.41
240.50	1294.32
240.72	1173.49
240.93	1183.73
241.15	1263.60
241.37	1224.69
241.59	1208.30
241.81	1236.97
242.02	1331.18
242.24	1249.26
242.46	1243.12
242.68	1275.88
242.89	1257.45
243.11	1236.97
243.33	1218.54
243.55	1189.87
243.76	1355.76
243.98	1259.50
244.20	1228.78
244.42	1259.50
244.64	1312.75
244.85	1200.11
245.07	1228.78
245.29	1312.75
245.51	1310.70
245.72	1345.52
245.94	1298.41
246.16	1255.40
246.38	1277.93
246.59	1232.88
246.81	1333.23
247.03	1239.02
247.24	1314.80
247.46	1271.79
247.68	1204.21
247.90	1308.65
248.11	1265.64
248.33	1292.27
248.55	1255.40
248.77	1230.83
248.98	1288.17
249.20	1314.80
249.42	1290.22
249.64	1255.40
249.85	1288.17
250.07	1265.64
250.29	1361.90
250.50	1257.45
250.72	1247.21
250.94	1196.01
251.16	1236.97
251.37	1277.93
251.59	1236.97
251.81	1269.74
252.02	1277.93
252.24	1296.36
252.46	1259.50
252.68	1282.03
252.89	1273.84
253.11	1304.56
253.33	1284.08
253.54	1320.94
253.76	1325.04
253.98	1228.78
254.20	1241.07
254.41	1257.45
254.63	1236.97
254.85	1265.64
255.06	1226.73
255.28	1239.02
255.50	1245.16
255.71	1347.56
255.93	1259.50
256.15	1245.16
256.36	1296.36
256.58	1220.59
256.80	1259.50
257.02	1261.55
257.23	1304.56
257.45	1277.93
257.67	1310.70
257.88	1249.26
258.10	1351.66
258.32	1304.56
258.53	1247.21
258.75	1300.46
258.97	1255.40
259.18	1267.69
259.40	1193.97
259.62	1327.08
259.83	1308.65
260.05	1275.88
260.27	1304.56
260.48	1282.03
260.70	1271.79
260.92	1265.64
261.13	1345.52
261.35	1230.83
261.57	1279.98
261.78	1263.60
262.00	1241.07
262.22	1296.36
262.43	1279.98
262.65	1267.69
262.86	1185.77
263.08	1269.74
263.30	1325.04
263.51	1234.93
263.73	1308.65
263.95	1316.84
264.16	1253.36
264.38	1234.93
264.60	1284.08
264.81	1304.56
265.03	1333.23
265.25	1232.88
265.46	1300.46
265.68	1253.36
265.89	1185.77
266.11	1241.07
266.33	1279.98
266.54	1261.55
266.76	1216.49
266.98	1318.89
267.19	1269.74
267.41	1277.93
267.62	1308.65
267.84	1269.74
268.06	1269.74
268.27	1273.84
268.49	1202.16
268.70	1308.65
268.92	1273.84
269.14	1255.40
269.35	1329.13
269.57	1298.41
269.79	1259.50
270.00	1253.36
270.22	1282.03
270.43	1273.84
270.65	1251.31
270.87	1216.49
271.08	1224.69
271.30	1261.55
271.51	1261.55
271.73	1247.21
271.95	1306.60
272.16	1196.01
272.38	1265.64
272.59	1253.36
272.81	1308.65
273.02	1236.97
273.24	1286.12
273.46	1200.11
273.67	1306.60
273.89	1253.36
274.10	1282.03
274.32	1320.94
274.54	1243.12
274.75	1284.08
274.97	1224.69
275.18	1279.98
275.40	1232.88
275.61	1271.79
275.83	1234.93
276.05	1286.12
276.26	1210.35
276.48	1261.55
276.69	1322.99
276.91	1306.60
277.12	1337.32
277.34	1273.84
277.55	1275.88
277.77	1329.13
277.99	1277.93
278.20	1206.25
278.42	1277.93
278.63	1304.56
278.85	1318.89
279.06	1271.79
279.28	1298.41
279.49	1275.88
279.71	1341.42
279.93	1308.65
280.14	1267.69
280.36	1206.25
280.57	1296.36
280.79	1282.03
281.00	1243.12
281.22	1271.79
281.43	1245.16
281.65	1300.46
281.86	1247.21
282.08	1204.21
282.29	1279.98
282.51	1300.46
282.73	1259.50
282.94	1243.12
283.16	1253.36
283.37	1241.07
283.59	1273.84
283.80	1245.16
284.02	1208.30
284.23	1265.64
284.45	1243.12
284.66	1208.30
284.88	1257.45
285.09	1279.98
285.31	1249.26
285.52	1247.21
285.74	1261.55
285.95	1284.08
286.17	1232.88
286.38	1271.79
286.60	1345.52
286.81	1294.32
287.03	1263.60
287.24	1290.22
287.46	1286.12
287.67	1239.02
287.89	1232.88
288.10	1331.18
288.32	1245.16
288.53	1212.40
288.75	1236.97
288.96	1230.83
289.18	1316.84
289.39	1241.07
289.61	1357.80
289.82	1265.64
290.04	1226.73
290.25	1335.28
290.47	1228.78
290.68	1275.88
290.90	1222.64
291.11	1241.07
291.33	1259.50
291.54	1224.69
291.76	1318.89
291.97	1224.69
292.18	1249.26
292.40	1249.26
292.61	1239.02
292.83	1239.02
293.04	1204.21
293.26	1183.73
293.47	1282.03
293.69	1277.93
293.90	1263.60
294.12	1300.46
294.33	1322.99
294.55	1247.21
294.76	1302.51
294.97	1308.65
295.19	1298.41
295.40	1247.21
295.62	1267.69
295.83	1210.35
296.05	1267.69
296.26	1230.83
296.48	1230.83
296.69	1245.16
296.90	1286.12
297.12	1224.69
297.33	1232.88
297.55	1310.70
297.76	1273.84
297.98	1204.21
298.19	1247.21
298.41	1257.45
298.62	1198.06
298.83	1277.93
299.05	1271.79
299.26	1310.70
299.48	1312.75
299.69	1265.64
299.90	1316.84
300.12	1273.84
300.33	1306.60
300.55	1206.25
300.76	1255.40
300.98	1226.73
301.19	1298.41
301.40	1255.40
301.62	1241.07
301.83	1236.97
302.05	1245.16
302.26	1290.22
302.47	1282.03
302.69	1226.73
302.90	1249.26
303.12	1271.79
303.33	1243.12
303.54	1312.75
303.76	1284.08
303.97	1282.03
304.19	1265.64
304.40	1220.59
304.61	1273.84
304.83	1277.93
305.04	1357.80
305.26	1292.27
305.47	1288.17
305.68	1257.45
305.90	1339.37
306.11	1253.36
306.33	1251.31
306.54	1316.84
306.75	1234.93
306.97	1247.21
307.18	1296.36
307.39	1234.93
307.61	1236.97
307.82	1318.89
308.04	1255.40
308.25	1296.36
308.46	1222.64
308.68	1368.04
308.89	1196.01
309.10	1286.12
309.32	1249.26
309.53	1314.80
309.74	1312.75
309.96	1306.60
310.17	1308.65
310.39	1282.03
310.60	1189.87
310.81	1155.05
311.03	1208.30
311.24	1249.26
311.45	1241.07
311.67	1230.83
311.88	1255.40
312.09	1306.60
312.31	1261.55
312.52	1382.38
312.73	1273.84
312.95	1318.89
313.16	1218.54
313.37	1226.73
313.59	1216.49
313.80	1275.88
314.01	1271.79
314.23	1322.99
314.44	1228.78
314.65	1271.79
314.87	1322.99
315.08	1249.26
315.29	1204.21
315.51	1234.93
315.72	1263.60
315.93	1310.70
316.15	1316.84
316.36	1318.89
316.57	1343.47
316.79	1234.93
317.00	1239.02
317.21	1232.88
317.43	1251.31
317.64	1273.84
317.85	1251.31
318.07	1279.98
318.28	1208.30
318.49	1318.89
318.70	1282.03
318.92	1220.59
319.13	1351.66
319.34	1255.40
319.56	1331.18
319.77	1273.84
319.98	1261.55
320.20	1273.84
320.41	1245.16
320.62	1247.21
320.83	1302.51
321.05	1271.79
321.26	1290.22
321.47	1214.45
321.69	1255.40
321.90	1249.26
322.11	1273.84
322.32	1255.40
322.54	1329.13
322.75	1247.21
322.96	1261.55
323.18	1320.94
323.39	1251.31
323.60	1243.12
323.81	1300.46
324.03	1265.64
324.24	1189.87
324.45	1284.08
324.66	1239.02
324.88	1245.16
325.09	1220.59
325.30	1185.77
325.52	1245.16
325.73	1263.60
325.94	1232.88
326.15	1300.46
326.37	1282.03
326.58	1310.70
326.79	1273.84
327.00	1290.22
327.22	1310.70
327.43	1210.35
327.64	1288.17
327.85	1234.93
328.07	1314.80
328.28	1253.36
328.49	1357.80
328.70	1339.37
328.92	1282.03
329.13	1261.55
329.34	1286.12
329.55	1298.41
329.76	1282.03
329.98	1282.03
330.19	1312.75
330.40	1247.21
330.61	1224.69
330.83	1269.74
331.04	1306.60
331.25	1277.93
331.46	1249.26
331.68	1277.93
331.89	1363.95
332.10	1290.22
332.31	1236.97
332.52	1310.70
332.74	1296.36
332.95	1212.40
333.16	1234.93
333.37	1259.50
333.58	1263.60
333.80	1284.08
334.01	1222.64
334.22	1304.56
334.43	1314.80
334.64	1284.08
334.86	1263.60
335.07	1230.83
335.28	1255.40
335.49	1271.79
335.70	1294.32
335.92	1247.21
336.13	1288.17
336.34	1232.88
336.55	1241.07
336.76	1249.26
336.98	1249.26
337.19	1261.55
337.40	1200.11
337.61	1314.80
337.82	1284.08
338.04	1288.17
338.25	1282.03
338.46	1241.07
338.67	1249.26
338.88	1216.49
339.09	1310.70
339.31	1339.37
339.52	1271.79
339.73	1218.54
339.94	1337.32
340.15	1267.69
340.36	1279.98
340.58	1314.80
340.79	1187.82
341.00	1241.07
341.21	1243.12
341.42	1279.98
341.63	1279.98
341.85	1306.60
342.06	1282.03
342.27	1232.88
342.48	1296.36
342.69	1290.22
342.90	1259.50
343.12	1374.19
343.33	1300.46
343.54	1320.94
343.75	1226.73
343.96	1290.22
344.17	1329.13
344.38	1198.06
344.60	1284.08
344.81	1331.18
345.02	1314.80
345.23	1214.45
345.44	1214.45
345.65	1251.31
345.86	1226.73
346.07	1228.78
346.29	1200.11
346.50	1273.84
346.71	1255.40
346.92	1308.65
347.13	1335.28
347.34	1267.69
347.55	1304.56
347.76	1228.78
347.98	1251.31
348.19	1357.80
348.40	1253.36
348.61	1312.75
348.82	1232.88
349.03	1259.50
349.24	1241.07
349.45	1275.88
349.66	1284.08
349.88	1302.51
350.09	1191.92
350.30	1308.65
350.51	1218.54
350.72	1241.07
350.93	1312.75
351.14	1290.22
351.35	1277.93
351.56	1292.27
351.77	1312.75
351.99	1265.64
352.20	1230.83
352.41	1275.88
352.62	1275.88
352.83	1273.84
353.04	1267.69
353.25	1259.50
353.46	1298.41
353.67	1249.26
353.88	1261.55
354.09	1282.03
354.30	1224.69
354.52	1261.55
354.73	1273.84
354.94	1263.60
355.15	1247.21
355.36	1286.12
355.57	1214.45
355.78	1230.83
355.99	1300.46
356.20	1320.94
356.41	1284.08
356.62	1265.64
356.83	1302.51
357.04	1247.21
357.25	1300.46
357.46	1300.46
357.68	1251.31
357.89	1339.37
358.10	1200.11
358.31	1253.36
358.52	1247.21
358.73	1335.28
358.94	1239.02
359.15	1257.45
359.36	1277.93
359.57	1304.56
359.78	1273.84
359.99	1331.18
360.20	1261.55
360.41	1230.83
360.62	1288.17
360.83	1282.03
361.04	1304.56
361.25	1331.18
361.46	1228.78
361.67	1226.73
361.88	1318.89
362.09	1282.03
362.30	1202.16
362.51	1273.84
362.72	1292.27
362.93	1267.69
363.14	1257.45
363.35	1253.36
363.56	1265.64
363.78	1320.94
363.99	1314.80
364.20	1259.50
364.41	1218.54
364.62	1253.36
364.83	1290.22
365.04	1267.69
365.25	1255.40
365.46	1265.64
365.67	1259.50
365.88	1290.22
366.09	1243.12
366.30	1204.21
366.51	1288.17
366.72	1218.54
366.93	1284.08
367.14	1267.69
367.35	1249.26
367.56	1335.28
367.77	1228.78
367.98	1208.30
368.18	1277.93
368.39	1312.75
368.60	1284.08
368.81	1216.49
369.02	1282.03
369.23	1345.52
369.44	1216.49
369.65	1265.64
369.86	1247.21
370.07	1271.79
370.28	1255.40
370.49	1275.88
370.70	1292.27
370.91	1292.27
371.12	1255.40
371.33	1292.27
371.54	1234.93
371.75	1275.88
371.96	1224.69
372.17	1271.79
372.38	1261.55
372.59	1249.26
372.80	1249.26
373.01	1230.83
373.22	1263.60
373.43	1279.98
373.64	1249.26
373.85	1288.17
374.06	1296.36
374.26	1257.45
374.47	1306.60
374.68	1257.45
374.89	1355.76
375.10	1247.21
375.31	1193.97
375.52	1271.79
375.73	1304.56
375.94	1316.84
376.15	1277.93
376.36	1265.64
376.57	1298.41
376.78	1304.56
376.99	1296.36
377.20	1253.36
377.40	1255.40
377.61	1273.84
377.82	1284.08
378.03	1290.22
378.24	1208.30
378.45	1212.40
378.66	1265.64
378.87	1267.69
379.08	1234.93
379.29	1273.84
379.50	1259.50
379.71	1333.23
379.91	1247.21
380.12	1251.31
380.33	1259.50
380.54	1277.93
380.75	1282.03
380.96	1277.93
381.17	1298.41
381.38	1191.92
381.59	1310.70
381.80	1263.60
382.00	1314.80
382.21	1251.31
382.42	1286.12
382.63	1290.22
382.84	1320.94
383.05	1253.36
383.26	1253.36
383.47	1245.16
383.68	1267.69
383.88	1265.64
384.09	1325.04
384.30	1322.99
384.51	1212.40
384.72	1212.40
384.93	1308.65
385.14	1230.83
385.35	1316.84
385.55	1245.16
385.76	1277.93
385.97	1204.21
386.18	1329.13
386.39	1247.21
386.60	1257.45
386.81	1255.40
387.02	1306.60
387.22	1175.53
387.43	1247.21
387.64	1249.26
387.85	1245.16
388.06	1236.97
388.27	1255.40
388.48	1212.40
388.68	1322.99
388.89	1296.36
389.10	1226.73
389.31	1236.97
389.52	1265.64
389.73	1273.84
389.93	1234.93
390.14	1224.69
390.35	1263.60
390.56	1259.50
390.77	1304.56
390.98	1277.93
391.18	1271.79
391.39	1191.92
391.60	1200.11
391.81	1341.42
392.02	1204.21
392.23	1216.49
392.43	1269.74
392.64	1337.32
392.85	1273.84
393.06	1312.75
393.27	1288.17
393.47	1298.41
393.68	1224.69
393.89	1228.78
394.10	1263.60
394.31	1214.45
394.52	1216.49
394.72	1310.70
394.93	1222.64
395.14	1224.69
395.35	1288.17
395.56	1269.74
395.76	1277.93
395.97	1259.50
396.18	1232.88
396.39	1279.98
396.60	1216.49
396.80	1265.64
397.01	1263.60
397.22	1239.02
397.43	1296.36
397.64	1247.21
397.84	1234.93
398.05	1292.27
398.26	1292.27
398.47	1202.16
398.67	1294.32
398.88	1314.80
399.09	1335.28
399.30	1269.74
399.51	1232.88
399.71	1329.13
399.92	1247.21
400.13	1265.64
400.34	1300.46
400.54	1327.08
400.75	1298.41
400.96	1310.70
401.17	1232.88
401.37	1349.61
401.58	1236.97
401.79	1411.05
402.00	1198.06
402.21	1222.64
402.41	1288.17
402.62	1271.79
402.83	1271.79
403.04	1228.78
403.24	1279.98
403.45	1189.87
403.66	1257.45
403.87	1265.64
404.07	1249.26
404.28	1265.64
404.49	1296.36
404.70	1251.31
404.90	1288.17
405.11	1273.84
405.32	1255.40
405.52	1251.31
405.73	1191.92
405.94	1241.07
406.15	1236.97
406.35	1308.65
406.56	1273.84
406.77	1298.41
406.98	1239.02
407.18	1226.73
407.39	1208.30
407.60	1175.53
407.80	1275.88
408.01	1271.79
408.22	1306.60
408.43	1259.50
408.63	1275.88
408.84	1327.08
409.05	1286.12
409.25	1236.97
409.46	1261.55
409.67	1249.26
409.88	1253.36
410.08	1261.55
410.29	1275.88
410.50	1288.17
410.70	1210.35
410.91	1228.78
411.12	1329.13
411.32	1292.27
411.53	1339.37
411.74	1228.78
411.95	1175.53
412.15	1284.08
412.36	1290.22
412.57	1275.88
412.77	1312.75
412.98	1245.16
413.19	1243.12
413.39	1312.75
413.60	1265.64
413.81	1275.88
414.01	1286.12
414.22	1253.36
414.43	1218.54
414.63	1275.88
414.84	1265.64
415.05	1263.60
415.25	1273.84
415.46	1263.60
415.67	1282.03
415.87	1318.89
416.08	1302.51
416.29	1226.73
416.49	1325.04
416.70	1298.41
416.91	1292.27
417.11	1269.74
417.32	1253.36
417.53	1234.93
417.73	1282.03
417.94	1277.93
418.15	1255.40
418.35	1275.88
418.56	1267.69
418.77	1269.74
418.97	1314.80
419.18	1304.56
419.38	1282.03
419.59	1329.13
419.80	1322.99
420.00	1239.02
420.21	1259.50
420.42	1314.80
420.62	1259.50
420.83	1253.36
421.04	1339.37
421.24	1288.17
421.45	1308.65
421.65	1273.84
421.86	1236.97
422.07	1218.54
422.27	1208.30
422.48	1185.77
422.69	1286.12
422.89	1249.26
423.10	1249.26
423.30	1351.66
423.51	1320.94
423.72	1228.78
423.92	1245.16
424.13	1310.70
424.33	1218.54
424.54	1263.60
424.75	1269.74
424.95	1204.21
425.16	1273.84
425.36	1288.17
425.57	1249.26
425.78	1218.54
425.98	1359.85
426.19	1224.69
426.39	1308.65
426.60	1191.92
426.81	1275.88
427.01	1224.69
427.22	1261.55
427.42	1306.60
427.63	1247.21
427.83	1277.93
428.04	1331.18
428.25	1308.65
428.45	1265.64
428.66	1273.84
428.86	1290.22
429.07	1216.49
429.28	1251.31
429.48	1257.45
429.69	1212.40
429.89	1306.60
430.10	1312.75
430.30	1220.59
430.51	1288.17
430.71	1288.17
430.92	1316.84
431.13	1304.56
431.33	1300.46
431.54	1316.84
431.74	1282.03
431.95	1318.89
432.15	1265.64
432.36	1259.50
432.56	1335.28
432.77	1255.40
432.98	1255.40
433.18	1247.21
433.39	1265.64
433.59	1218.54
433.80	1298.41
434.00	1325.04
434.21	1273.84
434.41	1265.64
434.62	1249.26
434.82	1271.79
435.03	1288.17
435.23	1273.84
435.44	1218.54
435.64	1273.84
435.85	1320.94
436.06	1198.06
436.26	1247.21
436.47	1253.36
436.67	1279.98
436.88	1257.45
437.08	1347.56
437.29	1245.16
437.49	1236.97
437.70	1306.60
437.90	1300.46
438.11	1269.74
438.31	1243.12
438.52	1198.06
438.72	1247.21
438.93	1298.41
439.13	1249.26
439.34	1241.07
439.54	1228.78
439.75	1277.93
439.95	1259.50
440.16	1230.83
440.36	1279.98
440.57	1218.54
440.77	1279.98
440.98	1310.70
441.18	1224.69
441.39	1239.02
441.59	1243.12
441.80	1255.40
442.00	1325.04
442.21	1255.40
442.41	1230.83
442.62	1216.49
442.82	1298.41
443.02	1241.07
443.23	1298.41
443.43	1279.98
443.64	1288.17
443.84	1275.88
444.05	1265.64
444.25	1239.02
444.46	1267.69
444.66	1267.69
444.87	1349.61
445.07	1318.89
445.28	1329.13
445.48	1288.17
445.69	1265.64
445.89	1255.40
446.09	1273.84
446.30	1222.64
446.50	1353.71
446.71	1189.87
446.91	1271.79
447.12	1222.64
447.32	1302.51
447.53	1312.75
447.73	1320.94
447.93	1273.84
448.14	1249.26
448.34	1296.36
448.55	1279.98
448.75	1347.56
448.96	1245.16
449.16	1277.93
449.36	1267.69
449.57	1255.40
449.77	1247.21
449.98	1310.70
450.18	1312.75
450.39	1294.32
450.59	1249.26
450.79	1247.21
451.00	1320.94
451.20	1286.12
451.41	1267.69
451.61	1255.40
451.81	1288.17
452.02	1265.64
452.22	1327.08
452.43	1298.41
452.63	1267.69
452.84	1265.64
453.04	1198.06
453.24	1253.36
453.45	1361.90
453.65	1304.56
453.86	1306.60
454.06	1282.03
454.26	1292.27
454.47	1282.03
454.67	1320.94
454.87	1236.97
455.08	1325.04
455.28	1171.44
455.49	1302.51
455.69	1294.32
455.89	1318.89
456.10	1267.69
456.30	1241.07
456.51	1277.93
456.71	1265.64
456.91	1298.41
457.12	1271.79
457.32	1243.12
457.52	1306.60
457.73	1249.26
457.93	1224.69
458.14	1220.59
458.34	1310.70
458.54	1245.16
458.75	1265.64
458.95	1314.80
459.15	1314.80
459.36	1269.74
459.56	1277.93
459.76	1286.12
459.97	1218.54
460.17	1282.03
460.37	1331.18
460.58	1275.88
460.78	1257.45
460.99	1255.40
461.19	1308.65
461.39	1310.70
461.60	1265.64
461.80	1302.51
462.00	1247.21
462.21	1245.16
462.41	1277.93
462.61	1212.40
462.82	1296.36
463.02	1271.79
463.22	1251.31
463.43	1193.97
463.63	1286.12
463.83	1345.52
464.04	1228.78
464.24	1263.60
464.44	1241.07
464.64	1232.88
464.85	1341.42
465.05	1247.21
465.25	1251.31
465.46	1255.40
465.66	1282.03
465.86	1239.02
466.07	1271.79
466.27	1200.11
466.47	1263.60
466.68	1243.12
466.88	1265.64
467.08	1300.46
467.29	1226.73
467.49	1327.08
467.69	1269.74
467.89	1208.30
468.10	1241.07
468.30	1218.54
468.50	1269.74
468.71	1198.06
468.91	1286.12
469.11	1271.79
469.31	1257.45
469.52	1167.34
469.72	1214.45
469.92	1294.32
470.13	1320.94
470.33	1288.17
470.53	1228.78
470.73	1269.74
470.94	1275.88
471.14	1189.87
471.34	1306.60
471.54	1230.83
471.75	1265.64
471.95	1228.78
472.15	1257.45
472.36	1247.21
472.56	1318.89
472.76	1363.95
472.96	1320.94
473.17	1296.36
473.37	1247.21
473.57	1308.65
473.77	1308.65
473.98	1230.83
474.18	1282.03
474.38	1282.03
474.58	1224.69
474.79	1290.22
474.99	1193.97
475.19	1290.22
475.39	1200.11
475.60	1241.07
475.80	1218.54
476.00	1265.64
476.20	1255.40
476.41	1245.16
476.61	1325.04
476.81	1275.88
477.01	1263.60
477.21	1294.32
477.42	1249.26
477.62	1331.18
477.82	1322.99
478.02	1312.75
478.23	1347.56
478.43	1314.80
478.63	1327.08
478.83	1228.78
479.03	1267.69
479.24	1290.22
479.44	1341.42
479.64	1279.98
479.84	1198.06
480.04	1232.88
480.25	1218.54
480.45	1302.51
480.65	1312.75
480.85	1261.55
481.06	1261.55
481.26	1275.88
481.46	1208.30
481.66	1308.65
481.86	1257.45
482.06	1251.31
482.27	1269.74
482.47	1187.82
482.67	1288.17
482.87	1275.88
483.07	1241.07
483.28	1247.21
483.48	1282.03
483.68	1230.83
483.88	1241.07
484.08	1290.22
484.29	1255.40
484.49	1226.73
484.69	1228.78
484.89	1257.45
485.09	1361.90
485.29	1230.83
485.50	1349.61
485.70	1296.36
485.90	1271.79
486.10	1304.56
486.30	1247.21
486.50	1308.65
486.71	1335.28
486.91	1247.21
487.11	1296.36
487.31	1288.17
487.51	1288.17
487.71	1265.64
487.91	1273.84
488.12	1298.41
488.32	1249.26
488.52	1269.74
488.72	1198.06
488.92	1222.64
489.12	1306.60
489.32	1257.45
489.53	1294.32
489.73	1267.69
489.93	1255.40
490.13	1320.94
490.33	1259.50
490.53	1316.84
490.73	1267.69
490.94	1312.75
491.14	1275.88
491.34	1296.36
491.54	1302.51
491.74	1232.88
491.94	1220.59
492.14	1255.40
492.34	1312.75
492.54	1265.64
492.75	1296.36
492.95	1232.88
493.15	1306.60
493.35	1329.13
493.55	1325.04
493.75	1294.32
493.95	1275.88
494.15	1257.45
494.35	1277.93
494.56	1257.45
494.76	1314.80
494.96	1247.21
495.16	1284.08
495.36	1241.07
495.56	1234.93
495.76	1269.74
495.96	1329.13
496.16	1265.64
496.36	1267.69
496.56	1212.40
496.77	1271.79
496.97	1298.41
497.17	1288.17
497.37	1298.41
497.57	1251.31
497.77	1253.36
497.97	1300.46
498.17	1273.84
498.37	1241.07
498.57	1335.28
498.77	1226.73
498.97	1228.78
499.17	1243.12
499.38	1251.31
499.58	1308.65
499.78	1279.98
499.98	1361.90
500.18	1265.64
500.38	1249.26
500.58	1204.21
500.78	1241.07
500.98	1263.60
501.18	1353.71
501.38	1310.70
501.58	1308.65
501.78	1312.75
501.98	1271.79
502.18	1279.98
502.38	1255.40
502.58	1290.22
502.78	1230.83
502.98	1292.27
503.18	1304.56
503.38	1261.55
503.59	1290.22
503.79	1236.97
503.99	1232.88
504.19	1273.84
504.39	1300.46
504.59	1273.84
504.79	1312.75
504.99	1257.45
505.19	1245.16
505.39	1257.45
505.59	1284.08
505.79	1304.56
505.99	1320.94
506.19	1294.32
506.39	1243.12
506.59	1292.27
506.79	1329.13
506.99	1351.66
507.19	1298.41
507.39	1349.61
507.59	1304.56
507.79	1318.89
507.99	1241.07
508.19	1245.16
508.39	1279.98
508.59	1284.08
508.79	1298.41
508.99	1277.93
509.19	1236.97
509.39	1273.84
509.59	1255.40
509.79	1288.17
509.99	1265.64
510.19	1314.80
510.39	1204.21
510.59	1251.31
510.79	1312.75
510.99	1232.88
511.19	1216.49
511.39	1255.40
511.59	1269.74
511.79	1329.13
511.99	1292.27
512.19	1226.73
512.38	1245.16
512.58	1331.18
512.78	1200.11
512.98	1343.47
513.18	1302.51
513.38	1249.26
513.58	1298.41
513.78	1202.16
513.98	1316.84
514.18	1150.96
514.38	1241.07
514.58	1265.64
514.78	1304.56
514.98	1288.17
515.18	1298.41
515.38	1292.27
515.58	1275.88
515.78	1284.08
515.98	1222.64
516.18	1294.32
516.38	1253.36
516.57	1277.93
516.77	1288.17
516.97	1249.26
517.17	1329.13
517.37	1245.16
517.57	1320.94
517.77	1247.21
517.97	1355.76
518.17	1249.26
518.37	1224.69
518.57	1286.12
518.77	1288.17
518.97	1273.84
519.16	1355.76
519.36	1253.36
519.56	1249.26
519.76	1265.64
519.96	1310.70
520.16	1282.03
520.36	1292.27
520.56	1257.45
520.76	1255.40
520.96	1286.12
521.16	1269.74
521.35	1329.13
521.55	1288.17
521.75	1357.80
521.95	1298.41
522.15	1157.10
522.35	1306.60
522.55	1245.16
522.75	1257.45
522.95	1249.26
523.14	1259.50
523.34	1228.78
523.54	1339.37
523.74	1284.08
523.94	1271.79
524.14	1290.22
524.34	1304.56
524.54	1257.45
524.73	1236.97
524.93	1304.56
525.13	1243.12
525.33	1224.69
525.53	1236.97
525.73	1185.77
525.93	1263.60
526.13	1253.36
526.32	1279.98
526.52	1304.56
526.72	1310.70
526.92	1261.55
527.12	1306.60
527.32	1146.86
527.52	1359.85
527.71	1329.13
527.91	1296.36
528.11	1292.27
528.31	1226.73
528.51	1292.27
528.71	1273.84
528.90	1292.27
529.10	1239.02
529.30	1269.74
529.50	1292.27
529.70	1290.22
529.90	1302.51
530.09	1312.75
530.29	1290.22
530.49	1277.93
530.69	1277.93
530.89	1331.18
531.09	1228.78
531.28	1320.94
531.48	1345.52
531.68	1279.98
531.88	1361.90
532.08	1218.54
532.28	1263.60
532.47	1312.75
532.67	1257.45
532.87	1208.30
533.07	1273.84
533.27	1329.13
533.46	1353.71
533.66	1196.01
533.86	1296.36
534.06	1308.65
534.26	1277.93
534.45	1257.45
534.65	1267.69
534.85	1282.03
535.05	1279.98
535.25	1226.73
535.44	1312.75
535.64	1208.30
535.84	1241.07
536.04	1329.13
536.24	1296.36
536.43	1181.68
536.63	1282.03
536.83	1271.79
537.03	1230.83
537.22	1236.97
537.42	1298.41
537.62	1196.01
537.82	1261.55
538.02	1236.97
538.21	1331.18
538.41	1265.64
538.61	1257.45
538.81	1337.32
539.00	1261.55
539.20	1339.37
539.40	1316.84
539.60	1286.12
539.79	1282.03
539.99	1226.73
540.19	1269.74
540.39	1249.26
540.58	1282.03
540.78	1345.52
540.98	1304.56
541.18	1368.04
541.37	1243.12
541.57	1310.70
541.77	1271.79
541.97	1300.46
542.16	1296.36
542.36	1253.36
542.56	1302.51
542.76	1310.70
542.95	1232.88
543.15	1286.12
543.35	1216.49
543.54	1230.83
543.74	1279.98
543.94	1255.40
544.14	1312.75
544.33	1224.69
544.53	1292.27
544.73	1279.98
544.93	1263.60
545.12	1226.73
545.32	1218.54
545.52	1294.32
545.71	1359.85
545.91	1273.84
546.11	1343.47
546.30	1232.88
546.50	1306.60
546.70	1236.97
546.90	1284.08
547.09	1327.08
547.29	1296.36
547.49	1349.61
547.68	1300.46
547.88	1265.64
548.08	1296.36
548.27	1298.41
548.47	1259.50
548.67	1220.59
548.87	1300.46
549.06	1214.45
549.26	1245.16
549.46	1277.93
549.65	1263.60
549.85	1243.12
550.05	1329.13
550.24	1239.02
550.44	1279.98
550.64	1300.46
550.83	1245.16
551.03	1345.52
551.23	1288.17
551.42	1304.56
551.62	1298.41
551.82	1277.93
552.01	1322.99
552.21	1310.70
552.41	1339.37
552.60	1314.80
552.80	1318.89
553.00	1218.54
553.19	1241.07
553.39	1308.65
553.59	1239.02
553.78	1271.79
553.98	1347.56
554.17	1327.08
554.37	1306.60
554.57	1329.13
554.76	1294.32
554.96	1241.07
555.16	1279.98
555.35	1296.36
555.55	1265.64
555.75	1261.55
555.94	1361.90
556.14	1265.64
556.33	1292.27
556.53	1269.74
556.73	1241.07
556.92	1353.71
557.12	1232.88
557.32	1298.41
557.51	1284.08
557.71	1331.18
557.90	1265.64
558.10	1310.70
558.30	1249.26
558.49	1329.13
558.69	1216.49
558.88	1284.08
559.08	1263.60
559.28	1296.36
559.47	1322.99
559.67	1327.08
559.86	1261.55
560.06	1230.83
560.26	1275.88
560.45	1302.51
560.65	1333.23
560.84	1306.60
561.04	1241.07
561.24	1302.51
561.43	1239.02
561.63	1296.36
561.82	1353.71
562.02	1247.21
562.22	1212.40
562.41	1306.60
562.61	1255.40
562.80	1292.27
563.00	1318.89
563.19	1306.60
563.39	1279.98
563.59	1320.94
563.78	1245.16
563.98	1298.41
564.17	1298.41
564.37	1224.69
564.56	1249.26
564.76	1236.97
564.96	1302.51
565.15	1308.65
565.35	1300.46
565.54	1245.16
565.74	1302.51
565.93	1286.12
566.13	1271.79
566.32	1230.83
566.52	1257.45
566.71	1290.22
566.91	1251.31
567.11	1286.12
567.30	1245.16
567.50	1345.52
567.69	1232.88
567.89	1251.31
568.08	1284.08
568.28	1275.88
568.47	1275.88
568.67	1284.08
568.86	1284.08
569.06	1314.80
569.25	1249.26
569.45	1286.12
569.64	1322.99
569.84	1288.17
570.04	1288.17
570.23	1335.28
570.43	1292.27
570.62	1351.66
570.82	1261.55
571.01	1224.69
571.21	1320.94
571.40	1306.60
571.60	1263.60
571.79	1284.08
571.99	1335.28
572.18	1212.40
572.38	1259.50
572.57	1322.99
572.77	1230.83
572.96	1349.61
573.16	1269.74
573.35	1273.84
573.55	1247.21
573.74	1292.27
573.94	1249.26
574.13	1257.45
574.33	1298.41
574.52	1296.36
574.71	1298.41
574.91	1269.74
575.10	1253.36
575.30	1239.02
575.49	1202.16
575.69	1282.03
575.88	1191.92
576.08	1267.69
576.27	1286.12
576.47	1306.60
576.66	1265.64
576.86	1198.06
577.05	1298.41
577.25	1275.88
577.44	1284.08
577.64	1214.45
577.83	1277.93
578.02	1271.79
578.22	1331.18
578.41	1277.93
578.61	1288.17
578.80	1224.69
579.00	1271.79
579.19	1261.55
579.39	1327.08
579.58	1273.84
579.77	1314.80
579.97	1310.70
580.16	1322.99
580.36	1292.27
580.55	1275.88
580.75	1239.02
580.94	1253.36
581.13	1273.84
581.33	1345.52
581.52	1277.93
581.72	1241.07
581.91	1318.89
582.11	1347.56
582.30	1263.60
582.49	1277.93
582.69	1296.36
582.88	1261.55
583.08	1220.59
583.27	1327.08
583.47	1271.79
583.66	1312.75
583.85	1282.03
584.05	1288.17
584.24	1255.40
584.44	1259.50
584.63	1366.00
584.82	1288.17
585.02	1181.68
585.21	1308.65
585.41	1286.12
585.60	1277.93
585.79	1267.69
585.99	1251.31
586.18	1306.60
586.37	1273.84
586.57	1273.84
586.76	1261.55
586.96	1273.84
587.15	1279.98
587.34	1329.13
587.54	1380.33
587.73	1345.52
587.93	1316.84
588.12	1298.41
588.31	1222.64
588.51	1370.09
588.70	1232.88
588.89	1304.56
589.09	1273.84
589.28	1245.16
589.47	1310.70
589.67	1306.60
589.86	1320.94
590.06	1284.08
590.25	1370.09
590.44	1239.02
590.64	1249.26
590.83	1251.31
591.02	1296.36
591.22	1245.16
591.41	1288.17
591.60	1366.00
591.80	1302.51
591.99	1261.55
592.18	1310.70
592.38	1243.12
592.57	1267.69
592.76	1318.89
592.96	1284.08
593.15	1409.00
593.34	1282.03
593.54	1322.99
593.73	1257.45
593.92	1263.60
594.12	1306.60
594.31	1286.12
594.50	1249.26
594.70	1331.18
594.89	1265.64
595.08	1279.98
595.28	1251.31
595.47	1312.75
595.66	1257.45
595.86	1247.21
596.05	1228.78
596.24	1245.16
596.43	1312.75
596.63	1251.31
596.82	1339.37
597.01	1247.21
597.21	1239.02
597.40	1341.42
597.59	1298.41
597.79	1370.09
597.98	1316.84
598.17	1228.78
598.36	1232.88
598.56	1224.69
598.75	1335.28
598.94	1267.69
599.14	1345.52
599.33	1314.80
599.52	1341.42
599.71	1288.17
599.91	1329.13
600.10	1333.23
600.29	1282.03
600.48	1267.69
600.68	1239.02
600.87	1292.27
601.06	1279.98
601.26	1347.56
601.45	1263.60
601.64	1261.55
601.83	1294.32
602.03	1288.17
602.22	1265.64
602.41	1245.16
602.60	1306.60
602.80	1316.84
602.99	1277.93
603.18	1279.98
603.37	1218.54
603.57	1325.04
603.76	1271.79
603.95	1245.16
604.14	1263.60
604.34	1265.64
604.53	1312.75
604.72	1302.51
604.91	1279.98
605.10	1236.97
605.30	1296.36
605.49	1384.43
605.68	1304.56
605.87	1279.98
606.07	1273.84
606.26	1331.18
606.45	1263.60
606.64	1318.89
606.84	1259.50
607.03	1294.32
607.22	1288.17
607.41	1275.88
607.60	1351.66
607.80	1300.46
607.99	1308.65
608.18	1296.36
608.37	1284.08
608.56	1318.89
608.76	1341.42
608.95	1263.60
609.14	1228.78
609.33	1335.28
609.52	1290.22
609.72	1310.70
609.91	1296.36
610.10	1253.36
610.29	1245.16
610.48	1290.22
610.68	1277.93
610.87	1310.70
611.06	1241.07
611.25	1296.36
611.44	1243.12
611.63	1361.90
611.83	1327.08
612.02	1265.64
612.21	1288.17
612.40	1249.26
612.59	1355.76
612.79	1316.84
612.98	1282.03
613.17	1314.80
613.36	1228.78
613.55	1296.36
613.74	1263.60
613.93	1310.70
614.13	1279.98
614.32	1335.28
614.51	1255.40
614.70	1251.31
614.89	1335.28
615.08	1290.22
615.28	1310.70
615.47	1251.31
615.66	1316.84
615.85	1251.31
616.04	1220.59
616.23	1277.93
616.42	1273.84
616.62	1277.93
616.81	1267.69
617.00	1329.13
617.19	1228.78
617.38	1284.08
617.57	1257.45
617.76	1249.26
617.95	1320.94
618.15	1320.94
618.34	1331.18
618.53	1290.22
618.72	1320.94
618.91	1366.00
619.10	1255.40
619.29	1241.07
619.48	1273.84
619.68	1206.25
619.87	1312.75
620.06	1286.12
620.25	1277.93
620.44	1314.80
620.63	1243.12
620.82	1333.23
621.01	1267.69
621.20	1271.79
621.39	1181.68
621.59	1308.65
621.78	1345.52
621.97	1286.12
622.16	1286.12
622.35	1243.12
622.54	1327.08
622.73	1232.88
622.92	1269.74
623.11	1247.21
623.30	1224.69
623.49	1290.22
623.68	1245.16
623.88	1296.36
624.07	1298.41
624.26	1302.51
624.45	1325.04
624.64	1296.36
624.83	1331.18
625.02	1259.50
625.21	1282.03
625.40	1257.45
625.59	1361.90
625.78	1273.84
625.97	1275.88
626.16	1304.56
626.35	1282.03
626.54	1310.70
626.74	1396.71
626.93	1300.46
627.12	1292.27
627.31	1239.02
627.50	1296.36
627.69	1259.50
627.88	1273.84
628.07	1298.41
628.26	1290.22
628.45	1271.79
628.64	1265.64
628.83	1294.32
629.02	1267.69
629.21	1339.37
629.40	1292.27
629.59	1331.18
629.78	1298.41
629.97	1322.99
630.16	1304.56
630.35	1349.61
630.54	1331.18
630.73	1318.89
630.92	1398.76
631.11	1347.56
631.30	1337.32
631.49	1396.71
631.68	1834.98
631.87	2938.84
632.06	6737.82
632.25	11300.69
632.44	22060.72
632.63	37957.05
632.82	41315.72
633.01	21341.88
633.20	7808.90
633.39	5105.59
633.58	3641.29
633.77	2590.68
633.96	2213.85
634.15	2174.94
634.34	1882.08
634.53	1826.79
634.72	1765.35
634.91	1515.50
635.10	1492.97
635.29	1511.40
635.48	1484.78
635.67	1460.20
635.86	1423.34
636.05	1460.20
636.24	1335.28
636.43	1306.60
636.62	1306.60
636.81	1310.70
637.00	1355.76
637.19	1325.04
637.38	1284.08
637.57	1308.65
637.76	1312.75
637.95	1320.94
638.14	1359.85
638.33	1247.21
638.52	1284.08
638.71	1247.21
638.89	1277.93
639.08	1224.69
639.27	1273.84
639.46	1288.17
639.65	1298.41
639.84	1298.41
640.03	1269.74
640.22	1329.13
640.41	1329.13
640.60	1316.84
640.79	1304.56
640.98	1247.21
641.17	1363.95
641.36	1224.69
641.55	1271.79
641.74	1314.80
641.92	1273.84
642.11	1234.93
642.30	1333.23
642.49	1253.36
642.68	1263.60
642.87	1251.31
643.06	1327.08
643.25	1259.50
643.44	1322.99
643.63	1337.32
643.82	1327.08
644.00	1322.99
644.19	1298.41
644.38	1253.36
644.57	1349.61
644.76	1302.51
644.95	1273.84
645.14	1304.56
645.33	1210.35
645.52	1241.07
645.71	1236.97
645.89	1228.78
646.08	1212.40
646.27	1298.41
646.46	1273.84
646.65	1224.69
646.84	1351.66
647.03	1318.89
647.22	1267.69
647.40	1290.22
647.59	1374.19
647.78	1261.55
647.97	1263.60
648.16	1286.12
648.35	1282.03
648.54	1302.51
648.73	1343.47
648.91	1277.93
649.10	1288.17
649.29	1216.49
649.48	1204.21
649.67	1318.89
649.86	1261.55
650.05	1232.88
650.23	1320.94
650.42	1222.64
650.61	1329.13
650.80	1339.37
650.99	1300.46
651.18	1294.32
651.36	1310.70
651.55	1306.60
651.74	1251.31
651.93	1351.66
652.12	1339.37
652.31	1277.93
652.49	1259.50
652.68	1255.40
652.87	1269.74
653.06	1298.41
653.25	1292.27
653.44	1232.88
653.62	1286.12
653.81	1247.21
654.00	1253.36
654.19	1206.25
654.38	1302.51
654.56	1236.97
654.75	1286.12
654.94	1265.64
655.13	1345.52
655.32	1320.94
655.51	1269.74
655.69	1275.88
655.88	1296.36
656.07	1243.12
656.26	1265.64
656.45	1265.64
656.63	1271.79
656.82	1265.64
657.01	1222.64
657.20	1220.59
657.38	1312.75
657.57	1216.49
657.76	1232.88
657.95	1329.13
658.14	1200.11
658.32	1327.08
658.51	1310.70
658.70	1249.26
658.89	1322.99
659.08	1179.63
659.26	1298.41
659.45	1349.61
659.64	1320.94
659.83	1290.22
660.01	1263.60
660.20	1212.40
660.39	1206.25
660.58	1263.60
660.76	1265.64
660.95	1212.40
661.14	1298.41
661.33	1183.73
661.51	1257.45
661.70	1279.98
661.89	1255.40
662.08	1306.60
662.26	1314.80
662.45	1304.56
662.64	1290.22
662.83	1300.46
663.01	1277.93
663.20	1267.69
663.39	1251.31
663.58	1300.46
663.76	1306.60
663.95	1310.70
664.14	1255.40
664.32	1288.17
664.51	1251.31
664.70	1243.12
664.89	1239.02
665.07	1181.68
665.26	1304.56
665.45	1282.03
665.64	1292.27
665.82	1243.12
666.01	1216.49
666.20	1339.37
666.38	1275.88
666.57	1247.21
666.76	1239.02
666.95	1308.65
667.13	1337.32
667.32	1228.78
667.51	1208.30
667.69	1257.45
667.88	1228.78
668.07	1257.45
668.25	1380.33
668.44	1224.69
668.63	1277.93
668.81	1257.45
669.00	1312.75
669.19	1290.22
669.38	1198.06
669.56	1220.59
669.75	1206.25
669.94	1271.79
670.12	1245.16
670.31	1269.74
670.50	1187.82
670.68	1179.63
670.87	1267.69
671.06	1261.55
671.24	1318.89
671.43	1288.17
671.62	1296.36
671.80	1263.60
671.99	1261.55
672.18	1253.36
672.36	1253.36
672.55	1214.45
672.74	1230.83
672.92	1212.40
673.11	1232.88
673.29	1220.59
673.48	1265.64
673.67	1210.35
673.85	1243.12
674.04	1249.26
674.23	1355.76
674.41	1196.01
674.60	1279.98
674.79	1310.70
674.97	1343.47
675.16	1331.18
675.34	1200.11
675.53	1245.16
675.72	1298.41
675.90	1306.60
676.09	1155.05
676.28	1308.65
676.46	1220.59
676.65	1267.69
676.83	1284.08
677.02	1263.60
677.21	1378.28
677.39	1302.51
677.58	1208.30
677.77	1294.32
677.95	1271.79
678.14	1255.40
678.32	1304.56
678.51	1277.93
678.70	1372.14
678.88	1265.64
679.07	1396.71
679.25	1322.99
679.44	1282.03
679.63	1290.22
679.81	1304.56
680.00	1275.88
680.18	1251.31
680.37	1306.60
680.55	1329.13
680.74	1351.66
680.93	1279.98
681.11	1259.50
681.30	1224.69
681.48	1333.23
681.67	1259.50
681.85	1271.79
682.04	1234.93
682.23	1200.11
682.41	1265.64
682.60	1259.50
682.78	1284.08
682.97	1325.04
683.15	1247.21
683.34	1265.64
683.53	1261.55
683.71	1318.89
683.90	1191.92
684.08	1298.41
684.27	1296.36
684.45	1314.80
684.64	1335.28
684.82	1331.18
685.01	1279.98
685.19	1261.55
685.38	1345.52
685.57	1253.36
685.75	1247.21
685.94	1249.26
686.12	1261.55
686.31	1228.78
686.49	1247.21
686.68	1296.36
686.86	1312.75
687.05	1331.18
687.23	1253.36
687.42	1206.25
687.60	1384.43
687.79	1345.52
687.97	1181.68
688.16	1284.08
688.34	1243.12
688.53	1210.35
688.71	1333.23
688.90	1314.80
689.08	1271.79
689.27	1273.84
689.45	1310.70
689.64	1304.56
689.82	1249.26
690.01	1214.45
690.19	1253.36
690.38	1193.97
690.56	1327.08
690.75	1290.22
690.93	1304.56
691.12	1265.64
691.30	1290.22
691.49	1300.46
691.67	1220.59
691.86	1282.03
692.04	1261.55
692.23	1228.78
692.41	1325.04
692.60	1234.93
692.78	1210.35
692.97	1228.78
693.15	1279.98
693.34	1255.40
693.52	1218.54
693.71	1247.21
693.89	1241.07
694.08	1245.16
694.26	1277.93
694.44	1298.41
694.63	1232.88
694.81	1277.93
695.00	1265.64
695.18	1241.07
695.37	1304.56
695.55	1224.69
695.74	1189.87
695.92	1296.36
696.10	1294.32
696.29	1339.37
696.47	1345.52
696.66	1275.88
696.84	1282.03
697.03	1230.83
697.21	1279.98
697.40	1290.22
697.58	1284.08
697.76	1273.84
697.95	1265.64
698.13	1245.16
698.32	1230.83
698.50	1286.12
698.68	1232.88
698.87	1304.56
699.05	1243.12
699.24	1249.26
699.42	1273.84
699.61	1277.93
699.79	1343.47
699.97	1322.99
700.16	1202.16
700.34	1257.45
700.53	1239.02
700.71	1314.80
700.89	1241.07
701.08	1222.64
701.26	1239.02
701.45	1312.75
701.63	1296.36
701.81	1255.40
702.00	1251.31
702.18	1298.41
702.37	1284.08
702.55	1234.93
702.73	1230.83
702.92	1302.51
703.10	1339.37
703.28	1290.22
703.47	1275.88
703.65	1232.88
703.84	1298.41
704.02	1247.21
704.20	1251.31
704.39	1257.45
704.57	1335.28
704.75	1232.88
704.94	1298.41
705.12	1234.93
705.30	1263.60
705.49	1243.12
705.67	1316.84
705.86	1251.31
706.04	1290.22
706.22	1273.84
706.41	1290.22
706.59	1310.70
706.77	1275.88
706.96	1277.93
707.14	1275.88
707.32	1298.41
707.51	1241.07
707.69	1253.36
707.87	1245.16
708.06	1298.41
708.24	1327.08
708.42	1261.55
708.61	1232.88
708.79	1282.03
708.97	1175.53
709.16	1296.36
709.34	1275.88
709.52	1333.23
709.71	1271.79
709.89	1210.35
710.07	1247.21
710.26	1191.92
710.44	1189.87
710.62	1189.87
710.80	1300.46
710.99	1261.55
711.17	1241.07
711.35	1263.60
711.54	1232.88
711.72	1257.45
711.90	1361.90
712.09	1204.21
712.27	1329.13
712.45	1253.36
712.63	1259.50
712.82	1257.45
713.00	1208.30
713.18	1245.16
713.37	1347.56
713.55	1273.84
713.73	1337.32
713.91	1222.64
714.10	1222.64
714.28	1302.51
714.46	1284.08
714.65	1308.65
714.83	1273.84
715.01	1306.60
715.19	1247.21
715.38	1232.88
715.56	1273.84
715.74	1245.16
715.92	1304.56
716.11	1347.56
716.29	1230.83
716.47	1300.46
716.65	1255.40
716.84	1300.46
717.02	1300.46
717.20	1243.12
717.38	1312.75
717.57	1236.97
717.75	1263.60
717.93	1165.29
718.11	1245.16
718.30	1275.88
718.48	1249.26
718.66	1294.32
718.84	1183.73
719.03	1261.55
719.21	1310.70
719.39	1331.18
719.57	1316.84
719.75	1294.32
719.94	1249.26
720.12	1257.45
720.30	1345.52
720.48	1263.60
720.67	1251.31
720.85	1275.88
721.03	1257.45
721.21	1327.08
721.39	1263.60
721.58	1261.55
721.76	1255.40
721.94	1212.40
722.12	1249.26
722.30	1337.32
722.49	1245.16
722.67	1312.75
722.85	1284.08
723.03	1236.97
723.21	1282.03
723.40	1271.79
723.58	1282.03
723.76	1269.74
723.94	1304.56
724.12	1214.45
724.30	1222.64
724.49	1241.07
724.67	1298.41
724.85	1239.02
725.03	1253.36
725.21	1277.93
725.40	1224.69
725.58	1308.65
725.76	1290.22
725.94	1263.60
726.12	1247.21
726.30	1255.40
726.49	1243.12
726.67	1255.40
726.85	1357.80
727.03	1257.45
727.21	1273.84
727.39	1257.45
727.57	1257.45
727.76	1251.31
727.94	1245.16
728.12	1333.23
728.30	1298.41
728.48	1288.17
728.66	1302.51
728.84	1259.50
729.03	1300.46
729.21	1288.17
729.39	1239.02
729.57	1196.01
729.75	1304.56
729.93	1257.45
730.11	1208.30
730.30	1243.12
730.48	1265.64
730.66	1345.52
730.84	1314.80
731.02	1167.34
731.20	1208.30
731.38	1290.22
731.56	1236.97
731.74	1245.16
731.93	1290.22
732.11	1314.80
732.29	1279.98
732.47	1376.24
732.65	1261.55
732.83	1300.46
733.01	1263.60
733.19	1251.31
733.37	1261.55
733.56	1224.69
733.74	1247.21
733.92	1265.64
734.10	1267.69
734.28	1232.88
734.46	1286.12
734.64	1308.65
734.82	1279.98
735.00	1265.64
735.18	1253.36
735.36	1239.02
735.54	1386.47
735.73	1251.31
735.91	1228.78
736.09	1202.16
736.27	1249.26
736.45	1191.92
736.63	1232.88
736.81	1228.78
736.99	1325.04
737.17	1255.40
737.35	1249.26
737.53	1273.84
737.71	1220.59
737.89	1222.64
738.07	1273.84
738.25	1206.25
738.43	1265.64
738.61	1261.55
738.80	1265.64
738.98	1286.12
739.16	1273.84
739.34	1306.60
739.52	1255.40
739.70	1269.74
739.88	1234.93
740.06	1347.56
740.24	1292.27
740.42	1259.50
740.60	1241.07
740.78	1273.84
740.96	1245.16
741.14	1286.12
741.32	1357.80
741.50	1218.54
741.68	1271.79
741.86	1310.70
742.04	1245.16
742.22	1279.98
742.40	1259.50
742.58	1230.83
742.76	1263.60
742.94	1327.08
743.12	1286.12
743.30	1226.73
743.48	1232.88
743.66	1292.27
743.84	1284.08
744.02	1257.45
744.20	1298.41
744.38	1292.27
744.56	1275.88
744.74	1228.78
744.92	1263.60
745.10	1294.32
745.28	1353.71
745.46	1277.93
745.64	1253.36
745.82	1322.99
746.00	1247.21
746.18	1296.36
746.36	1298.41
746.54	1345.52
746.72	1327.08
746.90	1224.69
747.08	1275.88
747.26	1259.50
747.44	1249.26
747.62	1331.18
747.80	1306.60
747.98	1228.78
748.15	1290.22
748.33	1325.04
748.51	1218.54
748.69	1275.88
748.87	1263.60
749.05	1277.93
749.23	1331.18
749.41	1251.31
749.59	1284.08
749.77	1290.22
749.95	1255.40
750.13	1220.59
750.31	1292.27
750.49	1267.69
750.67	1241.07
750.85	1243.12
751.03	1292.27
751.20	1251.31
751.38	1212.40
751.56	1236.97
751.74	1308.65
751.92	1236.97
752.10	1255.40
752.28	1300.46
752.46	1312.75
752.64	1241.07
752.82	1312.75
753.00	1329.13
753.18	1245.16
753.35	1284.08
753.53	1329.13
753.71	1202.16
753.89	1224.69
754.07	1222.64
754.25	1218.54
754.43	1220.59
754.61	1296.36
754.79	1304.56
754.97	1232.88
755.14	1177.58
755.32	1292.27
755.50	1320.94
755.68	1261.55
755.86	1251.31
756.04	1247.21
756.22	1222.64
756.40	1282.03
756.57	1302.51
756.75	1193.97
756.93	1261.55
757.11	1294.32
757.29	1265.64
757.47	1339.37
757.65	1284.08
757.82	1302.51
758.00	1284.08
758.18	1277.93
758.36	1312.75
758.54	1255.40
758.72	1202.16
758.90	1322.99
759.07	1304.56
759.25	1288.17
759.43	1269.74
759.61	1335.28
759.79	1247.21
759.97	1279.98
760.15	1327.08
760.32	1259.50
760.50	1255.40
760.68	1290.22
760.86	1300.46
761.04	1325.04
761.22	1269.74
761.39	1314.80
761.57	1220.59
761.75	1187.82
761.93	1300.46
762.11	1269.74
762.28	1308.65
762.46	1347.56
762.64	1308.65
762.82	1218.54
763.00	1300.46
763.18	1288.17
763.35	1288.17
763.53	1318.89
763.71	1269.74
763.89	1236.97
764.07	1308.65
764.24	1308.65
764.42	1306.60
764.60	1245.16
764.78	1257.45
764.96	1239.02
765.13	1292.27
765.31	1243.12
765.49	1247.21
765.67	1204.21
765.84	1275.88
766.02	1298.41
766.20	1236.97
766.38	1245.16
766.56	1257.45
766.73	1284.08
766.91	1222.64
767.09	1265.64
767.27	1230.83
767.44	1279.98
767.62	1220.59
767.80	1255.40
767.98	1259.50
768.15	1349.61
768.33	1282.03
768.51	1312.75
768.69	1216.49
768.87	1251.31
769.04	1189.87
769.22	1230.83
769.40	1282.03
769.58	1288.17
769.75	1347.56
769.93	1292.27
770.11	1257.45
770.28	1236.97
770.46	1312.75
770.64	1253.36
770.82	1236.97
770.99	1298.41
771.17	1294.32
771.35	1316.84
771.53	1239.02
771.70	1279.98
771.88	1302.51
772.06	1279.98
772.23	1243.12
772.41	1236.97
772.59	1298.41
772.77	1322.99
772.94	1261.55
773.12	1312.75
773.30	1222.64
773.47	1300.46
773.65	1253.36
773.83	1300.46
774.01	1236.97
774.18	1290.22
774.36	1226.73
774.54	1294.32
774.71	1216.49
774.89	1208.30
775.07	1300.46
775.24	1257.45
775.42	1202.16
775.60	1349.61
775.78	1228.78
775.95	1257.45
776.13	1196.01
776.31	1351.66
776.48	1282.03
776.66	1226.73
776.84	1236.97
777.01	1253.36
777.19	1171.44
777.37	1230.83
777.54	1271.79
777.72	1265.64
777.90	1249.26
778.07	1279.98
778.25	1335.28
778.43	1304.56
778.60	1298.41
778.78	1214.45
778.96	1331.18
779.13	1298.41
779.31	1263.60
779.49	1255.40
779.66	1310.70
779.84	1292.27
780.01	1249.26
780.19	1277.93
780.37	1325.04
780.54	1271.79
780.72	1208.30
780.90	1273.84
781.07	1263.60
781.25	1241.07
781.43	1261.55
781.60	1232.88
781.78	1310.70
781.95	1271.79
782.13	1290.22
782.31	1243.12
782.48	1214.45
782.66	1296.36
782.83	1322.99
783.01	1239.02
783.19	1255.40
783.36	1298.41
783.54	1286.12
783.72	1232.88
783.89	1222.64
784.07	1263.60
784.24	1267.69
784.42	1335.28
784.60	1232.88
784.77	1269.74
784.95	1234.93
785.12	1279.98
785.30	1310.70
785.47	1347.56
785.65	1345.52
785.83	1243.12
786.00	1239.02
786.18	1220.59
786.35	1212.40
786.53	1251.31
786.71	1216.49
786.88	1306.60
787.06	1290.22
787.23	1204.21
787.41	1290.22
787.58	1282.03
787.76	1282.03
787.94	1279.98
788.11	1296.36
788.29	1232.88
788.46	1304.56
788.64	1273.84
788.81	1234.93
788.99	1251.31
789.16	1224.69
789.34	1259.50
789.52	1255.40
789.69	1259.50
789.87	1230.83
790.04	1279.98
790.22	1214.45
790.39	1284.08
790.57	1193.97
790.74	1288.17
790.92	1292.27
791.09	1230.83
791.27	1339.37
791.44	1318.89
791.62	1286.12
791.79	1331.18
791.97	1269.74
792.15	1247.21
792.32	1314.80
792.50	1304.56
792.67	1380.33
792.85	1302.51
793.02	1259.50
793.20	1210.35
793.37	1271.79
793.55	1286.12
793.72	1220.59
793.90	1290.22
794.07	1234.93
794.25	1306.60
794.42	1271.79
794.60	1318.89
794.77	1286.12
794.95	1275.88
795.12	1245.16
795.30	1296.36
795.47	1312.75
795.65	1261.55
795.82	1193.97
796.00	1310.70
796.17	1310.70
796.34	1245.16
796.52	1312.75
796.69	1288.17
796.87	1239.02
797.04	1249.26
797.22	1263.60
797.39	1343.47
797.57	1241.07
797.74	1216.49
797.92	1273.84
798.09	1282.03
798.27	1263.60
798.44	1222.64
798.62	1212.40
798.79	1263.60
798.96	1245.16
799.14	1265.64
799.31	1322.99
799.49	1241.07
799.66	1239.02
799.84	1304.56
800.01	1228.78
800.19	1220.59
800.36	1282.03
800.53	1298.41
800.71	1241.07
800.88	1310.70
801.06	1232.88
801.23	1279.98
801.41	1265.64
801.58	1183.73
801.75	1224.69
801.93	1243.12
802.10	1224.69
802.28	1284.08
802.45	1226.73
802.63	1267.69
802.80	1261.55
802.97	1234.93
803.15	1386.47
803.32	1253.36
803.50	1232.88
803.67	1255.40
803.84	1279.98
804.02	1245.16
804.19	1232.88
804.37	1261.55
804.54	1208.30
804.71	1191.92
804.89	1316.84
805.06	1267.69
805.24	1236.97
805.41	1304.56
805.58	1257.45
805.76	1353.71
805.93	1212.40
806.10	1286.12
806.28	1243.12
806.45	1224.69
806.63	1325.04
806.80	1290.22
806.97	1282.03
807.15	1183.73
807.32	1206.25
807.49	1253.36
807.67	1279.98
807.84	1257.45
808.01	1263.60
808.19	1239.02
808.36	1286.12
808.54	1320.94
808.71	1245.16
808.88	1267.69
809.06	1300.46
809.23	1310.70
809.40	1218.54
809.58	1300.46
809.75	1275.88
809.92	1267.69
810.10	1300.46
810.27	1286.12
810.44	1296.36
810.62	1284.08
810.79	1284.08
810.96	1247.21
811.14	1310.70
811.31	1257.45
811.48	1245.16
811.66	1310.70
811.83	1257.45
812.00	1277.93
812.18	1224.69
812.35	1247.21
812.52	1175.53
812.69	1249.26
812.87	1245.16
813.04	1206.25
813.21	1189.87
813.39	1253.36
813.56	1191.92
813.73	1275.88
813.91	1210.35
814.08	1312.75
814.25	1218.54
814.42	1294.32
814.60	1232.88
814.77	1273.84
814.94	1204.21
815.12	1257.45
815.29	1245.16
815.46	1261.55
815.63	1208.30
815.81	1236.97
815.98	1284.08
816.15	1265.64
816.33	1243.12
816.50	1296.36
816.67	1247.21
816.84	1316.84
817.02	1298.41
817.19	1327.08
817.36	1271.79
817.53	1269.74
817.71	1206.25
817.88	1267.69
818.05	1290.22
818.22	1290.22
818.40	1284.08
818.57	1304.56
818.74	1236.97
818.91	1275.88
819.09	1253.36
819.26	1243.12
819.43	1267.69
819.60	1241.07
819.78	1236.97
819.95	1230.83
820.12	1204.21
820.29	1304.56
820.47	1286.12
820.64	1275.88
820.81	1255.40
820.98	1322.99
821.15	1282.03
821.33	1255.40
821.50	1224.69
821.67	1255.40
821.84	1316.84
822.02	1245.16
822.19	1302.51
822.36	1208.30
822.53	1290.22
822.70	1288.17
822.88	1273.84
823.05	1347.56
823.22	1257.45
823.39	1251.31
823.56	1279.98
823.74	1263.60
823.91	1306.60
824.08	1204.21
824.25	1273.84
824.42	1310.70
824.60	1279.98
824.77	1302.51
824.94	1271.79
825.11	1304.56
825.28	1232.88
825.45	1241.07
825.63	1261.55
825.80	1298.41
825.97	1259.50
826.14	1320.94
826.31	1216.49
826.48	1261.55
826.66	1193.97
826.83	1259.50
827.00	1245.16
827.17	1200.11
827.34	1206.25
827.51	1251.31
827.69	1314.80
827.86	1245.16
828.03	1222.64
828.20	1320.94
828.37	1249.26
828.54	1333.23
828.71	1267.69
828.89	1292.27
829.06	1310.70
829.23	1259.50
829.40	1249.26
829.57	1288.17
829.74	1153.01
829.91	1329.13
830.09	1277.93
830.26	1273.84
830.43	1267.69
830.60	1290.22
830.77	1279.98
830.94	1232.88
831.11	1286.12
831.28	1275.88
831.46	1271.79
831.63	1296.36
831.80	1261.55
831.97	1378.28
832.14	1261.55
832.31	1255.40
832.48	1314.80
832.65	1298.41
832.82	1232.88
832.99	1204.21
833.17	1300.46
833.34	1257.45
833.51	1265.64
833.68	1300.46
833.85	1239.02
834.02	1286.12
834.19	1206.25
834.36	1298.41
834.53	1331.18
834.70	1269.74
834.87	1282.03
835.04	1288.17
835.22	1327.08
835.39	1206.25
835.56	1167.34
835.73	1181.68
835.90	1157.10
836.07	1232.88
836.24	1341.42
836.41	1271.79
836.58	1243.12
836.75	1224.69
836.92	1191.92
837.09	1249.26
837.26	1216.49
837.43	1263.60
837.60	1255.40
837.77	1241.07
837.94	1318.89
838.12	1284.08
838.29	1218.54
838.46	1228.78
838.63	1316.84
838.80	1331.18
838.97	1245.16
839.14	1351.66
839.31	1228.78
839.48	1265.64
839.65	1298.41
839.82	1302.51
839.99	1355.76
840.16	1249.26
840.33	1288.17
840.50	1226.73
840.67	1239.02
840.84	1257.45
841.01	1331.18
841.18	1275.88
841.35	1265.64
841.52	1308.65
841.69	1333.23
841.86	1271.79
842.03	1255.40
842.20	1230.83
842.37	1290.22
842.54	1314.80
842.71	1298.41
842.88	1206.25
843.05	1255.40
843.22	1220.59
843.39	1220.59
843.56	1218.54
843.73	1265.64
843.90	1216.49
844.07	1310.70
844.24	1210.35
844.41	1232.88
844.58	1286.12
844.75	1271.79
844.92	1300.46
845.09	1259.50
845.26	1230.83
845.43	1251.31
845.60	1302.51
845.77	1200.11
845.94	1251.31
846.10	1273.84
846.27	1271.79
846.44	1239.02
846.61	1316.84
846.78	1298.41
846.95	1200.11
847.12	1277.93
847.29	1232.88
847.46	1247.21
847.63	1243.12
847.80	1322.99
847.97	1273.84
848.14	1310.70
848.31	1275.88
848.48	1290.22
848.65	1263.60
848.82	1277.93
848.98	1181.68
849.15	1265.64
849.32	1263.60
849.49	1257.45
849.66	1284.08
849.83	1146.86
850.00	1185.77
850.17	1253.36
850.34	1249.26
850.51	1316.84
850.68	1279.98
850.85	1273.84
851.01	1261.55
851.18	1234.93
851.35	1316.84
851.52	1312.75
851.69	1234.93
851.86	1298.41
852.03	1245.16
852.20	1282.03
852.37	1335.28
852.53	1277.93
852.70	1339.37
852.87	1370.09
853.04	1222.64
853.21	1232.88
853.38	1263.60
853.55	1271.79
853.72	1325.04
853.89	1210.35
854.05	1273.84
854.22	1314.80
854.39	1236.97
854.56	1228.78
854.73	1296.36
854.90	1239.02
855.07	1241.07
855.23	1320.94
855.40	1234.93
855.57	1286.12
855.74	1282.03
855.91	1257.45
856.08	1286.12
856.25	1206.25
856.41	1322.99
856.58	1284.08
856.75	1275.88
856.92	1273.84
857.09	1292.27
857.26	1212.40
857.42	1282.03
857.59	1216.49
857.76	1327.08
857.93	1206.25
858.10	1279.98
858.27	1271.79
858.43	1257.45
858.60	1273.84
858.77	1279.98
858.94	1320.94
859.11	1341.42
859.27	1218.54
859.44	1216.49
859.61	1310.70
859.78	1261.55
859.95	1279.98
860.12	1273.84
860.28	1273.84
860.45	1316.84
860.62	1171.44
860.79	1292.27
860.95	1267.69
861.12	1310.70
861.29	1288.17
861.46	1200.11
861.63	1267.69
861.79	1269.74
861.96	1271.79
862.13	1245.16
862.30	1302.51
862.47	1294.32
862.63	1331.18
862.80	1257.45
862.97	1275.88
863.14	1290.22
863.30	1320.94
863.47	1261.55
863.64	1288.17
863.81	1290.22
863.97	1232.88
864.14	1234.93
864.31	1181.68
864.48	1320.94
864.65	1255.40
864.81	1257.45
864.98	1255.40
865.15	1322.99
865.32	1300.46
865.48	1337.32
865.65	1214.45
865.82	1335.28
865.98	1259.50
866.15	1241.07
866.32	1271.79
866.49	1247.21
866.65	1277.93
866.82	1310.70
866.99	1314.80
867.16	1212.40
867.32	1279.98
867.49	1310.70
867.66	1198.06
867.83	1230.83
867.99	1245.16
868.16	1271.79
868.33	1294.32
868.49	1251.31
868.66	1230.83
868.83	1273.84
868.99	1243.12
869.16	1241.07
869.33	1208.30
869.50	1263.60
869.66	1241.07
869.83	1245.16
870.00	1228.78
870.16	1191.92
870.33	1245.16
870.50	1273.84
870.66	1279.98
870.83	1271.79
871.00	1247.21
871.17	1249.26
871.33	1224.69
871.50	1232.88
871.67	1263.60
871.83	1212.40
872.00	1282.03
872.17	1286.12
872.33	1245.16
872.50	1331.18
872.67	1208.30
872.83	1302.51
873.00	1269.74
873.17	1284.08
873.33	1310.70
873.50	1208.30
873.67	1339.37
873.83	1279.98
874.00	1384.43
874.16	1277.93
874.33	1263.60
874.50	1241.07
874.66	1284.08
874.83	1253.36
875.00	1339.37
875.16	1275.88
875.33	1193.97
875.50	1187.82
875.66	1214.45
875.83	1249.26
875.99	1251.31
876.16	1239.02
876.33	1239.02
876.49	1298.41
876.66	1308.65
876.83	1329.13
876.99	1273.84
877.16	1325.04
877.32	1198.06
877.49	1204.21
877.66	1355.76
877.82	1314.80
877.99	1210.35
878.15	1255.40
878.32	1370.09
878.49	1284.08
878.65	1290.22
878.82	1200.11
878.98	1257.45
879.15	1333.23
879.32	1277.93
879.48	1290.22
879.65	1239.02
879.81	1320.94
879.98	1232.88
880.15	1327.08
880.31	1277.93
880.48	1320.94
880.64	1327.08
880.81	1253.36
880.97	1271.79
881.14	1288.17
881.31	1271.79
881.47	1279.98
881.64	1310.70
881.80	1226.73
881.97	1286.12
882.13	1288.17
882.30	1210.35
882.47	1234.93
882.63	1275.88
882.80	1304.56
882.96	1337.32
883.13	1220.59
883.29	1296.36
883.46	1282.03
883.62	1181.68
883.79	1257.45
883.95	1228.78
884.12	1271.79
884.29	1310.70
884.45	1265.64
884.62	1185.77
884.78	1249.26
884.95	1290.22
885.11	1239.02
885.28	1241.07
885.44	1249.26
885.61	1230.83
885.77	1204.21
885.94	1230.83
886.10	1261.55
886.27	1282.03
886.43	1218.54
886.60	1245.16
886.76	1337.32
886.93	1271.79
887.09	1292.27
887.26	1302.51
887.42	1275.88
887.59	1236.97
887.75	1279.98
887.92	1247.21
888.08	1224.69
888.25	1304.56
888.41	1245.16
888.58	1251.31
888.74	1255.40
888.91	1273.84
>>>>>End Processed Spectral Data<<<<<
