SpectraSuite Data File
++++++++++++++++++++++++++++++++++++
Date: Sun Apr 03 19:55:18 CEST 2016
User: root
Dark Spectrum Present: No
Reference Spectrum Present: No
Number of Sampled Component Spectra: 1
Spectrometers: USB4C02835
Integration Time (usec): 10000 (USB4C02835)
Spectra Averaged: 1 (USB4C02835)
Boxcar Smoothing: 0 (USB4C02835)
Correct for Electrical Dark: No (USB4C02835)
Strobe/Lamp Enabled: No (USB4C02835)
Correct for Detector Non-linearity: No (USB4C02835)
Correct for Stray Light: No (USB4C02835)
Number of Pixels in Processed Spectrum: 3648
>>>>>Begin Processed Spectral Data<<<<<
177.47	1232.88
177.69	1232.88
177.91	1232.88
178.13	1191.92
178.36	1222.64
178.58	1243.12
178.80	1282.03
179.02	1263.60
179.24	1265.64
179.46	1320.94
179.68	1273.84
179.90	1245.16
180.13	1247.21
180.35	1269.74
180.57	1249.26
180.79	1261.55
181.01	1187.82
181.23	1259.50
181.45	1279.98
181.67	1234.93
181.90	1187.82
182.12	1251.31
182.34	1300.46
182.56	1296.36
182.78	1228.78
183.00	1257.45
183.22	1243.12
183.44	1322.99
183.66	1277.93
183.89	1292.27
184.11	1290.22
184.33	1271.79
184.55	1273.84
184.77	1224.69
184.99	1261.55
185.21	1288.17
185.43	1345.52
185.65	1284.08
185.87	1279.98
186.10	1179.63
186.32	1273.84
186.54	1337.32
186.76	1255.40
186.98	1306.60
187.20	1144.81
187.42	1189.87
187.64	1284.08
187.86	1286.12
188.08	1247.21
188.30	1247.21
188.52	1273.84
188.75	1255.40
188.97	1304.56
189.19	1257.45
189.41	1282.03
189.63	1206.25
189.85	1282.03
190.07	1261.55
190.29	1210.35
190.51	1249.26
190.73	1277.93
190.95	1269.74
191.17	1286.12
191.39	1255.40
191.61	1306.60
191.84	1286.12
192.06	1228.78
192.28	1300.46
192.50	1271.79
192.72	1269.74
192.94	1282.03
193.16	1269.74
193.38	1253.36
193.60	1230.83
193.82	1249.26
194.04	1312.75
194.26	1216.49
194.48	1251.31
194.70	1249.26
194.92	1214.45
195.14	1308.65
195.36	1265.64
195.58	1290.22
195.80	1239.02
196.02	1193.97
196.24	1236.97
196.46	1288.17
196.69	1275.88
196.91	1320.94
197.13	1230.83
197.35	1267.69
197.57	1265.64
197.79	1292.27
198.01	1216.49
198.23	1298.41
198.45	1165.29
198.67	1294.32
198.89	1273.84
199.11	1325.04
199.33	1294.32
199.55	1329.13
199.77	1228.78
199.99	1296.36
200.21	1234.93
200.43	1253.36
200.65	1310.70
200.87	1269.74
201.09	1183.73
201.31	1243.12
201.53	1304.56
201.75	1253.36
201.97	1222.64
202.19	1292.27
202.41	1263.60
202.63	1294.32
202.85	1316.84
203.07	1230.83
203.29	1241.07
203.51	1222.64
203.73	1263.60
203.95	1257.45
204.17	1257.45
204.39	1296.36
204.61	1245.16
204.83	1286.12
205.05	1310.70
205.27	1232.88
205.49	1236.97
205.71	1208.30
205.93	1181.68
206.15	1232.88
206.37	1267.69
206.59	1292.27
206.81	1228.78
207.03	1273.84
207.25	1193.97
207.47	1316.84
207.69	1191.92
207.91	1263.60
208.13	1263.60
208.34	1279.98
208.56	1265.64
208.78	1284.08
209.00	1210.35
209.22	1341.42
209.44	1253.36
209.66	1271.79
209.88	1210.35
210.10	1269.74
210.32	1193.97
210.54	1249.26
210.76	1183.73
210.98	1228.78
211.20	1187.82
211.42	1273.84
211.64	1300.46
211.86	1273.84
212.08	1214.45
212.30	1275.88
212.52	1236.97
212.74	1222.64
212.96	1327.08
213.17	1269.74
213.39	1245.16
213.61	1222.64
213.83	1212.40
214.05	1234.93
214.27	1230.83
214.49	1230.83
214.71	1286.12
214.93	1273.84
215.15	1310.70
215.37	1241.07
215.59	1232.88
215.81	1286.12
216.03	1265.64
216.24	1228.78
216.46	1269.74
216.68	1257.45
216.90	1296.36
217.12	1347.56
217.34	1208.30
217.56	1331.18
217.78	1175.53
218.00	1298.41
218.22	1253.36
218.44	1271.79
218.66	1251.31
218.87	1241.07
219.09	1327.08
219.31	1273.84
219.53	1214.45
219.75	1239.02
219.97	1282.03
220.19	1292.27
220.41	1351.66
220.63	1241.07
220.85	1226.73
221.06	1265.64
221.28	1271.79
221.50	1232.88
221.72	1279.98
221.94	1279.98
222.16	1224.69
222.38	1304.56
222.60	1243.12
222.82	1331.18
223.03	1255.40
223.25	1300.46
223.47	1306.60
223.69	1294.32
223.91	1288.17
224.13	1228.78
224.35	1302.51
224.57	1331.18
224.78	1310.70
225.00	1239.02
225.22	1275.88
225.44	1249.26
225.66	1249.26
225.88	1271.79
226.10	1296.36
226.32	1222.64
226.53	1239.02
226.75	1318.89
226.97	1263.60
227.19	1325.04
227.41	1294.32
227.63	1226.73
227.85	1282.03
228.06	1216.49
228.28	1261.55
228.50	1243.12
228.72	1218.54
228.94	1284.08
229.16	1177.58
229.37	1292.27
229.59	1222.64
229.81	1249.26
230.03	1290.22
230.25	1236.97
230.47	1251.31
230.69	1222.64
230.90	1202.16
231.12	1308.65
231.34	1304.56
231.56	1228.78
231.78	1253.36
232.00	1220.59
232.21	1210.35
232.43	1286.12
232.65	1282.03
232.87	1247.21
233.09	1314.80
233.30	1329.13
233.52	1210.35
233.74	1204.21
233.96	1361.90
234.18	1290.22
234.40	1294.32
234.61	1206.25
234.83	1239.02
235.05	1294.32
235.27	1253.36
235.49	1282.03
235.70	1286.12
235.92	1210.35
236.14	1245.16
236.36	1290.22
236.58	1259.50
236.79	1312.75
237.01	1257.45
237.23	1314.80
237.45	1257.45
237.67	1249.26
237.88	1294.32
238.10	1284.08
238.32	1271.79
238.54	1257.45
238.76	1257.45
238.97	1263.60
239.19	1263.60
239.41	1228.78
239.63	1279.98
239.85	1320.94
240.06	1282.03
240.28	1206.25
240.50	1296.36
240.72	1284.08
240.93	1265.64
241.15	1294.32
241.37	1337.32
241.59	1316.84
241.81	1304.56
242.02	1263.60
242.24	1232.88
242.46	1314.80
242.68	1222.64
242.89	1224.69
243.11	1228.78
243.33	1255.40
243.55	1193.97
243.76	1279.98
243.98	1204.21
244.20	1322.99
244.42	1275.88
244.64	1357.80
244.85	1251.31
245.07	1308.65
245.29	1320.94
245.51	1333.23
245.72	1200.11
245.94	1310.70
246.16	1273.84
246.38	1282.03
246.59	1181.68
246.81	1335.28
247.03	1288.17
247.24	1310.70
247.46	1200.11
247.68	1220.59
247.90	1286.12
248.11	1298.41
248.33	1282.03
248.55	1312.75
248.77	1249.26
248.98	1265.64
249.20	1177.58
249.42	1198.06
249.64	1310.70
249.85	1327.08
250.07	1159.15
250.29	1318.89
250.50	1259.50
250.72	1241.07
250.94	1241.07
251.16	1269.74
251.37	1257.45
251.59	1277.93
251.81	1259.50
252.02	1271.79
252.24	1224.69
252.46	1261.55
252.68	1279.98
252.89	1300.46
253.11	1271.79
253.33	1294.32
253.54	1271.79
253.76	1210.35
253.98	1216.49
254.20	1269.74
254.41	1239.02
254.63	1251.31
254.85	1208.30
255.06	1273.84
255.28	1290.22
255.50	1236.97
255.71	1279.98
255.93	1259.50
256.15	1304.56
256.36	1236.97
256.58	1259.50
256.80	1269.74
257.02	1245.16
257.23	1327.08
257.45	1261.55
257.67	1216.49
257.88	1243.12
258.10	1261.55
258.32	1214.45
258.53	1241.07
258.75	1286.12
258.97	1310.70
259.18	1296.36
259.40	1341.42
259.62	1357.80
259.83	1325.04
260.05	1189.87
260.27	1273.84
260.48	1331.18
260.70	1257.45
260.92	1255.40
261.13	1294.32
261.35	1302.51
261.57	1327.08
261.78	1232.88
262.00	1271.79
262.22	1310.70
262.43	1271.79
262.65	1243.12
262.86	1255.40
263.08	1306.60
263.30	1331.18
263.51	1251.31
263.73	1210.35
263.95	1269.74
264.16	1271.79
264.38	1312.75
264.60	1312.75
264.81	1167.34
265.03	1259.50
265.25	1294.32
265.46	1304.56
265.68	1275.88
265.89	1300.46
266.11	1245.16
266.33	1306.60
266.54	1275.88
266.76	1271.79
266.98	1236.97
267.19	1239.02
267.41	1267.69
267.62	1294.32
267.84	1224.69
268.06	1249.26
268.27	1300.46
268.49	1236.97
268.70	1302.51
268.92	1271.79
269.14	1368.04
269.35	1273.84
269.57	1228.78
269.79	1222.64
270.00	1271.79
270.22	1331.18
270.43	1286.12
270.65	1228.78
270.87	1236.97
271.08	1310.70
271.30	1257.45
271.51	1288.17
271.73	1304.56
271.95	1308.65
272.16	1259.50
272.38	1220.59
272.59	1271.79
272.81	1282.03
273.02	1224.69
273.24	1251.31
273.46	1277.93
273.67	1298.41
273.89	1304.56
274.10	1282.03
274.32	1193.97
274.54	1261.55
274.75	1222.64
274.97	1271.79
275.18	1290.22
275.40	1220.59
275.61	1257.45
275.83	1306.60
276.05	1218.54
276.26	1331.18
276.48	1228.78
276.69	1314.80
276.91	1253.36
277.12	1335.28
277.34	1318.89
277.55	1255.40
277.77	1310.70
277.99	1261.55
278.20	1261.55
278.42	1226.73
278.63	1243.12
278.85	1257.45
279.06	1232.88
279.28	1257.45
279.49	1273.84
279.71	1273.84
279.93	1288.17
280.14	1214.45
280.36	1302.51
280.57	1284.08
280.79	1234.93
281.00	1312.75
281.22	1239.02
281.43	1241.07
281.65	1290.22
281.86	1230.83
282.08	1296.36
282.29	1220.59
282.51	1200.11
282.73	1288.17
282.94	1277.93
283.16	1263.60
283.37	1247.21
283.59	1279.98
283.80	1247.21
284.02	1253.36
284.23	1255.40
284.45	1279.98
284.66	1269.74
284.88	1284.08
285.09	1226.73
285.31	1202.16
285.52	1298.41
285.74	1286.12
285.95	1290.22
286.17	1202.16
286.38	1263.60
286.60	1275.88
286.81	1279.98
287.03	1296.36
287.24	1279.98
287.46	1388.52
287.67	1294.32
287.89	1257.45
288.10	1310.70
288.32	1167.34
288.53	1298.41
288.75	1271.79
288.96	1200.11
289.18	1329.13
289.39	1279.98
289.61	1265.64
289.82	1255.40
290.04	1249.26
290.25	1263.60
290.47	1282.03
290.68	1294.32
290.90	1310.70
291.11	1206.25
291.33	1282.03
291.54	1263.60
291.76	1331.18
291.97	1232.88
292.18	1271.79
292.40	1320.94
292.61	1292.27
292.83	1247.21
293.04	1279.98
293.26	1251.31
293.47	1294.32
293.69	1282.03
293.90	1282.03
294.12	1236.97
294.33	1220.59
294.55	1290.22
294.76	1275.88
294.97	1261.55
295.19	1366.00
295.40	1296.36
295.62	1284.08
295.83	1255.40
296.05	1341.42
296.26	1310.70
296.48	1271.79
296.69	1300.46
296.90	1239.02
297.12	1271.79
297.33	1290.22
297.55	1189.87
297.76	1288.17
297.98	1302.51
298.19	1290.22
298.41	1286.12
298.62	1298.41
298.83	1269.74
299.05	1306.60
299.26	1218.54
299.48	1257.45
299.69	1255.40
299.90	1245.16
300.12	1251.31
300.33	1218.54
300.55	1230.83
300.76	1325.04
300.98	1269.74
301.19	1253.36
301.40	1306.60
301.62	1265.64
301.83	1257.45
302.05	1279.98
302.26	1282.03
302.47	1179.63
302.69	1304.56
302.90	1370.09
303.12	1255.40
303.33	1259.50
303.54	1259.50
303.76	1284.08
303.97	1210.35
304.19	1222.64
304.40	1249.26
304.61	1277.93
304.83	1241.07
305.04	1261.55
305.26	1284.08
305.47	1253.36
305.68	1179.63
305.90	1302.51
306.11	1204.21
306.33	1265.64
306.54	1265.64
306.75	1335.28
306.97	1267.69
307.18	1251.31
307.39	1245.16
307.61	1322.99
307.82	1290.22
308.04	1226.73
308.25	1218.54
308.46	1318.89
308.68	1214.45
308.89	1234.93
309.10	1277.93
309.32	1232.88
309.53	1255.40
309.74	1232.88
309.96	1251.31
310.17	1273.84
310.39	1284.08
310.60	1257.45
310.81	1294.32
311.03	1239.02
311.24	1214.45
311.45	1222.64
311.67	1277.93
311.88	1265.64
312.09	1298.41
312.31	1243.12
312.52	1325.04
312.73	1277.93
312.95	1279.98
313.16	1236.97
313.37	1216.49
313.59	1296.36
313.80	1234.93
314.01	1243.12
314.23	1275.88
314.44	1298.41
314.65	1263.60
314.87	1267.69
315.08	1298.41
315.29	1265.64
315.51	1243.12
315.72	1306.60
315.93	1329.13
316.15	1228.78
316.36	1198.06
316.57	1282.03
316.79	1290.22
317.00	1255.40
317.21	1257.45
317.43	1253.36
317.64	1288.17
317.85	1173.49
318.07	1255.40
318.28	1304.56
318.49	1245.16
318.70	1257.45
318.92	1243.12
319.13	1337.32
319.34	1216.49
319.56	1269.74
319.77	1220.59
319.98	1247.21
320.20	1175.53
320.41	1265.64
320.62	1255.40
320.83	1204.21
321.05	1327.08
321.26	1300.46
321.47	1236.97
321.69	1277.93
321.90	1247.21
322.11	1222.64
322.32	1271.79
322.54	1327.08
322.75	1259.50
322.96	1271.79
323.18	1253.36
323.39	1263.60
323.60	1210.35
323.81	1355.76
324.03	1294.32
324.24	1335.28
324.45	1273.84
324.66	1306.60
324.88	1271.79
325.09	1355.76
325.30	1282.03
325.52	1259.50
325.73	1310.70
325.94	1206.25
326.15	1263.60
326.37	1179.63
326.58	1292.27
326.79	1314.80
327.00	1277.93
327.22	1216.49
327.43	1310.70
327.64	1273.84
327.85	1206.25
328.07	1269.74
328.28	1275.88
328.49	1310.70
328.70	1282.03
328.92	1302.51
329.13	1298.41
329.34	1306.60
329.55	1212.40
329.76	1273.84
329.98	1271.79
330.19	1257.45
330.40	1308.65
330.61	1273.84
330.83	1224.69
331.04	1329.13
331.25	1247.21
331.46	1286.12
331.68	1300.46
331.89	1220.59
332.10	1275.88
332.31	1230.83
332.52	1273.84
332.74	1325.04
332.95	1230.83
333.16	1288.17
333.37	1224.69
333.58	1294.32
333.80	1257.45
334.01	1245.16
334.22	1253.36
334.43	1247.21
334.64	1243.12
334.86	1296.36
335.07	1200.11
335.28	1263.60
335.49	1308.65
335.70	1310.70
335.92	1279.98
336.13	1232.88
336.34	1249.26
336.55	1271.79
336.76	1185.77
336.98	1327.08
337.19	1308.65
337.40	1284.08
337.61	1302.51
337.82	1187.82
338.04	1282.03
338.25	1269.74
338.46	1218.54
338.67	1261.55
338.88	1249.26
339.09	1232.88
339.31	1249.26
339.52	1232.88
339.73	1288.17
339.94	1259.50
340.15	1251.31
340.36	1282.03
340.58	1296.36
340.79	1236.97
341.00	1320.94
341.21	1279.98
341.42	1320.94
341.63	1247.21
341.85	1226.73
342.06	1257.45
342.27	1304.56
342.48	1288.17
342.69	1273.84
342.90	1288.17
343.12	1245.16
343.33	1275.88
343.54	1282.03
343.75	1290.22
343.96	1271.79
344.17	1284.08
344.38	1255.40
344.60	1282.03
344.81	1157.10
345.02	1263.60
345.23	1282.03
345.44	1304.56
345.65	1288.17
345.86	1316.84
346.07	1310.70
346.29	1261.55
346.50	1232.88
346.71	1288.17
346.92	1255.40
347.13	1288.17
347.34	1277.93
347.55	1241.07
347.76	1261.55
347.98	1282.03
348.19	1261.55
348.40	1251.31
348.61	1271.79
348.82	1257.45
349.03	1226.73
349.24	1284.08
349.45	1185.77
349.66	1255.40
349.88	1292.27
350.09	1243.12
350.30	1230.83
350.51	1277.93
350.72	1288.17
350.93	1316.84
351.14	1331.18
351.35	1257.45
351.56	1222.64
351.77	1318.89
351.99	1277.93
352.20	1263.60
352.41	1288.17
352.62	1239.02
352.83	1239.02
353.04	1312.75
353.25	1185.77
353.46	1314.80
353.67	1402.86
353.88	1351.66
354.09	1253.36
354.30	1200.11
354.52	1269.74
354.73	1322.99
354.94	1261.55
355.15	1269.74
355.36	1261.55
355.57	1271.79
355.78	1306.60
355.99	1275.88
356.20	1279.98
356.41	1304.56
356.62	1337.32
356.83	1306.60
357.04	1249.26
357.25	1304.56
357.46	1253.36
357.68	1239.02
357.89	1284.08
358.10	1300.46
358.31	1288.17
358.52	1288.17
358.73	1273.84
358.94	1185.77
359.15	1343.47
359.36	1320.94
359.57	1253.36
359.78	1314.80
359.99	1204.21
360.20	1216.49
360.41	1277.93
360.62	1343.47
360.83	1222.64
361.04	1286.12
361.25	1327.08
361.46	1314.80
361.67	1282.03
361.88	1290.22
362.09	1304.56
362.30	1273.84
362.51	1171.44
362.72	1263.60
362.93	1253.36
363.14	1202.16
363.35	1265.64
363.56	1284.08
363.78	1296.36
363.99	1234.93
364.20	1290.22
364.41	1286.12
364.62	1275.88
364.83	1218.54
365.04	1288.17
365.25	1245.16
365.46	1329.13
365.67	1308.65
365.88	1253.36
366.09	1282.03
366.30	1249.26
366.51	1261.55
366.72	1243.12
366.93	1263.60
367.14	1196.01
367.35	1284.08
367.56	1279.98
367.77	1304.56
367.98	1320.94
368.18	1290.22
368.39	1282.03
368.60	1230.83
368.81	1241.07
369.02	1228.78
369.23	1259.50
369.44	1236.97
369.65	1218.54
369.86	1288.17
370.07	1277.93
370.28	1277.93
370.49	1249.26
370.70	1265.64
370.91	1236.97
371.12	1226.73
371.33	1230.83
371.54	1193.97
371.75	1267.69
371.96	1271.79
372.17	1265.64
372.38	1220.59
372.59	1226.73
372.80	1296.36
373.01	1245.16
373.22	1306.60
373.43	1249.26
373.64	1292.27
373.85	1191.92
374.06	1234.93
374.26	1255.40
374.47	1306.60
374.68	1314.80
374.89	1263.60
375.10	1286.12
375.31	1288.17
375.52	1333.23
375.73	1224.69
375.94	1243.12
376.15	1269.74
376.36	1222.64
376.57	1243.12
376.78	1241.07
376.99	1204.21
377.20	1204.21
377.40	1284.08
377.61	1263.60
377.82	1257.45
378.03	1306.60
378.24	1261.55
378.45	1273.84
378.66	1257.45
378.87	1279.98
379.08	1245.16
379.29	1267.69
379.50	1275.88
379.71	1251.31
379.91	1212.40
380.12	1210.35
380.33	1259.50
380.54	1300.46
380.75	1288.17
380.96	1318.89
381.17	1247.21
381.38	1273.84
381.59	1214.45
381.80	1224.69
382.00	1335.28
382.21	1214.45
382.42	1347.56
382.63	1241.07
382.84	1249.26
383.05	1210.35
383.26	1331.18
383.47	1259.50
383.68	1273.84
383.88	1372.14
384.09	1271.79
384.30	1255.40
384.51	1327.08
384.72	1261.55
384.93	1239.02
385.14	1273.84
385.35	1298.41
385.55	1216.49
385.76	1339.37
385.97	1249.26
386.18	1257.45
386.39	1284.08
386.60	1171.44
386.81	1279.98
387.02	1232.88
387.22	1245.16
387.43	1308.65
387.64	1269.74
387.85	1259.50
388.06	1284.08
388.27	1253.36
388.48	1359.85
388.68	1253.36
388.89	1345.52
389.10	1230.83
389.31	1304.56
389.52	1269.74
389.73	1232.88
389.93	1325.04
390.14	1322.99
390.35	1341.42
390.56	1275.88
390.77	1296.36
390.98	1265.64
391.18	1300.46
391.39	1304.56
391.60	1275.88
391.81	1314.80
392.02	1277.93
392.23	1228.78
392.43	1277.93
392.64	1181.68
392.85	1279.98
393.06	1335.28
393.27	1296.36
393.47	1228.78
393.68	1318.89
393.89	1189.87
394.10	1224.69
394.31	1273.84
394.52	1308.65
394.72	1275.88
394.93	1273.84
395.14	1228.78
395.35	1314.80
395.56	1306.60
395.76	1292.27
395.97	1290.22
396.18	1275.88
396.39	1255.40
396.60	1298.41
396.80	1306.60
397.01	1320.94
397.22	1257.45
397.43	1341.42
397.64	1206.25
397.84	1220.59
398.05	1257.45
398.26	1275.88
398.47	1292.27
398.67	1298.41
398.88	1204.21
399.09	1220.59
399.30	1253.36
399.51	1232.88
399.71	1241.07
399.92	1316.84
400.13	1253.36
400.34	1259.50
400.54	1245.16
400.75	1243.12
400.96	1220.59
401.17	1320.94
401.37	1314.80
401.58	1255.40
401.79	1279.98
402.00	1265.64
402.21	1208.30
402.41	1230.83
402.62	1277.93
402.83	1312.75
403.04	1331.18
403.24	1298.41
403.45	1302.51
403.66	1329.13
403.87	1187.82
404.07	1263.60
404.28	1193.97
404.49	1247.21
404.70	1257.45
404.90	1255.40
405.11	1279.98
405.32	1208.30
405.52	1286.12
405.73	1273.84
405.94	1275.88
406.15	1243.12
406.35	1331.18
406.56	1273.84
406.77	1241.07
406.98	1300.46
407.18	1249.26
407.39	1255.40
407.60	1310.70
407.80	1277.93
408.01	1300.46
408.22	1265.64
408.43	1214.45
408.63	1261.55
408.84	1331.18
409.05	1277.93
409.25	1288.17
409.46	1210.35
409.67	1187.82
409.88	1298.41
410.08	1243.12
410.29	1214.45
410.50	1322.99
410.70	1259.50
410.91	1167.34
411.12	1279.98
411.32	1302.51
411.53	1259.50
411.74	1263.60
411.95	1349.61
412.15	1239.02
412.36	1337.32
412.57	1279.98
412.77	1341.42
412.98	1304.56
413.19	1312.75
413.39	1331.18
413.60	1353.71
413.81	1196.01
414.01	1286.12
414.22	1288.17
414.43	1200.11
414.63	1300.46
414.84	1279.98
415.05	1290.22
415.25	1230.83
415.46	1255.40
415.67	1271.79
415.87	1306.60
416.08	1226.73
416.29	1253.36
416.49	1257.45
416.70	1282.03
416.91	1253.36
417.11	1322.99
417.32	1273.84
417.53	1257.45
417.73	1230.83
417.94	1273.84
418.15	1226.73
418.35	1302.51
418.56	1206.25
418.77	1273.84
418.97	1335.28
419.18	1277.93
419.38	1253.36
419.59	1265.64
419.80	1271.79
420.00	1218.54
420.21	1284.08
420.42	1300.46
420.62	1292.27
420.83	1306.60
421.04	1347.56
421.24	1300.46
421.45	1253.36
421.65	1284.08
421.86	1290.22
422.07	1247.21
422.27	1216.49
422.48	1265.64
422.69	1249.26
422.89	1265.64
423.10	1271.79
423.30	1224.69
423.51	1298.41
423.72	1263.60
423.92	1257.45
424.13	1222.64
424.33	1236.97
424.54	1337.32
424.75	1228.78
424.95	1275.88
425.16	1345.52
425.36	1322.99
425.57	1249.26
425.78	1210.35
425.98	1296.36
426.19	1218.54
426.39	1236.97
426.60	1271.79
426.81	1273.84
427.01	1263.60
427.22	1314.80
427.42	1261.55
427.63	1304.56
427.83	1232.88
428.04	1341.42
428.25	1200.11
428.45	1273.84
428.66	1286.12
428.86	1261.55
429.07	1267.69
429.28	1243.12
429.48	1183.73
429.69	1245.16
429.89	1294.32
430.10	1318.89
430.30	1279.98
430.51	1239.02
430.71	1245.16
430.92	1304.56
431.13	1179.63
431.33	1335.28
431.54	1290.22
431.74	1257.45
431.95	1206.25
432.15	1271.79
432.36	1314.80
432.56	1279.98
432.77	1277.93
432.98	1218.54
433.18	1341.42
433.39	1245.16
433.59	1382.38
433.80	1284.08
434.00	1288.17
434.21	1300.46
434.41	1241.07
434.62	1279.98
434.82	1286.12
435.03	1308.65
435.23	1282.03
435.44	1208.30
435.64	1222.64
435.85	1234.93
436.06	1288.17
436.26	1234.93
436.47	1331.18
436.67	1210.35
436.88	1202.16
437.08	1239.02
437.29	1275.88
437.49	1263.60
437.70	1345.52
437.90	1265.64
438.11	1279.98
438.31	1273.84
438.52	1267.69
438.72	1271.79
438.93	1320.94
439.13	1310.70
439.34	1320.94
439.54	1261.55
439.75	1269.74
439.95	1239.02
440.16	1275.88
440.36	1239.02
440.57	1218.54
440.77	1279.98
440.98	1277.93
441.18	1335.28
441.39	1236.97
441.59	1329.13
441.80	1290.22
442.00	1187.82
442.21	1263.60
442.41	1247.21
442.62	1298.41
442.82	1273.84
443.02	1275.88
443.23	1257.45
443.43	1312.75
443.64	1220.59
443.84	1312.75
444.05	1304.56
444.25	1191.92
444.46	1259.50
444.66	1198.06
444.87	1243.12
445.07	1290.22
445.28	1294.32
445.48	1230.83
445.69	1245.16
445.89	1239.02
446.09	1298.41
446.30	1226.73
446.50	1310.70
446.71	1245.16
446.91	1247.21
447.12	1290.22
447.32	1314.80
447.53	1273.84
447.73	1257.45
447.93	1306.60
448.14	1277.93
448.34	1187.82
448.55	1275.88
448.75	1263.60
448.96	1329.13
449.16	1292.27
449.36	1290.22
449.57	1247.21
449.77	1327.08
449.98	1239.02
450.18	1322.99
450.39	1284.08
450.59	1277.93
450.79	1312.75
451.00	1341.42
451.20	1208.30
451.41	1251.31
451.61	1368.04
451.81	1361.90
452.02	1181.68
452.22	1294.32
452.43	1306.60
452.63	1265.64
452.84	1255.40
453.04	1275.88
453.24	1351.66
453.45	1249.26
453.65	1372.14
453.86	1263.60
454.06	1255.40
454.26	1275.88
454.47	1296.36
454.67	1298.41
454.87	1355.76
455.08	1249.26
455.28	1304.56
455.49	1284.08
455.69	1292.27
455.89	1286.12
456.10	1298.41
456.30	1337.32
456.51	1316.84
456.71	1265.64
456.91	1279.98
457.12	1286.12
457.32	1255.40
457.52	1273.84
457.73	1320.94
457.93	1288.17
458.14	1294.32
458.34	1318.89
458.54	1386.47
458.75	1290.22
458.95	1257.45
459.15	1339.37
459.36	1302.51
459.56	1306.60
459.76	1335.28
459.97	1331.18
460.17	1263.60
460.37	1304.56
460.58	1335.28
460.78	1306.60
460.99	1275.88
461.19	1255.40
461.39	1331.18
461.60	1314.80
461.80	1314.80
462.00	1251.31
462.21	1294.32
462.41	1273.84
462.61	1282.03
462.82	1232.88
463.02	1296.36
463.22	1279.98
463.43	1292.27
463.63	1277.93
463.83	1288.17
464.04	1339.37
464.24	1263.60
464.44	1245.16
464.64	1331.18
464.85	1292.27
465.05	1251.31
465.25	1331.18
465.46	1218.54
465.66	1275.88
465.86	1273.84
466.07	1279.98
466.27	1298.41
466.47	1228.78
466.68	1249.26
466.88	1257.45
467.08	1298.41
467.29	1253.36
467.49	1247.21
467.69	1306.60
467.89	1333.23
468.10	1251.31
468.30	1286.12
468.50	1290.22
468.71	1220.59
468.91	1312.75
469.11	1261.55
469.31	1220.59
469.52	1282.03
469.72	1312.75
469.92	1267.69
470.13	1220.59
470.33	1298.41
470.53	1308.65
470.73	1181.68
470.94	1282.03
471.14	1218.54
471.34	1236.97
471.54	1294.32
471.75	1310.70
471.95	1298.41
472.15	1331.18
472.36	1253.36
472.56	1259.50
472.76	1230.83
472.96	1253.36
473.17	1253.36
473.37	1275.88
473.57	1277.93
473.77	1331.18
473.98	1261.55
474.18	1271.79
474.38	1265.64
474.58	1257.45
474.79	1298.41
474.99	1267.69
475.19	1251.31
475.39	1234.93
475.60	1230.83
475.80	1257.45
476.00	1318.89
476.20	1208.30
476.41	1292.27
476.61	1277.93
476.81	1245.16
477.01	1282.03
477.21	1271.79
477.42	1271.79
477.62	1257.45
477.82	1288.17
478.02	1257.45
478.23	1355.76
478.43	1255.40
478.63	1314.80
478.83	1327.08
479.03	1277.93
479.24	1241.07
479.44	1300.46
479.64	1284.08
479.84	1282.03
480.04	1294.32
480.25	1298.41
480.45	1296.36
480.65	1322.99
480.85	1290.22
481.06	1261.55
481.26	1269.74
481.46	1316.84
481.66	1298.41
481.86	1243.12
482.06	1277.93
482.27	1224.69
482.47	1277.93
482.67	1241.07
482.87	1245.16
483.07	1296.36
483.28	1294.32
483.48	1277.93
483.68	1251.31
483.88	1302.51
484.08	1193.97
484.29	1282.03
484.49	1269.74
484.69	1257.45
484.89	1335.28
485.09	1376.24
485.29	1279.98
485.50	1277.93
485.70	1347.56
485.90	1327.08
486.10	1267.69
486.30	1259.50
486.50	1218.54
486.71	1284.08
486.91	1267.69
487.11	1273.84
487.31	1228.78
487.51	1284.08
487.71	1234.93
487.91	1265.64
488.12	1239.02
488.32	1255.40
488.52	1265.64
488.72	1261.55
488.92	1279.98
489.12	1292.27
489.32	1347.56
489.53	1218.54
489.73	1253.36
489.93	1282.03
490.13	1236.97
490.33	1300.46
490.53	1218.54
490.73	1224.69
490.94	1320.94
491.14	1253.36
491.34	1198.06
491.54	1247.21
491.74	1214.45
491.94	1265.64
492.14	1304.56
492.34	1325.04
492.54	1255.40
492.75	1269.74
492.95	1216.49
493.15	1247.21
493.35	1239.02
493.55	1286.12
493.75	1306.60
493.95	1312.75
494.15	1300.46
494.35	1306.60
494.56	1222.64
494.76	1218.54
494.96	1241.07
495.16	1251.31
495.36	1247.21
495.56	1298.41
495.76	1259.50
495.96	1271.79
496.16	1202.16
496.36	1279.98
496.56	1308.65
496.77	1224.69
496.97	1341.42
497.17	1286.12
497.37	1290.22
497.57	1290.22
497.77	1232.88
497.97	1265.64
498.17	1273.84
498.37	1296.36
498.57	1220.59
498.77	1247.21
498.97	1277.93
499.17	1253.36
499.38	1298.41
499.58	1298.41
499.78	1265.64
499.98	1335.28
500.18	1282.03
500.38	1251.31
500.58	1294.32
500.78	1316.84
500.98	1286.12
501.18	1204.21
501.38	1224.69
501.58	1269.74
501.78	1277.93
501.98	1308.65
502.18	1230.83
502.38	1200.11
502.58	1255.40
502.78	1304.56
502.98	1196.01
503.18	1290.22
503.38	1189.87
503.59	1273.84
503.79	1310.70
503.99	1226.73
504.19	1290.22
504.39	1243.12
504.59	1298.41
504.79	1325.04
504.99	1331.18
505.19	1353.71
505.39	1296.36
505.59	1363.95
505.79	1310.70
505.99	1331.18
506.19	1286.12
506.39	1363.95
506.59	1245.16
506.79	1273.84
506.99	1257.45
507.19	1302.51
507.39	1302.51
507.59	1239.02
507.79	1320.94
507.99	1271.79
508.19	1273.84
508.39	1304.56
508.59	1288.17
508.79	1349.61
508.99	1232.88
509.19	1314.80
509.39	1232.88
509.59	1273.84
509.79	1302.51
509.99	1288.17
510.19	1226.73
510.39	1236.97
510.59	1294.32
510.79	1247.21
510.99	1294.32
511.19	1298.41
511.39	1300.46
511.59	1312.75
511.79	1327.08
511.99	1294.32
512.19	1273.84
512.38	1316.84
512.58	1331.18
512.78	1226.73
512.98	1271.79
513.18	1320.94
513.38	1206.25
513.58	1273.84
513.78	1318.89
513.98	1253.36
514.18	1284.08
514.38	1251.31
514.58	1271.79
514.78	1308.65
514.98	1263.60
515.18	1155.05
515.38	1296.36
515.58	1288.17
515.78	1224.69
515.98	1253.36
516.18	1247.21
516.38	1249.26
516.57	1234.93
516.77	1220.59
516.97	1288.17
517.17	1247.21
517.37	1345.52
517.57	1296.36
517.77	1275.88
517.97	1306.60
518.17	1306.60
518.37	1279.98
518.57	1267.69
518.77	1310.70
518.97	1277.93
519.16	1263.60
519.36	1343.47
519.56	1257.45
519.76	1163.25
519.96	1271.79
520.16	1290.22
520.36	1339.37
520.56	1253.36
520.76	1249.26
520.96	1249.26
521.16	1296.36
521.35	1243.12
521.55	1325.04
521.75	1257.45
521.95	1347.56
522.15	1232.88
522.35	1243.12
522.55	1298.41
522.75	1247.21
522.95	1292.27
523.14	1257.45
523.34	1314.80
523.54	1345.52
523.74	1277.93
523.94	1251.31
524.14	1275.88
524.34	1265.64
524.54	1331.18
524.73	1273.84
524.93	1310.70
525.13	1212.40
525.33	1290.22
525.53	1277.93
525.73	1269.74
525.93	1228.78
526.13	1277.93
526.32	1245.16
526.52	1302.51
526.72	1310.70
526.92	1251.31
527.12	1310.70
527.32	1333.23
527.52	1327.08
527.71	1314.80
527.91	1232.88
528.11	1251.31
528.31	1251.31
528.51	1269.74
528.71	1329.13
528.90	1269.74
529.10	1310.70
529.30	1300.46
529.50	1251.31
529.70	1298.41
529.90	1296.36
530.09	1243.12
530.29	1286.12
530.49	1300.46
530.69	1314.80
530.89	1282.03
531.09	1230.83
531.28	1253.36
531.48	1275.88
531.68	1306.60
531.88	1298.41
532.08	1290.22
532.28	1224.69
532.47	1263.60
532.67	1263.60
532.87	1277.93
533.07	1279.98
533.27	1310.70
533.46	1249.26
533.66	1204.21
533.86	1269.74
534.06	1259.50
534.26	1279.98
534.45	1304.56
534.65	1284.08
534.85	1251.31
535.05	1265.64
535.25	1232.88
535.44	1273.84
535.64	1253.36
535.84	1267.69
536.04	1198.06
536.24	1288.17
536.43	1247.21
536.63	1265.64
536.83	1292.27
537.03	1282.03
537.22	1275.88
537.42	1167.34
537.62	1261.55
537.82	1208.30
538.02	1265.64
538.21	1337.32
538.41	1322.99
538.61	1322.99
538.81	1286.12
539.00	1261.55
539.20	1273.84
539.40	1333.23
539.60	1253.36
539.79	1320.94
539.99	1316.84
540.19	1267.69
540.39	1310.70
540.58	1329.13
540.78	1290.22
540.98	1271.79
541.18	1275.88
541.37	1277.93
541.57	1261.55
541.77	1277.93
541.97	1265.64
542.16	1239.02
542.36	1245.16
542.56	1257.45
542.76	1316.84
542.95	1232.88
543.15	1196.01
543.35	1232.88
543.54	1271.79
543.74	1374.19
543.94	1308.65
544.14	1247.21
544.33	1302.51
544.53	1259.50
544.73	1318.89
544.93	1253.36
545.12	1290.22
545.32	1312.75
545.52	1314.80
545.71	1288.17
545.91	1253.36
546.11	1310.70
546.30	1214.45
546.50	1298.41
546.70	1345.52
546.90	1269.74
547.09	1343.47
547.29	1322.99
547.49	1224.69
547.68	1255.40
547.88	1284.08
548.08	1335.28
548.27	1372.14
548.47	1296.36
548.67	1288.17
548.87	1355.76
549.06	1296.36
549.26	1279.98
549.46	1206.25
549.65	1259.50
549.85	1241.07
550.05	1196.01
550.24	1224.69
550.44	1261.55
550.64	1322.99
550.83	1300.46
551.03	1339.37
551.23	1290.22
551.42	1239.02
551.62	1286.12
551.82	1251.31
552.01	1279.98
552.21	1282.03
552.41	1329.13
552.60	1296.36
552.80	1329.13
553.00	1306.60
553.19	1273.84
553.39	1273.84
553.59	1290.22
553.78	1294.32
553.98	1318.89
554.17	1308.65
554.37	1298.41
554.57	1236.97
554.76	1284.08
554.96	1265.64
555.16	1282.03
555.35	1310.70
555.55	1234.93
555.75	1306.60
555.94	1361.90
556.14	1224.69
556.33	1318.89
556.53	1359.85
556.73	1263.60
556.92	1275.88
557.12	1267.69
557.32	1232.88
557.51	1294.32
557.71	1339.37
557.90	1300.46
558.10	1234.93
558.30	1331.18
558.49	1282.03
558.69	1386.47
558.88	1257.45
559.08	1331.18
559.28	1269.74
559.47	1279.98
559.67	1249.26
559.86	1306.60
560.06	1216.49
560.26	1275.88
560.45	1247.21
560.65	1259.50
560.84	1288.17
561.04	1329.13
561.24	1304.56
561.43	1239.02
561.63	1347.56
561.82	1269.74
562.02	1245.16
562.22	1245.16
562.41	1255.40
562.61	1279.98
562.80	1286.12
563.00	1372.14
563.19	1191.92
563.39	1325.04
563.59	1366.00
563.78	1277.93
563.98	1327.08
564.17	1271.79
564.37	1275.88
564.56	1247.21
564.76	1243.12
564.96	1288.17
565.15	1284.08
565.35	1341.42
565.54	1318.89
565.74	1220.59
565.93	1228.78
566.13	1269.74
566.32	1255.40
566.52	1267.69
566.71	1345.52
566.91	1302.51
567.11	1345.52
567.30	1298.41
567.50	1292.27
567.69	1279.98
567.89	1257.45
568.08	1255.40
568.28	1236.97
568.47	1257.45
568.67	1263.60
568.86	1337.32
569.06	1277.93
569.25	1228.78
569.45	1337.32
569.64	1310.70
569.84	1300.46
570.04	1265.64
570.23	1204.21
570.43	1224.69
570.62	1271.79
570.82	1304.56
571.01	1241.07
571.21	1327.08
571.40	1316.84
571.60	1290.22
571.79	1247.21
571.99	1245.16
572.18	1263.60
572.38	1255.40
572.57	1265.64
572.77	1372.14
572.96	1259.50
573.16	1241.07
573.35	1286.12
573.55	1298.41
573.74	1314.80
573.94	1349.61
574.13	1273.84
574.33	1331.18
574.52	1267.69
574.71	1296.36
574.91	1247.21
575.10	1286.12
575.30	1306.60
575.49	1314.80
575.69	1322.99
575.88	1335.28
576.08	1255.40
576.27	1359.85
576.47	1277.93
576.66	1308.65
576.86	1298.41
577.05	1251.31
577.25	1294.32
577.44	1263.60
577.64	1378.28
577.83	1259.50
578.02	1232.88
578.22	1232.88
578.41	1220.59
578.61	1279.98
578.80	1226.73
579.00	1247.21
579.19	1271.79
579.39	1251.31
579.58	1267.69
579.77	1310.70
579.97	1249.26
580.16	1251.31
580.36	1312.75
580.55	1284.08
580.75	1314.80
580.94	1351.66
581.13	1349.61
581.33	1273.84
581.52	1243.12
581.72	1306.60
581.91	1333.23
582.11	1273.84
582.30	1243.12
582.49	1370.09
582.69	1265.64
582.88	1261.55
583.08	1284.08
583.27	1296.36
583.47	1277.93
583.66	1171.44
583.85	1275.88
584.05	1372.14
584.24	1316.84
584.44	1253.36
584.63	1282.03
584.82	1251.31
585.02	1296.36
585.21	1296.36
585.41	1306.60
585.60	1247.21
585.79	1290.22
585.99	1234.93
586.18	1220.59
586.37	1277.93
586.57	1314.80
586.76	1275.88
586.96	1255.40
587.15	1306.60
587.34	1282.03
587.54	1333.23
587.73	1255.40
587.93	1335.28
588.12	1271.79
588.31	1245.16
588.51	1257.45
588.70	1312.75
588.89	1284.08
589.09	1232.88
589.28	1292.27
589.47	1234.93
589.67	1230.83
589.86	1304.56
590.06	1292.27
590.25	1343.47
590.44	1318.89
590.64	1286.12
590.83	1292.27
591.02	1286.12
591.22	1298.41
591.41	1312.75
591.60	1294.32
591.80	1322.99
591.99	1228.78
592.18	1306.60
592.38	1257.45
592.57	1265.64
592.76	1257.45
592.96	1271.79
593.15	1224.69
593.34	1366.00
593.54	1318.89
593.73	1275.88
593.92	1300.46
594.12	1296.36
594.31	1179.63
594.50	1331.18
594.70	1279.98
594.89	1327.08
595.08	1245.16
595.28	1234.93
595.47	1282.03
595.66	1249.26
595.86	1349.61
596.05	1314.80
596.24	1222.64
596.43	1329.13
596.63	1228.78
596.82	1279.98
597.01	1234.93
597.21	1286.12
597.40	1290.22
597.59	1241.07
597.79	1335.28
597.98	1271.79
598.17	1259.50
598.36	1312.75
598.56	1271.79
598.75	1298.41
598.94	1284.08
599.14	1284.08
599.33	1243.12
599.52	1300.46
599.71	1210.35
599.91	1263.60
600.10	1374.19
600.29	1298.41
600.48	1343.47
600.68	1314.80
600.87	1261.55
601.06	1206.25
601.26	1249.26
601.45	1292.27
601.64	1273.84
601.83	1271.79
602.03	1286.12
602.22	1261.55
602.41	1308.65
602.60	1339.37
602.80	1312.75
602.99	1230.83
603.18	1294.32
603.37	1243.12
603.57	1392.62
603.76	1335.28
603.95	1318.89
604.14	1316.84
604.34	1312.75
604.53	1327.08
604.72	1329.13
604.91	1298.41
605.10	1277.93
605.30	1243.12
605.49	1286.12
605.68	1277.93
605.87	1284.08
606.07	1200.11
606.26	1298.41
606.45	1300.46
606.64	1265.64
606.84	1220.59
607.03	1206.25
607.22	1298.41
607.41	1271.79
607.60	1288.17
607.80	1322.99
607.99	1267.69
608.18	1247.21
608.37	1239.02
608.56	1222.64
608.76	1388.52
608.95	1284.08
609.14	1329.13
609.33	1322.99
609.52	1322.99
609.72	1298.41
609.91	1294.32
610.10	1320.94
610.29	1298.41
610.48	1294.32
610.68	1279.98
610.87	1314.80
611.06	1329.13
611.25	1251.31
611.44	1265.64
611.63	1224.69
611.83	1325.04
612.02	1288.17
612.21	1318.89
612.40	1251.31
612.59	1288.17
612.79	1253.36
612.98	1290.22
613.17	1279.98
613.36	1304.56
613.55	1282.03
613.74	1277.93
613.93	1357.80
614.13	1236.97
614.32	1290.22
614.51	1265.64
614.70	1282.03
614.89	1230.83
615.08	1308.65
615.28	1312.75
615.47	1269.74
615.66	1316.84
615.85	1257.45
616.04	1322.99
616.23	1347.56
616.42	1245.16
616.62	1282.03
616.81	1277.93
617.00	1214.45
617.19	1210.35
617.38	1288.17
617.57	1286.12
617.76	1234.93
617.95	1279.98
618.15	1210.35
618.34	1236.97
618.53	1253.36
618.72	1300.46
618.91	1304.56
619.10	1273.84
619.29	1277.93
619.48	1314.80
619.68	1267.69
619.87	1282.03
620.06	1273.84
620.25	1314.80
620.44	1267.69
620.63	1327.08
620.82	1255.40
621.01	1277.93
621.20	1322.99
621.39	1261.55
621.59	1341.42
621.78	1216.49
621.97	1306.60
622.16	1284.08
622.35	1282.03
622.54	1277.93
622.73	1277.93
622.92	1257.45
623.11	1300.46
623.30	1302.51
623.49	1263.60
623.68	1243.12
623.88	1292.27
624.07	1329.13
624.26	1286.12
624.45	1288.17
624.64	1298.41
624.83	1294.32
625.02	1271.79
625.21	1296.36
625.40	1286.12
625.59	1288.17
625.78	1327.08
625.97	1355.76
626.16	1259.50
626.35	1302.51
626.54	1259.50
626.74	1298.41
626.93	1306.60
627.12	1249.26
627.31	1300.46
627.50	1347.56
627.69	1277.93
627.88	1245.16
628.07	1249.26
628.26	1394.67
628.45	1331.18
628.64	1222.64
628.83	1269.74
629.02	1290.22
629.21	1302.51
629.40	1320.94
629.59	1243.12
629.78	1232.88
629.97	1267.69
630.16	1279.98
630.35	1329.13
630.54	1273.84
630.73	1329.13
630.92	1310.70
631.11	1314.80
631.30	1292.27
631.49	1363.95
631.68	1382.38
631.87	1464.30
632.06	1566.70
632.25	1497.07
632.44	1509.35
632.63	1466.35
632.82	1515.50
633.01	1441.77
633.20	1509.35
633.39	1474.54
633.58	1519.59
633.77	1558.50
633.96	1624.04
634.15	1525.74
634.34	1505.26
634.53	1554.41
634.72	1458.15
634.91	1443.82
635.10	1490.92
635.29	1484.78
635.48	1564.65
635.67	1517.54
635.86	1531.88
636.05	1533.93
636.24	1542.12
636.43	1501.16
636.62	1535.98
636.81	1425.39
637.00	1368.04
637.19	1415.15
637.38	1454.06
637.57	1386.47
637.76	1390.57
637.95	1331.18
638.14	1349.61
638.33	1339.37
638.52	1306.60
638.71	1292.27
638.89	1306.60
639.08	1257.45
639.27	1359.85
639.46	1253.36
639.65	1269.74
639.84	1224.69
640.03	1300.46
640.22	1294.32
640.41	1261.55
640.60	1267.69
640.79	1290.22
640.98	1306.60
641.17	1259.50
641.36	1296.36
641.55	1370.09
641.74	1273.84
641.92	1343.47
642.11	1265.64
642.30	1263.60
642.49	1304.56
642.68	1327.08
642.87	1318.89
643.06	1337.32
643.25	1232.88
643.44	1298.41
643.63	1224.69
643.82	1279.98
644.00	1267.69
644.19	1282.03
644.38	1267.69
644.57	1253.36
644.76	1204.21
644.95	1173.49
645.14	1312.75
645.33	1253.36
645.52	1292.27
645.71	1290.22
645.89	1298.41
646.08	1314.80
646.27	1337.32
646.46	1230.83
646.65	1271.79
646.84	1257.45
647.03	1335.28
647.22	1218.54
647.40	1333.23
647.59	1310.70
647.78	1269.74
647.97	1314.80
648.16	1261.55
648.35	1263.60
648.54	1355.76
648.73	1239.02
648.91	1224.69
649.10	1304.56
649.29	1224.69
649.48	1257.45
649.67	1214.45
649.86	1292.27
650.05	1273.84
650.23	1290.22
650.42	1273.84
650.61	1220.59
650.80	1322.99
650.99	1243.12
651.18	1310.70
651.36	1296.36
651.55	1228.78
651.74	1208.30
651.93	1204.21
652.12	1234.93
652.31	1282.03
652.49	1308.65
652.68	1224.69
652.87	1230.83
653.06	1271.79
653.25	1296.36
653.44	1179.63
653.62	1265.64
653.81	1273.84
654.00	1308.65
654.19	1216.49
654.38	1273.84
654.56	1224.69
654.75	1306.60
654.94	1279.98
655.13	1196.01
655.32	1236.97
655.51	1308.65
655.69	1265.64
655.88	1292.27
656.07	1239.02
656.26	1232.88
656.45	1265.64
656.63	1292.27
656.82	1331.18
657.01	1318.89
657.20	1249.26
657.38	1261.55
657.57	1224.69
657.76	1253.36
657.95	1222.64
658.14	1296.36
658.32	1239.02
658.51	1275.88
658.70	1245.16
658.89	1185.77
659.08	1239.02
659.26	1318.89
659.45	1290.22
659.64	1279.98
659.83	1269.74
660.01	1318.89
660.20	1320.94
660.39	1290.22
660.58	1300.46
660.76	1232.88
660.95	1273.84
661.14	1239.02
661.33	1288.17
661.51	1302.51
661.70	1279.98
661.89	1236.97
662.08	1282.03
662.26	1267.69
662.45	1198.06
662.64	1327.08
662.83	1263.60
663.01	1216.49
663.20	1265.64
663.39	1288.17
663.58	1251.31
663.76	1241.07
663.95	1329.13
664.14	1257.45
664.32	1253.36
664.51	1325.04
664.70	1269.74
664.89	1298.41
665.07	1236.97
665.26	1290.22
665.45	1245.16
665.64	1294.32
665.82	1298.41
666.01	1282.03
666.20	1230.83
666.38	1320.94
666.57	1228.78
666.76	1261.55
666.95	1282.03
667.13	1314.80
667.32	1232.88
667.51	1292.27
667.69	1271.79
667.88	1212.40
668.07	1282.03
668.25	1265.64
668.44	1216.49
668.63	1298.41
668.81	1232.88
669.00	1271.79
669.19	1251.31
669.38	1294.32
669.56	1275.88
669.75	1245.16
669.94	1325.04
670.12	1208.30
670.31	1255.40
670.50	1333.23
670.68	1251.31
670.87	1253.36
671.06	1279.98
671.24	1236.97
671.43	1273.84
671.62	1269.74
671.80	1294.32
671.99	1359.85
672.18	1239.02
672.36	1327.08
672.55	1271.79
672.74	1232.88
672.92	1296.36
673.11	1218.54
673.29	1304.56
673.48	1265.64
673.67	1234.93
673.85	1294.32
674.04	1282.03
674.23	1343.47
674.41	1200.11
674.60	1337.32
674.79	1267.69
674.97	1257.45
675.16	1257.45
675.34	1263.60
675.53	1189.87
675.72	1224.69
675.90	1261.55
676.09	1298.41
676.28	1284.08
676.46	1290.22
676.65	1333.23
676.83	1239.02
677.02	1290.22
677.21	1277.93
677.39	1335.28
677.58	1253.36
677.77	1292.27
677.95	1255.40
678.14	1251.31
678.32	1273.84
678.51	1310.70
678.70	1232.88
678.88	1286.12
679.07	1275.88
679.25	1279.98
679.44	1275.88
679.63	1271.79
679.81	1304.56
680.00	1249.26
680.18	1257.45
680.37	1179.63
680.55	1226.73
680.74	1282.03
680.93	1259.50
681.11	1253.36
681.30	1296.36
681.48	1282.03
681.67	1259.50
681.85	1296.36
682.04	1265.64
682.23	1282.03
682.41	1314.80
682.60	1277.93
682.78	1232.88
682.97	1212.40
683.15	1216.49
683.34	1249.26
683.53	1286.12
683.71	1273.84
683.90	1304.56
684.08	1261.55
684.27	1310.70
684.45	1298.41
684.64	1204.21
684.82	1265.64
685.01	1282.03
685.19	1275.88
685.38	1263.60
685.57	1245.16
685.75	1200.11
685.94	1304.56
686.12	1345.52
686.31	1282.03
686.49	1271.79
686.68	1200.11
686.86	1255.40
687.05	1267.69
687.23	1296.36
687.42	1277.93
687.60	1279.98
687.79	1255.40
687.97	1253.36
688.16	1228.78
688.34	1263.60
688.53	1253.36
688.71	1200.11
688.90	1234.93
689.08	1279.98
689.27	1279.98
689.45	1259.50
689.64	1255.40
689.82	1265.64
690.01	1302.51
690.19	1279.98
690.38	1216.49
690.56	1322.99
690.75	1173.49
690.93	1253.36
691.12	1277.93
691.30	1200.11
691.49	1239.02
691.67	1249.26
691.86	1302.51
692.04	1206.25
692.23	1249.26
692.41	1279.98
692.60	1224.69
692.78	1277.93
692.97	1216.49
693.15	1279.98
693.34	1255.40
693.52	1288.17
693.71	1245.16
693.89	1290.22
694.08	1255.40
694.26	1243.12
694.44	1318.89
694.63	1271.79
694.81	1322.99
695.00	1335.28
695.18	1228.78
695.37	1255.40
695.55	1245.16
695.74	1314.80
695.92	1282.03
696.10	1261.55
696.29	1314.80
696.47	1306.60
696.66	1282.03
696.84	1277.93
697.03	1277.93
697.21	1275.88
697.40	1288.17
697.58	1245.16
697.76	1222.64
697.95	1290.22
698.13	1243.12
698.32	1374.19
698.50	1275.88
698.68	1292.27
698.87	1290.22
699.05	1335.28
699.24	1243.12
699.42	1230.83
699.61	1212.40
699.79	1304.56
699.97	1306.60
700.16	1292.27
700.34	1228.78
700.53	1335.28
700.71	1275.88
700.89	1372.14
701.08	1310.70
701.26	1214.45
701.45	1255.40
701.63	1236.97
701.81	1255.40
702.00	1286.12
702.18	1249.26
702.37	1239.02
702.55	1265.64
702.73	1222.64
702.92	1314.80
703.10	1320.94
703.28	1261.55
703.47	1314.80
703.65	1239.02
703.84	1259.50
704.02	1226.73
704.20	1279.98
704.39	1275.88
704.57	1296.36
704.75	1296.36
704.94	1345.52
705.12	1296.36
705.30	1271.79
705.49	1239.02
705.67	1259.50
705.86	1310.70
706.04	1239.02
706.22	1288.17
706.41	1306.60
706.59	1138.67
706.77	1353.71
706.96	1355.76
707.14	1271.79
707.32	1253.36
707.51	1261.55
707.69	1243.12
707.87	1255.40
708.06	1251.31
708.24	1263.60
708.42	1236.97
708.61	1245.16
708.79	1243.12
708.97	1292.27
709.16	1271.79
709.34	1314.80
709.52	1206.25
709.71	1247.21
709.89	1327.08
710.07	1284.08
710.26	1169.39
710.44	1273.84
710.62	1224.69
710.80	1208.30
710.99	1314.80
711.17	1241.07
711.35	1277.93
711.54	1337.32
711.72	1267.69
711.90	1245.16
712.09	1243.12
712.27	1296.36
712.45	1302.51
712.63	1247.21
712.82	1277.93
713.00	1286.12
713.18	1275.88
713.37	1298.41
713.55	1304.56
713.73	1366.00
713.91	1277.93
714.10	1306.60
714.28	1247.21
714.46	1331.18
714.65	1245.16
714.83	1275.88
715.01	1224.69
715.19	1271.79
715.38	1282.03
715.56	1214.45
715.74	1255.40
715.92	1241.07
716.11	1267.69
716.29	1308.65
716.47	1294.32
716.65	1288.17
716.84	1273.84
717.02	1298.41
717.20	1269.74
717.38	1251.31
717.57	1241.07
717.75	1214.45
717.93	1249.26
718.11	1345.52
718.30	1239.02
718.48	1310.70
718.66	1275.88
718.84	1220.59
719.03	1259.50
719.21	1243.12
719.39	1271.79
719.57	1241.07
719.75	1296.36
719.94	1210.35
720.12	1185.77
720.30	1214.45
720.48	1284.08
720.67	1294.32
720.85	1273.84
721.03	1282.03
721.21	1269.74
721.39	1320.94
721.58	1243.12
721.76	1298.41
721.94	1294.32
722.12	1353.71
722.30	1318.89
722.49	1230.83
722.67	1275.88
722.85	1189.87
723.03	1275.88
723.21	1279.98
723.40	1257.45
723.58	1273.84
723.76	1236.97
723.94	1218.54
724.12	1269.74
724.30	1271.79
724.49	1241.07
724.67	1220.59
724.85	1267.69
725.03	1241.07
725.21	1226.73
725.40	1288.17
725.58	1222.64
725.76	1277.93
725.94	1239.02
726.12	1306.60
726.30	1212.40
726.49	1261.55
726.67	1294.32
726.85	1271.79
727.03	1310.70
727.21	1370.09
727.39	1304.56
727.57	1320.94
727.76	1247.21
727.94	1228.78
728.12	1282.03
728.30	1216.49
728.48	1222.64
728.66	1271.79
728.84	1279.98
729.03	1279.98
729.21	1310.70
729.39	1253.36
729.57	1271.79
729.75	1214.45
729.93	1275.88
730.11	1304.56
730.30	1290.22
730.48	1265.64
730.66	1290.22
730.84	1265.64
731.02	1204.21
731.20	1296.36
731.38	1249.26
731.56	1282.03
731.74	1277.93
731.93	1296.36
732.11	1310.70
732.29	1216.49
732.47	1335.28
732.65	1212.40
732.83	1308.65
733.01	1265.64
733.19	1263.60
733.37	1279.98
733.56	1290.22
733.74	1189.87
733.92	1243.12
734.10	1300.46
734.28	1265.64
734.46	1253.36
734.64	1296.36
734.82	1300.46
735.00	1216.49
735.18	1263.60
735.36	1277.93
735.54	1249.26
735.73	1271.79
735.91	1314.80
736.09	1243.12
736.27	1222.64
736.45	1277.93
736.63	1271.79
736.81	1253.36
736.99	1335.28
737.17	1271.79
737.35	1224.69
737.53	1269.74
737.71	1261.55
737.89	1251.31
738.07	1196.01
738.25	1296.36
738.43	1279.98
738.61	1239.02
738.80	1279.98
738.98	1259.50
739.16	1251.31
739.34	1220.59
739.52	1249.26
739.70	1271.79
739.88	1279.98
740.06	1230.83
740.24	1259.50
740.42	1222.64
740.60	1286.12
740.78	1290.22
740.96	1368.04
741.14	1271.79
741.32	1314.80
741.50	1239.02
741.68	1296.36
741.86	1314.80
742.04	1282.03
742.22	1310.70
742.40	1290.22
742.58	1267.69
742.76	1247.21
742.94	1320.94
743.12	1220.59
743.30	1255.40
743.48	1230.83
743.66	1257.45
743.84	1253.36
744.02	1269.74
744.20	1255.40
744.38	1288.17
744.56	1333.23
744.74	1296.36
744.92	1230.83
745.10	1275.88
745.28	1306.60
745.46	1312.75
745.64	1253.36
745.82	1294.32
746.00	1300.46
746.18	1273.84
746.36	1257.45
746.54	1249.26
746.72	1331.18
746.90	1236.97
747.08	1316.84
747.26	1294.32
747.44	1257.45
747.62	1214.45
747.80	1284.08
747.98	1298.41
748.15	1249.26
748.33	1257.45
748.51	1273.84
748.69	1337.32
748.87	1308.65
749.05	1296.36
749.23	1249.26
749.41	1294.32
749.59	1228.78
749.77	1185.77
749.95	1226.73
750.13	1343.47
750.31	1230.83
750.49	1249.26
750.67	1296.36
750.85	1318.89
751.03	1290.22
751.20	1257.45
751.38	1241.07
751.56	1331.18
751.74	1282.03
751.92	1243.12
752.10	1292.27
752.28	1187.82
752.46	1316.84
752.64	1273.84
752.82	1298.41
753.00	1253.36
753.18	1243.12
753.35	1247.21
753.53	1228.78
753.71	1286.12
753.89	1263.60
754.07	1273.84
754.25	1273.84
754.43	1327.08
754.61	1284.08
754.79	1318.89
754.97	1347.56
755.14	1282.03
755.32	1273.84
755.50	1288.17
755.68	1275.88
755.86	1265.64
756.04	1265.64
756.22	1304.56
756.40	1214.45
756.57	1259.50
756.75	1279.98
756.93	1265.64
757.11	1271.79
757.29	1292.27
757.47	1288.17
757.65	1239.02
757.82	1269.74
758.00	1277.93
758.18	1282.03
758.36	1265.64
758.54	1228.78
758.72	1236.97
758.90	1282.03
759.07	1357.80
759.25	1271.79
759.43	1298.41
759.61	1325.04
759.79	1247.21
759.97	1273.84
760.15	1193.97
760.32	1284.08
760.50	1212.40
760.68	1265.64
760.86	1296.36
761.04	1230.83
761.22	1269.74
761.39	1279.98
761.57	1282.03
761.75	1325.04
761.93	1224.69
762.11	1222.64
762.28	1263.60
762.46	1271.79
762.64	1290.22
762.82	1261.55
763.00	1249.26
763.18	1327.08
763.35	1200.11
763.53	1185.77
763.71	1232.88
763.89	1132.53
764.07	1286.12
764.24	1296.36
764.42	1261.55
764.60	1230.83
764.78	1259.50
764.96	1206.25
765.13	1318.89
765.31	1265.64
765.49	1239.02
765.67	1249.26
765.84	1247.21
766.02	1337.32
766.20	1259.50
766.38	1282.03
766.56	1243.12
766.73	1239.02
766.91	1298.41
767.09	1216.49
767.27	1206.25
767.44	1292.27
767.62	1241.07
767.80	1247.21
767.98	1265.64
768.15	1292.27
768.33	1204.21
768.51	1298.41
768.69	1335.28
768.87	1306.60
769.04	1212.40
769.22	1296.36
769.40	1335.28
769.58	1253.36
769.75	1296.36
769.93	1288.17
770.11	1243.12
770.28	1292.27
770.46	1277.93
770.64	1363.95
770.82	1265.64
770.99	1298.41
771.17	1290.22
771.35	1247.21
771.53	1355.76
771.70	1247.21
771.88	1288.17
772.06	1288.17
772.23	1222.64
772.41	1245.16
772.59	1236.97
772.77	1290.22
772.94	1296.36
773.12	1189.87
773.30	1339.37
773.47	1290.22
773.65	1292.27
773.83	1259.50
774.01	1261.55
774.18	1183.73
774.36	1228.78
774.54	1202.16
774.71	1282.03
774.89	1239.02
775.07	1212.40
775.24	1275.88
775.42	1282.03
775.60	1304.56
775.78	1259.50
775.95	1320.94
776.13	1327.08
776.31	1245.16
776.48	1236.97
776.66	1265.64
776.84	1220.59
777.01	1288.17
777.19	1282.03
777.37	1257.45
777.54	1306.60
777.72	1320.94
777.90	1191.92
778.07	1177.58
778.25	1290.22
778.43	1331.18
778.60	1310.70
778.78	1300.46
778.96	1288.17
779.13	1302.51
779.31	1253.36
779.49	1265.64
779.66	1318.89
779.84	1236.97
780.01	1232.88
780.19	1249.26
780.37	1279.98
780.54	1345.52
780.72	1224.69
780.90	1288.17
781.07	1220.59
781.25	1263.60
781.43	1253.36
781.60	1261.55
781.78	1247.21
781.95	1181.68
782.13	1288.17
782.31	1247.21
782.48	1206.25
782.66	1296.36
782.83	1239.02
783.01	1243.12
783.19	1206.25
783.36	1282.03
783.54	1331.18
783.72	1304.56
783.89	1286.12
784.07	1273.84
784.24	1298.41
784.42	1251.31
784.60	1286.12
784.77	1234.93
784.95	1224.69
785.12	1271.79
785.30	1236.97
785.47	1241.07
785.65	1273.84
785.83	1239.02
786.00	1265.64
786.18	1206.25
786.35	1228.78
786.53	1230.83
786.71	1243.12
786.88	1269.74
787.06	1261.55
787.23	1255.40
787.41	1234.93
787.58	1329.13
787.76	1202.16
787.94	1296.36
788.11	1261.55
788.29	1202.16
788.46	1277.93
788.64	1294.32
788.81	1290.22
788.99	1261.55
789.16	1267.69
789.34	1220.59
789.52	1265.64
789.69	1306.60
789.87	1241.07
790.04	1292.27
790.22	1288.17
790.39	1331.18
790.57	1200.11
790.74	1318.89
790.92	1286.12
791.09	1257.45
791.27	1316.84
791.44	1261.55
791.62	1228.78
791.79	1316.84
791.97	1247.21
792.15	1269.74
792.32	1253.36
792.50	1241.07
792.67	1263.60
792.85	1220.59
793.02	1253.36
793.20	1228.78
793.37	1286.12
793.55	1269.74
793.72	1267.69
793.90	1263.60
794.07	1253.36
794.25	1189.87
794.42	1265.64
794.60	1208.30
794.77	1255.40
794.95	1208.30
795.12	1259.50
795.30	1296.36
795.47	1294.32
795.65	1263.60
795.82	1275.88
796.00	1236.97
796.17	1220.59
796.34	1206.25
796.52	1353.71
796.69	1228.78
796.87	1298.41
797.04	1308.65
797.22	1130.48
797.39	1282.03
797.57	1263.60
797.74	1292.27
797.92	1228.78
798.09	1239.02
798.27	1261.55
798.44	1325.04
798.62	1222.64
798.79	1230.83
798.96	1296.36
799.14	1239.02
799.31	1292.27
799.49	1331.18
799.66	1241.07
799.84	1234.93
800.01	1286.12
800.19	1329.13
800.36	1222.64
800.53	1261.55
800.71	1245.16
800.88	1277.93
801.06	1292.27
801.23	1191.92
801.41	1279.98
801.58	1316.84
801.75	1218.54
801.93	1198.06
802.10	1271.79
802.28	1253.36
802.45	1361.90
802.63	1253.36
802.80	1261.55
802.97	1253.36
803.15	1239.02
803.32	1251.31
803.50	1220.59
803.67	1232.88
803.84	1216.49
804.02	1226.73
804.19	1273.84
804.37	1292.27
804.54	1214.45
804.71	1269.74
804.89	1327.08
805.06	1263.60
805.24	1273.84
805.41	1245.16
805.58	1271.79
805.76	1257.45
805.93	1230.83
806.10	1263.60
806.28	1279.98
806.45	1296.36
806.63	1316.84
806.80	1218.54
806.97	1245.16
807.15	1277.93
807.32	1325.04
807.49	1265.64
807.67	1275.88
807.84	1275.88
808.01	1255.40
808.19	1247.21
808.36	1296.36
808.54	1255.40
808.71	1275.88
808.88	1331.18
809.06	1294.32
809.23	1189.87
809.40	1265.64
809.58	1249.26
809.75	1263.60
809.92	1241.07
810.10	1300.46
810.27	1228.78
810.44	1161.20
810.62	1306.60
810.79	1220.59
810.96	1312.75
811.14	1296.36
811.31	1292.27
811.48	1241.07
811.66	1341.42
811.83	1245.16
812.00	1263.60
812.18	1212.40
812.35	1232.88
812.52	1171.44
812.69	1251.31
812.87	1257.45
813.04	1261.55
813.21	1273.84
813.39	1296.36
813.56	1257.45
813.73	1232.88
813.91	1220.59
814.08	1239.02
814.25	1337.32
814.42	1261.55
814.60	1232.88
814.77	1241.07
814.94	1216.49
815.12	1320.94
815.29	1304.56
815.46	1259.50
815.63	1265.64
815.81	1216.49
815.98	1302.51
816.15	1208.30
816.33	1230.83
816.50	1265.64
816.67	1232.88
816.84	1273.84
817.02	1230.83
817.19	1265.64
817.36	1290.22
817.53	1224.69
817.71	1222.64
817.88	1247.21
818.05	1279.98
818.22	1277.93
818.40	1290.22
818.57	1247.21
818.74	1253.36
818.91	1267.69
819.09	1292.27
819.26	1282.03
819.43	1349.61
819.60	1146.86
819.78	1314.80
819.95	1290.22
820.12	1210.35
820.29	1261.55
820.47	1259.50
820.64	1357.80
820.81	1261.55
820.98	1320.94
821.15	1193.97
821.33	1210.35
821.50	1218.54
821.67	1245.16
821.84	1228.78
822.02	1286.12
822.19	1253.36
822.36	1279.98
822.53	1259.50
822.70	1267.69
822.88	1277.93
823.05	1316.84
823.22	1290.22
823.39	1306.60
823.56	1204.21
823.74	1273.84
823.91	1259.50
824.08	1312.75
824.25	1261.55
824.42	1265.64
824.60	1224.69
824.77	1298.41
824.94	1247.21
825.11	1308.65
825.28	1230.83
825.45	1279.98
825.63	1259.50
825.80	1206.25
825.97	1265.64
826.14	1265.64
826.31	1259.50
826.48	1310.70
826.66	1290.22
826.83	1318.89
827.00	1269.74
827.17	1222.64
827.34	1298.41
827.51	1304.56
827.69	1320.94
827.86	1304.56
828.03	1284.08
828.20	1222.64
828.37	1318.89
828.54	1257.45
828.71	1294.32
828.89	1290.22
829.06	1263.60
829.23	1177.58
829.40	1224.69
829.57	1206.25
829.74	1243.12
829.91	1273.84
830.09	1253.36
830.26	1290.22
830.43	1241.07
830.60	1249.26
830.77	1247.21
830.94	1294.32
831.11	1247.21
831.28	1359.85
831.46	1353.71
831.63	1314.80
831.80	1216.49
831.97	1306.60
832.14	1279.98
832.31	1224.69
832.48	1189.87
832.65	1255.40
832.82	1298.41
832.99	1265.64
833.17	1294.32
833.34	1212.40
833.51	1282.03
833.68	1288.17
833.85	1325.04
834.02	1226.73
834.19	1265.64
834.36	1282.03
834.53	1257.45
834.70	1318.89
834.87	1198.06
835.04	1265.64
835.22	1259.50
835.39	1239.02
835.56	1247.21
835.73	1230.83
835.90	1228.78
836.07	1292.27
836.24	1288.17
836.41	1290.22
836.58	1279.98
836.75	1263.60
836.92	1345.52
837.09	1247.21
837.26	1263.60
837.43	1198.06
837.60	1306.60
837.77	1189.87
837.94	1243.12
838.12	1241.07
838.29	1257.45
838.46	1302.51
838.63	1189.87
838.80	1247.21
838.97	1310.70
839.14	1284.08
839.31	1316.84
839.48	1300.46
839.65	1247.21
839.82	1241.07
839.99	1271.79
840.16	1257.45
840.33	1251.31
840.50	1308.65
840.67	1220.59
840.84	1214.45
841.01	1257.45
841.18	1257.45
841.35	1214.45
841.52	1263.60
841.69	1267.69
841.86	1269.74
842.03	1236.97
842.20	1282.03
842.37	1273.84
842.54	1318.89
842.71	1298.41
842.88	1279.98
843.05	1206.25
843.22	1232.88
843.39	1306.60
843.56	1306.60
843.73	1257.45
843.90	1253.36
844.07	1292.27
844.24	1255.40
844.41	1275.88
844.58	1206.25
844.75	1230.83
844.92	1253.36
845.09	1263.60
845.26	1214.45
845.43	1224.69
845.60	1232.88
845.77	1253.36
845.94	1320.94
846.10	1269.74
846.27	1271.79
846.44	1316.84
846.61	1286.12
846.78	1327.08
846.95	1277.93
847.12	1208.30
847.29	1257.45
847.46	1249.26
847.63	1308.65
847.80	1284.08
847.97	1261.55
848.14	1335.28
848.31	1261.55
848.48	1294.32
848.65	1345.52
848.82	1320.94
848.98	1363.95
849.15	1286.12
849.32	1193.97
849.49	1316.84
849.66	1310.70
849.83	1259.50
850.00	1187.82
850.17	1282.03
850.34	1228.78
850.51	1306.60
850.68	1191.92
850.85	1275.88
851.01	1316.84
851.18	1216.49
851.35	1355.76
851.52	1214.45
851.69	1271.79
851.86	1304.56
852.03	1214.45
852.20	1247.21
852.37	1214.45
852.53	1263.60
852.70	1363.95
852.87	1265.64
853.04	1294.32
853.21	1204.21
853.38	1273.84
853.55	1255.40
853.72	1290.22
853.89	1306.60
854.05	1257.45
854.22	1222.64
854.39	1183.73
854.56	1224.69
854.73	1208.30
854.90	1224.69
855.07	1226.73
855.23	1202.16
855.40	1298.41
855.57	1277.93
855.74	1300.46
855.91	1226.73
856.08	1277.93
856.25	1320.94
856.41	1224.69
856.58	1306.60
856.75	1249.26
856.92	1234.93
857.09	1312.75
857.26	1257.45
857.42	1241.07
857.59	1265.64
857.76	1263.60
857.93	1243.12
858.10	1241.07
858.27	1259.50
858.43	1198.06
858.60	1267.69
858.77	1284.08
858.94	1269.74
859.11	1206.25
859.27	1261.55
859.44	1314.80
859.61	1267.69
859.78	1226.73
859.95	1234.93
860.12	1216.49
860.28	1259.50
860.45	1269.74
860.62	1292.27
860.79	1261.55
860.95	1261.55
861.12	1241.07
861.29	1304.56
861.46	1247.21
861.63	1277.93
861.79	1206.25
861.96	1279.98
862.13	1370.09
862.30	1257.45
862.47	1282.03
862.63	1294.32
862.80	1298.41
862.97	1255.40
863.14	1228.78
863.30	1224.69
863.47	1179.63
863.64	1296.36
863.81	1308.65
863.97	1312.75
864.14	1298.41
864.31	1232.88
864.48	1255.40
864.65	1224.69
864.81	1181.68
864.98	1253.36
865.15	1251.31
865.32	1279.98
865.48	1224.69
865.65	1257.45
865.82	1234.93
865.98	1253.36
866.15	1249.26
866.32	1230.83
866.49	1296.36
866.65	1251.31
866.82	1241.07
866.99	1306.60
867.16	1294.32
867.32	1335.28
867.49	1322.99
867.66	1275.88
867.83	1249.26
867.99	1292.27
868.16	1226.73
868.33	1241.07
868.49	1273.84
868.66	1327.08
868.83	1337.32
868.99	1269.74
869.16	1263.60
869.33	1181.68
869.50	1257.45
869.66	1279.98
869.83	1212.40
870.00	1210.35
870.16	1198.06
870.33	1312.75
870.50	1329.13
870.66	1263.60
870.83	1247.21
871.00	1273.84
871.17	1347.56
871.33	1202.16
871.50	1290.22
871.67	1267.69
871.83	1267.69
872.00	1218.54
872.17	1314.80
872.33	1253.36
872.50	1232.88
872.67	1275.88
872.83	1273.84
873.00	1239.02
873.17	1241.07
873.33	1288.17
873.50	1257.45
873.67	1191.92
873.83	1318.89
874.00	1236.97
874.16	1251.31
874.33	1167.34
874.50	1275.88
874.66	1282.03
874.83	1263.60
875.00	1210.35
875.16	1257.45
875.33	1312.75
875.50	1200.11
875.66	1286.12
875.83	1263.60
875.99	1239.02
876.16	1306.60
876.33	1212.40
876.49	1255.40
876.66	1251.31
876.83	1226.73
876.99	1247.21
877.16	1282.03
877.32	1300.46
877.49	1267.69
877.66	1234.93
877.82	1239.02
877.99	1353.71
878.15	1218.54
878.32	1247.21
878.49	1212.40
878.65	1298.41
878.82	1386.47
878.98	1306.60
879.15	1228.78
879.32	1318.89
879.48	1288.17
879.65	1261.55
879.81	1212.40
879.98	1273.84
880.15	1241.07
880.31	1230.83
880.48	1228.78
880.64	1206.25
880.81	1212.40
880.97	1277.93
881.14	1316.84
881.31	1267.69
881.47	1318.89
881.64	1374.19
881.80	1277.93
881.97	1316.84
882.13	1245.16
882.30	1200.11
882.47	1265.64
882.63	1216.49
882.80	1347.56
882.96	1253.36
883.13	1259.50
883.29	1220.59
883.46	1265.64
883.62	1234.93
883.79	1234.93
883.95	1263.60
884.12	1296.36
884.29	1259.50
884.45	1206.25
884.62	1269.74
884.78	1232.88
884.95	1275.88
885.11	1306.60
885.28	1310.70
885.44	1308.65
885.61	1247.21
885.77	1335.28
885.94	1263.60
886.10	1247.21
886.27	1273.84
886.43	1277.93
886.60	1257.45
886.76	1298.41
886.93	1232.88
887.09	1284.08
887.26	1224.69
887.42	1284.08
887.59	1322.99
887.75	1304.56
887.92	1249.26
888.08	1310.70
888.25	1304.56
888.41	1339.37
888.58	1204.21
888.74	1253.36
888.91	1220.59
>>>>>End Processed Spectral Data<<<<<
