SpectraSuite Data File
++++++++++++++++++++++++++++++++++++
Date: Sun Apr 03 19:55:25 CEST 2016
User: root
Dark Spectrum Present: No
Reference Spectrum Present: No
Number of Sampled Component Spectra: 1
Spectrometers: USB4C02835
Integration Time (usec): 10000 (USB4C02835)
Spectra Averaged: 1 (USB4C02835)
Boxcar Smoothing: 0 (USB4C02835)
Correct for Electrical Dark: No (USB4C02835)
Strobe/Lamp Enabled: No (USB4C02835)
Correct for Detector Non-linearity: No (USB4C02835)
Correct for Stray Light: No (USB4C02835)
Number of Pixels in Processed Spectrum: 3648
>>>>>Begin Processed Spectral Data<<<<<
177.47	1241.07
177.69	1241.07
177.91	1241.07
178.13	1220.59
178.36	1200.11
178.58	1234.93
178.80	1318.89
179.02	1306.60
179.24	1269.74
179.46	1265.64
179.68	1249.26
179.90	1284.08
180.13	1253.36
180.35	1253.36
180.57	1284.08
180.79	1249.26
181.01	1263.60
181.23	1312.75
181.45	1249.26
181.67	1267.69
181.90	1263.60
182.12	1257.45
182.34	1265.64
182.56	1304.56
182.78	1245.16
183.00	1279.98
183.22	1243.12
183.44	1263.60
183.66	1353.71
183.89	1325.04
184.11	1284.08
184.33	1263.60
184.55	1282.03
184.77	1257.45
184.99	1314.80
185.21	1214.45
185.43	1255.40
185.65	1271.79
185.87	1249.26
186.10	1232.88
186.32	1277.93
186.54	1322.99
186.76	1271.79
186.98	1265.64
187.20	1243.12
187.42	1279.98
187.64	1218.54
187.86	1296.36
188.08	1241.07
188.30	1220.59
188.52	1261.55
188.75	1255.40
188.97	1322.99
189.19	1275.88
189.41	1275.88
189.63	1245.16
189.85	1269.74
190.07	1206.25
190.29	1230.83
190.51	1331.18
190.73	1263.60
190.95	1255.40
191.17	1308.65
191.39	1314.80
191.61	1279.98
191.84	1200.11
192.06	1296.36
192.28	1275.88
192.50	1267.69
192.72	1255.40
192.94	1275.88
193.16	1236.97
193.38	1277.93
193.60	1249.26
193.82	1267.69
194.04	1271.79
194.26	1232.88
194.48	1312.75
194.70	1245.16
194.92	1251.31
195.14	1265.64
195.36	1331.18
195.58	1257.45
195.80	1253.36
196.02	1232.88
196.24	1218.54
196.46	1273.84
196.69	1241.07
196.91	1247.21
197.13	1222.64
197.35	1294.32
197.57	1255.40
197.79	1353.71
198.01	1257.45
198.23	1228.78
198.45	1292.27
198.67	1279.98
198.89	1261.55
199.11	1282.03
199.33	1290.22
199.55	1269.74
199.77	1298.41
199.99	1392.62
200.21	1306.60
200.43	1290.22
200.65	1286.12
200.87	1294.32
201.09	1265.64
201.31	1314.80
201.53	1288.17
201.75	1273.84
201.97	1298.41
202.19	1304.56
202.41	1259.50
202.63	1296.36
202.85	1245.16
203.07	1216.49
203.29	1288.17
203.51	1351.66
203.73	1275.88
203.95	1343.47
204.17	1273.84
204.39	1282.03
204.61	1269.74
204.83	1224.69
205.05	1263.60
205.27	1292.27
205.49	1294.32
205.71	1298.41
205.93	1249.26
206.15	1322.99
206.37	1208.30
206.59	1284.08
206.81	1243.12
207.03	1216.49
207.25	1245.16
207.47	1316.84
207.69	1275.88
207.91	1314.80
208.13	1269.74
208.34	1239.02
208.56	1212.40
208.78	1322.99
209.00	1271.79
209.22	1425.39
209.44	1247.21
209.66	1259.50
209.88	1257.45
210.10	1261.55
210.32	1251.31
210.54	1282.03
210.76	1228.78
210.98	1331.18
211.20	1220.59
211.42	1316.84
211.64	1253.36
211.86	1273.84
212.08	1257.45
212.30	1265.64
212.52	1302.51
212.74	1339.37
212.96	1251.31
213.17	1245.16
213.39	1265.64
213.61	1306.60
213.83	1216.49
214.05	1296.36
214.27	1265.64
214.49	1273.84
214.71	1247.21
214.93	1286.12
215.15	1261.55
215.37	1241.07
215.59	1282.03
215.81	1312.75
216.03	1269.74
216.24	1273.84
216.46	1312.75
216.68	1234.93
216.90	1255.40
217.12	1212.40
217.34	1249.26
217.56	1243.12
217.78	1337.32
218.00	1200.11
218.22	1200.11
218.44	1146.86
218.66	1279.98
218.87	1243.12
219.09	1243.12
219.31	1320.94
219.53	1193.97
219.75	1308.65
219.97	1255.40
220.19	1259.50
220.41	1253.36
220.63	1288.17
220.85	1277.93
221.06	1290.22
221.28	1286.12
221.50	1202.16
221.72	1312.75
221.94	1181.68
222.16	1165.29
222.38	1255.40
222.60	1322.99
222.82	1243.12
223.03	1187.82
223.25	1286.12
223.47	1286.12
223.69	1294.32
223.91	1325.04
224.13	1331.18
224.35	1325.04
224.57	1308.65
224.78	1261.55
225.00	1208.30
225.22	1310.70
225.44	1267.69
225.66	1320.94
225.88	1175.53
226.10	1282.03
226.32	1335.28
226.53	1243.12
226.75	1251.31
226.97	1306.60
227.19	1253.36
227.41	1261.55
227.63	1298.41
227.85	1343.47
228.06	1310.70
228.28	1216.49
228.50	1271.79
228.72	1279.98
228.94	1296.36
229.16	1284.08
229.37	1282.03
229.59	1234.93
229.81	1239.02
230.03	1275.88
230.25	1202.16
230.47	1183.73
230.69	1304.56
230.90	1322.99
231.12	1298.41
231.34	1251.31
231.56	1234.93
231.78	1236.97
232.00	1314.80
232.21	1173.49
232.43	1249.26
232.65	1318.89
232.87	1261.55
233.09	1202.16
233.30	1239.02
233.52	1288.17
233.74	1239.02
233.96	1277.93
234.18	1226.73
234.40	1249.26
234.61	1220.59
234.83	1247.21
235.05	1306.60
235.27	1196.01
235.49	1275.88
235.70	1265.64
235.92	1282.03
236.14	1261.55
236.36	1337.32
236.58	1239.02
236.79	1298.41
237.01	1349.61
237.23	1269.74
237.45	1318.89
237.67	1214.45
237.88	1300.46
238.10	1249.26
238.32	1294.32
238.54	1314.80
238.76	1300.46
238.97	1310.70
239.19	1271.79
239.41	1316.84
239.63	1263.60
239.85	1302.51
240.06	1267.69
240.28	1239.02
240.50	1273.84
240.72	1255.40
240.93	1185.77
241.15	1279.98
241.37	1271.79
241.59	1290.22
241.81	1226.73
242.02	1218.54
242.24	1269.74
242.46	1253.36
242.68	1273.84
242.89	1294.32
243.11	1259.50
243.33	1294.32
243.55	1314.80
243.76	1308.65
243.98	1220.59
244.20	1234.93
244.42	1245.16
244.64	1243.12
244.85	1263.60
245.07	1267.69
245.29	1265.64
245.51	1277.93
245.72	1271.79
245.94	1275.88
246.16	1253.36
246.38	1282.03
246.59	1306.60
246.81	1255.40
247.03	1206.25
247.24	1167.34
247.46	1236.97
247.68	1304.56
247.90	1271.79
248.11	1261.55
248.33	1251.31
248.55	1265.64
248.77	1236.97
248.98	1302.51
249.20	1306.60
249.42	1239.02
249.64	1273.84
249.85	1279.98
250.07	1302.51
250.29	1241.07
250.50	1259.50
250.72	1310.70
250.94	1282.03
251.16	1300.46
251.37	1226.73
251.59	1292.27
251.81	1279.98
252.02	1284.08
252.24	1196.01
252.46	1284.08
252.68	1341.42
252.89	1224.69
253.11	1273.84
253.33	1331.18
253.54	1296.36
253.76	1212.40
253.98	1296.36
254.20	1228.78
254.41	1294.32
254.63	1230.83
254.85	1277.93
255.06	1302.51
255.28	1322.99
255.50	1173.49
255.71	1284.08
255.93	1232.88
256.15	1208.30
256.36	1241.07
256.58	1269.74
256.80	1228.78
257.02	1300.46
257.23	1253.36
257.45	1335.28
257.67	1271.79
257.88	1204.21
258.10	1261.55
258.32	1300.46
258.53	1273.84
258.75	1247.21
258.97	1320.94
259.18	1275.88
259.40	1232.88
259.62	1318.89
259.83	1325.04
260.05	1329.13
260.27	1337.32
260.48	1234.93
260.70	1265.64
260.92	1204.21
261.13	1243.12
261.35	1198.06
261.57	1288.17
261.78	1236.97
262.00	1243.12
262.22	1265.64
262.43	1300.46
262.65	1249.26
262.86	1255.40
263.08	1228.78
263.30	1218.54
263.51	1351.66
263.73	1232.88
263.95	1193.97
264.16	1304.56
264.38	1202.16
264.60	1275.88
264.81	1239.02
265.03	1249.26
265.25	1232.88
265.46	1273.84
265.68	1290.22
265.89	1239.02
266.11	1273.84
266.33	1271.79
266.54	1294.32
266.76	1257.45
266.98	1310.70
267.19	1327.08
267.41	1267.69
267.62	1282.03
267.84	1253.36
268.06	1263.60
268.27	1292.27
268.49	1322.99
268.70	1204.21
268.92	1320.94
269.14	1275.88
269.35	1343.47
269.57	1331.18
269.79	1243.12
270.00	1277.93
270.22	1259.50
270.43	1206.25
270.65	1218.54
270.87	1296.36
271.08	1286.12
271.30	1331.18
271.51	1230.83
271.73	1294.32
271.95	1290.22
272.16	1226.73
272.38	1306.60
272.59	1247.21
272.81	1304.56
273.02	1234.93
273.24	1335.28
273.46	1271.79
273.67	1322.99
273.89	1304.56
274.10	1216.49
274.32	1204.21
274.54	1253.36
274.75	1275.88
274.97	1320.94
275.18	1310.70
275.40	1230.83
275.61	1261.55
275.83	1267.69
276.05	1306.60
276.26	1265.64
276.48	1216.49
276.69	1284.08
276.91	1234.93
277.12	1294.32
277.34	1251.31
277.55	1279.98
277.77	1247.21
277.99	1226.73
278.20	1239.02
278.42	1286.12
278.63	1290.22
278.85	1308.65
279.06	1216.49
279.28	1239.02
279.49	1269.74
279.71	1273.84
279.93	1245.16
280.14	1251.31
280.36	1210.35
280.57	1236.97
280.79	1271.79
281.00	1300.46
281.22	1290.22
281.43	1265.64
281.65	1288.17
281.86	1232.88
282.08	1261.55
282.29	1277.93
282.51	1236.97
282.73	1257.45
282.94	1243.12
283.16	1218.54
283.37	1232.88
283.59	1232.88
283.80	1255.40
284.02	1236.97
284.23	1322.99
284.45	1349.61
284.66	1322.99
284.88	1271.79
285.09	1298.41
285.31	1310.70
285.52	1210.35
285.74	1335.28
285.95	1249.26
286.17	1288.17
286.38	1288.17
286.60	1265.64
286.81	1306.60
287.03	1245.16
287.24	1249.26
287.46	1247.21
287.67	1341.42
287.89	1228.78
288.10	1261.55
288.32	1327.08
288.53	1220.59
288.75	1241.07
288.96	1255.40
289.18	1269.74
289.39	1243.12
289.61	1296.36
289.82	1239.02
290.04	1320.94
290.25	1226.73
290.47	1284.08
290.68	1277.93
290.90	1239.02
291.11	1259.50
291.33	1288.17
291.54	1202.16
291.76	1279.98
291.97	1296.36
292.18	1282.03
292.40	1261.55
292.61	1263.60
292.83	1257.45
293.04	1296.36
293.26	1265.64
293.47	1253.36
293.69	1290.22
293.90	1196.01
294.12	1193.97
294.33	1339.37
294.55	1269.74
294.76	1232.88
294.97	1261.55
295.19	1296.36
295.40	1214.45
295.62	1220.59
295.83	1236.97
296.05	1230.83
296.26	1249.26
296.48	1284.08
296.69	1277.93
296.90	1279.98
297.12	1224.69
297.33	1259.50
297.55	1255.40
297.76	1273.84
297.98	1236.97
298.19	1259.50
298.41	1234.93
298.62	1259.50
298.83	1282.03
299.05	1329.13
299.26	1302.51
299.48	1216.49
299.69	1277.93
299.90	1284.08
300.12	1282.03
300.33	1261.55
300.55	1277.93
300.76	1288.17
300.98	1290.22
301.19	1306.60
301.40	1322.99
301.62	1294.32
301.83	1306.60
302.05	1255.40
302.26	1316.84
302.47	1279.98
302.69	1275.88
302.90	1230.83
303.12	1286.12
303.33	1322.99
303.54	1222.64
303.76	1290.22
303.97	1265.64
304.19	1284.08
304.40	1279.98
304.61	1234.93
304.83	1257.45
305.04	1269.74
305.26	1282.03
305.47	1239.02
305.68	1214.45
305.90	1318.89
306.11	1241.07
306.33	1310.70
306.54	1273.84
306.75	1343.47
306.97	1312.75
307.18	1279.98
307.39	1228.78
307.61	1234.93
307.82	1267.69
308.04	1284.08
308.25	1257.45
308.46	1232.88
308.68	1251.31
308.89	1226.73
309.10	1261.55
309.32	1277.93
309.53	1220.59
309.74	1335.28
309.96	1279.98
310.17	1224.69
310.39	1290.22
310.60	1191.92
310.81	1308.65
311.03	1273.84
311.24	1314.80
311.45	1290.22
311.67	1304.56
311.88	1310.70
312.09	1224.69
312.31	1337.32
312.52	1249.26
312.73	1316.84
312.95	1263.60
313.16	1255.40
313.37	1255.40
313.59	1267.69
313.80	1298.41
314.01	1220.59
314.23	1236.97
314.44	1249.26
314.65	1290.22
314.87	1314.80
315.08	1269.74
315.29	1306.60
315.51	1277.93
315.72	1200.11
315.93	1290.22
316.15	1269.74
316.36	1216.49
316.57	1312.75
316.79	1277.93
317.00	1255.40
317.21	1273.84
317.43	1337.32
317.64	1243.12
317.85	1234.93
318.07	1214.45
318.28	1288.17
318.49	1230.83
318.70	1257.45
318.92	1284.08
319.13	1224.69
319.34	1298.41
319.56	1222.64
319.77	1191.92
319.98	1204.21
320.20	1224.69
320.41	1183.73
320.62	1337.32
320.83	1183.73
321.05	1232.88
321.26	1271.79
321.47	1224.69
321.69	1236.97
321.90	1255.40
322.11	1212.40
322.32	1335.28
322.54	1247.21
322.75	1255.40
322.96	1292.27
323.18	1284.08
323.39	1296.36
323.60	1298.41
323.81	1380.33
324.03	1253.36
324.24	1318.89
324.45	1140.72
324.66	1296.36
324.88	1198.06
325.09	1294.32
325.30	1239.02
325.52	1222.64
325.73	1257.45
325.94	1269.74
326.15	1210.35
326.37	1236.97
326.58	1247.21
326.79	1265.64
327.00	1255.40
327.22	1265.64
327.43	1265.64
327.64	1284.08
327.85	1302.51
328.07	1230.83
328.28	1247.21
328.49	1304.56
328.70	1234.93
328.92	1277.93
329.13	1257.45
329.34	1271.79
329.55	1282.03
329.76	1351.66
329.98	1275.88
330.19	1277.93
330.40	1257.45
330.61	1269.74
330.83	1265.64
331.04	1196.01
331.25	1292.27
331.46	1210.35
331.68	1206.25
331.89	1261.55
332.10	1239.02
332.31	1275.88
332.52	1243.12
332.74	1214.45
332.95	1329.13
333.16	1343.47
333.37	1275.88
333.58	1331.18
333.80	1302.51
334.01	1355.76
334.22	1245.16
334.43	1255.40
334.64	1236.97
334.86	1355.76
335.07	1245.16
335.28	1322.99
335.49	1277.93
335.70	1277.93
335.92	1245.16
336.13	1212.40
336.34	1372.14
336.55	1228.78
336.76	1267.69
336.98	1257.45
337.19	1277.93
337.40	1257.45
337.61	1327.08
337.82	1343.47
338.04	1331.18
338.25	1226.73
338.46	1279.98
338.67	1243.12
338.88	1247.21
339.09	1286.12
339.31	1263.60
339.52	1292.27
339.73	1318.89
339.94	1300.46
340.15	1304.56
340.36	1243.12
340.58	1226.73
340.79	1261.55
341.00	1347.56
341.21	1290.22
341.42	1314.80
341.63	1282.03
341.85	1191.92
342.06	1265.64
342.27	1245.16
342.48	1282.03
342.69	1284.08
342.90	1316.84
343.12	1284.08
343.33	1296.36
343.54	1282.03
343.75	1187.82
343.96	1226.73
344.17	1294.32
344.38	1181.68
344.60	1322.99
344.81	1353.71
345.02	1267.69
345.23	1282.03
345.44	1271.79
345.65	1259.50
345.86	1294.32
346.07	1236.97
346.29	1327.08
346.50	1294.32
346.71	1316.84
346.92	1267.69
347.13	1241.07
347.34	1279.98
347.55	1239.02
347.76	1239.02
347.98	1259.50
348.19	1294.32
348.40	1193.97
348.61	1247.21
348.82	1220.59
349.03	1220.59
349.24	1255.40
349.45	1196.01
349.66	1255.40
349.88	1212.40
350.09	1282.03
350.30	1185.77
350.51	1228.78
350.72	1267.69
350.93	1275.88
351.14	1271.79
351.35	1343.47
351.56	1275.88
351.77	1267.69
351.99	1284.08
352.20	1286.12
352.41	1269.74
352.62	1239.02
352.83	1247.21
353.04	1265.64
353.25	1275.88
353.46	1320.94
353.67	1306.60
353.88	1331.18
354.09	1214.45
354.30	1327.08
354.52	1312.75
354.73	1292.27
354.94	1247.21
355.15	1251.31
355.36	1257.45
355.57	1265.64
355.78	1226.73
355.99	1253.36
356.20	1220.59
356.41	1269.74
356.62	1320.94
356.83	1226.73
357.04	1251.31
357.25	1267.69
357.46	1288.17
357.68	1271.79
357.89	1228.78
358.10	1257.45
358.31	1294.32
358.52	1279.98
358.73	1267.69
358.94	1253.36
359.15	1239.02
359.36	1228.78
359.57	1249.26
359.78	1298.41
359.99	1279.98
360.20	1284.08
360.41	1292.27
360.62	1306.60
360.83	1255.40
361.04	1239.02
361.25	1298.41
361.46	1279.98
361.67	1304.56
361.88	1279.98
362.09	1218.54
362.30	1398.76
362.51	1269.74
362.72	1243.12
362.93	1261.55
363.14	1284.08
363.35	1327.08
363.56	1282.03
363.78	1284.08
363.99	1245.16
364.20	1298.41
364.41	1277.93
364.62	1261.55
364.83	1318.89
365.04	1269.74
365.25	1228.78
365.46	1228.78
365.67	1257.45
365.88	1269.74
366.09	1329.13
366.30	1314.80
366.51	1249.26
366.72	1261.55
366.93	1298.41
367.14	1294.32
367.35	1245.16
367.56	1320.94
367.77	1257.45
367.98	1322.99
368.18	1320.94
368.39	1265.64
368.60	1267.69
368.81	1318.89
369.02	1277.93
369.23	1263.60
369.44	1234.93
369.65	1232.88
369.86	1298.41
370.07	1263.60
370.28	1273.84
370.49	1271.79
370.70	1296.36
370.91	1191.92
371.12	1230.83
371.33	1331.18
371.54	1239.02
371.75	1288.17
371.96	1363.95
372.17	1337.32
372.38	1214.45
372.59	1275.88
372.80	1245.16
373.01	1298.41
373.22	1200.11
373.43	1183.73
373.64	1234.93
373.85	1243.12
374.06	1275.88
374.26	1282.03
374.47	1273.84
374.68	1337.32
374.89	1282.03
375.10	1284.08
375.31	1263.60
375.52	1284.08
375.73	1318.89
375.94	1236.97
376.15	1286.12
376.36	1255.40
376.57	1271.79
376.78	1230.83
376.99	1200.11
377.20	1316.84
377.40	1273.84
377.61	1292.27
377.82	1359.85
378.03	1228.78
378.24	1292.27
378.45	1331.18
378.66	1329.13
378.87	1257.45
379.08	1304.56
379.29	1187.82
379.50	1300.46
379.71	1220.59
379.91	1359.85
380.12	1236.97
380.33	1277.93
380.54	1284.08
380.75	1241.07
380.96	1245.16
381.17	1220.59
381.38	1310.70
381.59	1300.46
381.80	1251.31
382.00	1286.12
382.21	1308.65
382.42	1335.28
382.63	1361.90
382.84	1312.75
383.05	1241.07
383.26	1245.16
383.47	1308.65
383.68	1282.03
383.88	1255.40
384.09	1251.31
384.30	1261.55
384.51	1220.59
384.72	1234.93
384.93	1322.99
385.14	1228.78
385.35	1292.27
385.55	1290.22
385.76	1255.40
385.97	1286.12
386.18	1282.03
386.39	1296.36
386.60	1286.12
386.81	1288.17
387.02	1218.54
387.22	1290.22
387.43	1263.60
387.64	1271.79
387.85	1265.64
388.06	1204.21
388.27	1312.75
388.48	1243.12
388.68	1279.98
388.89	1228.78
389.10	1320.94
389.31	1167.34
389.52	1304.56
389.73	1247.21
389.93	1329.13
390.14	1236.97
390.35	1310.70
390.56	1290.22
390.77	1220.59
390.98	1259.50
391.18	1212.40
391.39	1277.93
391.60	1249.26
391.81	1214.45
392.02	1267.69
392.23	1228.78
392.43	1185.77
392.64	1236.97
392.85	1308.65
393.06	1292.27
393.27	1251.31
393.47	1204.21
393.68	1216.49
393.89	1288.17
394.10	1357.80
394.31	1239.02
394.52	1286.12
394.72	1234.93
394.93	1206.25
395.14	1284.08
395.35	1265.64
395.56	1345.52
395.76	1239.02
395.97	1277.93
396.18	1296.36
396.39	1255.40
396.60	1261.55
396.80	1273.84
397.01	1282.03
397.22	1292.27
397.43	1157.10
397.64	1245.16
397.84	1322.99
398.05	1249.26
398.26	1318.89
398.47	1279.98
398.67	1271.79
398.88	1263.60
399.09	1339.37
399.30	1279.98
399.51	1249.26
399.71	1259.50
399.92	1288.17
400.13	1273.84
400.34	1300.46
400.54	1245.16
400.75	1310.70
400.96	1312.75
401.17	1279.98
401.37	1261.55
401.58	1263.60
401.79	1208.30
402.00	1298.41
402.21	1316.84
402.41	1247.21
402.62	1333.23
402.83	1249.26
403.04	1230.83
403.24	1255.40
403.45	1286.12
403.66	1210.35
403.87	1288.17
404.07	1239.02
404.28	1320.94
404.49	1265.64
404.70	1273.84
404.90	1208.30
405.11	1269.74
405.32	1325.04
405.52	1298.41
405.73	1286.12
405.94	1253.36
406.15	1320.94
406.35	1327.08
406.56	1310.70
406.77	1191.92
406.98	1282.03
407.18	1308.65
407.39	1282.03
407.60	1298.41
407.80	1241.07
408.01	1286.12
408.22	1269.74
408.43	1318.89
408.63	1212.40
408.84	1259.50
409.05	1208.30
409.25	1204.21
409.46	1257.45
409.67	1224.69
409.88	1259.50
410.08	1290.22
410.29	1296.36
410.50	1329.13
410.70	1232.88
410.91	1308.65
411.12	1282.03
411.32	1216.49
411.53	1247.21
411.74	1271.79
411.95	1366.00
412.15	1277.93
412.36	1298.41
412.57	1288.17
412.77	1247.21
412.98	1339.37
413.19	1243.12
413.39	1239.02
413.60	1279.98
413.81	1267.69
414.01	1261.55
414.22	1259.50
414.43	1302.51
414.63	1234.93
414.84	1249.26
415.05	1253.36
415.25	1255.40
415.46	1228.78
415.67	1161.20
415.87	1224.69
416.08	1239.02
416.29	1179.63
416.49	1302.51
416.70	1253.36
416.91	1247.21
417.11	1300.46
417.32	1208.30
417.53	1239.02
417.73	1230.83
417.94	1257.45
418.15	1337.32
418.35	1236.97
418.56	1286.12
418.77	1259.50
418.97	1308.65
419.18	1255.40
419.38	1208.30
419.59	1230.83
419.80	1245.16
420.00	1298.41
420.21	1279.98
420.42	1257.45
420.62	1257.45
420.83	1234.93
421.04	1198.06
421.24	1269.74
421.45	1232.88
421.65	1343.47
421.86	1290.22
422.07	1265.64
422.27	1239.02
422.48	1275.88
422.69	1277.93
422.89	1312.75
423.10	1282.03
423.30	1261.55
423.51	1232.88
423.72	1230.83
423.92	1322.99
424.13	1257.45
424.33	1292.27
424.54	1296.36
424.75	1345.52
424.95	1288.17
425.16	1273.84
425.36	1196.01
425.57	1312.75
425.78	1247.21
425.98	1296.36
426.19	1325.04
426.39	1273.84
426.60	1249.26
426.81	1271.79
427.01	1310.70
427.22	1241.07
427.42	1196.01
427.63	1304.56
427.83	1261.55
428.04	1306.60
428.25	1271.79
428.45	1241.07
428.66	1249.26
428.86	1222.64
429.07	1245.16
429.28	1251.31
429.48	1196.01
429.69	1306.60
429.89	1269.74
430.10	1257.45
430.30	1359.85
430.51	1312.75
430.71	1232.88
430.92	1339.37
431.13	1279.98
431.33	1325.04
431.54	1249.26
431.74	1298.41
431.95	1261.55
432.15	1249.26
432.36	1392.62
432.56	1263.60
432.77	1259.50
432.98	1318.89
433.18	1249.26
433.39	1298.41
433.59	1304.56
433.80	1279.98
434.00	1282.03
434.21	1257.45
434.41	1257.45
434.62	1208.30
434.82	1247.21
435.03	1259.50
435.23	1216.49
435.44	1255.40
435.64	1232.88
435.85	1247.21
436.06	1230.83
436.26	1318.89
436.47	1263.60
436.67	1339.37
436.88	1290.22
437.08	1296.36
437.29	1228.78
437.49	1230.83
437.70	1279.98
437.90	1265.64
438.11	1286.12
438.31	1263.60
438.52	1243.12
438.72	1304.56
438.93	1273.84
439.13	1230.83
439.34	1329.13
439.54	1318.89
439.75	1308.65
439.95	1271.79
440.16	1304.56
440.36	1271.79
440.57	1282.03
440.77	1347.56
440.98	1222.64
441.18	1292.27
441.39	1290.22
441.59	1228.78
441.80	1220.59
442.00	1273.84
442.21	1236.97
442.41	1312.75
442.62	1267.69
442.82	1296.36
443.02	1214.45
443.23	1304.56
443.43	1245.16
443.64	1322.99
443.84	1253.36
444.05	1296.36
444.25	1325.04
444.46	1288.17
444.66	1208.30
444.87	1230.83
445.07	1189.87
445.28	1363.95
445.48	1251.31
445.69	1288.17
445.89	1331.18
446.09	1224.69
446.30	1366.00
446.50	1259.50
446.71	1279.98
446.91	1261.55
447.12	1288.17
447.32	1271.79
447.53	1255.40
447.73	1239.02
447.93	1183.73
448.14	1251.31
448.34	1185.77
448.55	1325.04
448.75	1243.12
448.96	1204.21
449.16	1339.37
449.36	1318.89
449.57	1296.36
449.77	1245.16
449.98	1322.99
450.18	1308.65
450.39	1335.28
450.59	1239.02
450.79	1302.51
451.00	1234.93
451.20	1236.97
451.41	1306.60
451.61	1312.75
451.81	1275.88
452.02	1282.03
452.22	1265.64
452.43	1374.19
452.63	1343.47
452.84	1245.16
453.04	1239.02
453.24	1333.23
453.45	1265.64
453.65	1224.69
453.86	1304.56
454.06	1273.84
454.26	1265.64
454.47	1267.69
454.67	1284.08
454.87	1265.64
455.08	1325.04
455.28	1292.27
455.49	1226.73
455.69	1222.64
455.89	1288.17
456.10	1290.22
456.30	1279.98
456.51	1249.26
456.71	1247.21
456.91	1304.56
457.12	1296.36
457.32	1325.04
457.52	1253.36
457.73	1302.51
457.93	1302.51
458.14	1282.03
458.34	1304.56
458.54	1353.71
458.75	1292.27
458.95	1363.95
459.15	1296.36
459.36	1249.26
459.56	1236.97
459.76	1212.40
459.97	1273.84
460.17	1288.17
460.37	1265.64
460.58	1286.12
460.78	1236.97
460.99	1271.79
461.19	1288.17
461.39	1249.26
461.60	1372.14
461.80	1271.79
462.00	1271.79
462.21	1206.25
462.41	1249.26
462.61	1300.46
462.82	1269.74
463.02	1310.70
463.22	1351.66
463.43	1339.37
463.63	1298.41
463.83	1265.64
464.04	1239.02
464.24	1327.08
464.44	1329.13
464.64	1294.32
464.85	1249.26
465.05	1308.65
465.25	1288.17
465.46	1279.98
465.66	1253.36
465.86	1279.98
466.07	1245.16
466.27	1275.88
466.47	1241.07
466.68	1279.98
466.88	1267.69
467.08	1236.97
467.29	1345.52
467.49	1273.84
467.69	1257.45
467.89	1310.70
468.10	1216.49
468.30	1243.12
468.50	1329.13
468.71	1339.37
468.91	1247.21
469.11	1312.75
469.31	1232.88
469.52	1255.40
469.72	1310.70
469.92	1265.64
470.13	1304.56
470.33	1239.02
470.53	1353.71
470.73	1343.47
470.94	1286.12
471.14	1312.75
471.34	1249.26
471.54	1255.40
471.75	1243.12
471.95	1212.40
472.15	1296.36
472.36	1273.84
472.56	1255.40
472.76	1286.12
472.96	1259.50
473.17	1234.93
473.37	1212.40
473.57	1226.73
473.77	1314.80
473.98	1257.45
474.18	1329.13
474.38	1312.75
474.58	1314.80
474.79	1269.74
474.99	1296.36
475.19	1286.12
475.39	1255.40
475.60	1265.64
475.80	1302.51
476.00	1316.84
476.20	1263.60
476.41	1265.64
476.61	1329.13
476.81	1251.31
477.01	1243.12
477.21	1304.56
477.42	1236.97
477.62	1239.02
477.82	1292.27
478.02	1216.49
478.23	1329.13
478.43	1196.01
478.63	1282.03
478.83	1208.30
479.03	1329.13
479.24	1275.88
479.44	1314.80
479.64	1208.30
479.84	1239.02
480.04	1269.74
480.25	1251.31
480.45	1249.26
480.65	1175.53
480.85	1220.59
481.06	1251.31
481.26	1261.55
481.46	1257.45
481.66	1273.84
481.86	1245.16
482.06	1288.17
482.27	1183.73
482.47	1241.07
482.67	1261.55
482.87	1247.21
483.07	1230.83
483.28	1191.92
483.48	1298.41
483.68	1329.13
483.88	1282.03
484.08	1294.32
484.29	1253.36
484.49	1239.02
484.69	1241.07
484.89	1249.26
485.09	1333.23
485.29	1290.22
485.50	1241.07
485.70	1234.93
485.90	1247.21
486.10	1298.41
486.30	1265.64
486.50	1279.98
486.71	1241.07
486.91	1249.26
487.11	1339.37
487.31	1259.50
487.51	1292.27
487.71	1251.31
487.91	1308.65
488.12	1230.83
488.32	1212.40
488.52	1239.02
488.72	1241.07
488.92	1255.40
489.12	1282.03
489.32	1282.03
489.53	1251.31
489.73	1312.75
489.93	1292.27
490.13	1298.41
490.33	1282.03
490.53	1331.18
490.73	1329.13
490.94	1255.40
491.14	1267.69
491.34	1318.89
491.54	1296.36
491.74	1257.45
491.94	1292.27
492.14	1318.89
492.34	1241.07
492.54	1314.80
492.75	1249.26
492.95	1257.45
493.15	1341.42
493.35	1271.79
493.55	1284.08
493.75	1216.49
493.95	1271.79
494.15	1292.27
494.35	1302.51
494.56	1294.32
494.76	1234.93
494.96	1245.16
495.16	1329.13
495.36	1320.94
495.56	1271.79
495.76	1306.60
495.96	1308.65
496.16	1267.69
496.36	1232.88
496.56	1294.32
496.77	1263.60
496.97	1228.78
497.17	1232.88
497.37	1234.93
497.57	1290.22
497.77	1218.54
497.97	1198.06
498.17	1298.41
498.37	1306.60
498.57	1193.97
498.77	1345.52
498.97	1239.02
499.17	1290.22
499.38	1255.40
499.58	1247.21
499.78	1249.26
499.98	1243.12
500.18	1243.12
500.38	1282.03
500.58	1296.36
500.78	1292.27
500.98	1241.07
501.18	1292.27
501.38	1232.88
501.58	1312.75
501.78	1290.22
501.98	1255.40
502.18	1284.08
502.38	1308.65
502.58	1271.79
502.78	1329.13
502.98	1308.65
503.18	1308.65
503.38	1292.27
503.59	1290.22
503.79	1214.45
503.99	1239.02
504.19	1294.32
504.39	1275.88
504.59	1245.16
504.79	1329.13
504.99	1333.23
505.19	1304.56
505.39	1271.79
505.59	1277.93
505.79	1282.03
505.99	1200.11
506.19	1202.16
506.39	1370.09
506.59	1355.76
506.79	1314.80
506.99	1261.55
507.19	1308.65
507.39	1257.45
507.59	1257.45
507.79	1210.35
507.99	1288.17
508.19	1226.73
508.39	1277.93
508.59	1228.78
508.79	1349.61
508.99	1236.97
509.19	1255.40
509.39	1363.95
509.59	1247.21
509.79	1361.90
509.99	1312.75
510.19	1296.36
510.39	1239.02
510.59	1210.35
510.79	1277.93
510.99	1282.03
511.19	1288.17
511.39	1337.32
511.59	1243.12
511.79	1282.03
511.99	1208.30
512.19	1308.65
512.38	1290.22
512.58	1265.64
512.78	1284.08
512.98	1228.78
513.18	1230.83
513.38	1282.03
513.58	1282.03
513.78	1282.03
513.98	1249.26
514.18	1218.54
514.38	1259.50
514.58	1304.56
514.78	1282.03
514.98	1251.31
515.18	1247.21
515.38	1232.88
515.58	1251.31
515.78	1314.80
515.98	1322.99
516.18	1273.84
516.38	1296.36
516.57	1243.12
516.77	1282.03
516.97	1247.21
517.17	1232.88
517.37	1239.02
517.57	1296.36
517.77	1282.03
517.97	1263.60
518.17	1228.78
518.37	1298.41
518.57	1318.89
518.77	1261.55
518.97	1230.83
519.16	1181.68
519.36	1273.84
519.56	1234.93
519.76	1296.36
519.96	1247.21
520.16	1263.60
520.36	1329.13
520.56	1306.60
520.76	1275.88
520.96	1302.51
521.16	1265.64
521.35	1241.07
521.55	1243.12
521.75	1234.93
521.95	1284.08
522.15	1222.64
522.35	1259.50
522.55	1290.22
522.75	1355.76
522.95	1302.51
523.14	1275.88
523.34	1290.22
523.54	1320.94
523.74	1286.12
523.94	1245.16
524.14	1265.64
524.34	1331.18
524.54	1222.64
524.73	1284.08
524.93	1269.74
525.13	1247.21
525.33	1370.09
525.53	1263.60
525.73	1322.99
525.93	1310.70
526.13	1247.21
526.32	1363.95
526.52	1257.45
526.72	1214.45
526.92	1239.02
527.12	1247.21
527.32	1255.40
527.52	1189.87
527.71	1296.36
527.91	1304.56
528.11	1212.40
528.31	1277.93
528.51	1316.84
528.71	1320.94
528.90	1255.40
529.10	1306.60
529.30	1236.97
529.50	1273.84
529.70	1259.50
529.90	1286.12
530.09	1298.41
530.29	1292.27
530.49	1236.97
530.69	1288.17
530.89	1279.98
531.09	1249.26
531.28	1234.93
531.48	1241.07
531.68	1306.60
531.88	1253.36
532.08	1279.98
532.28	1331.18
532.47	1316.84
532.67	1290.22
532.87	1265.64
533.07	1284.08
533.27	1277.93
533.46	1275.88
533.66	1247.21
533.86	1216.49
534.06	1247.21
534.26	1353.71
534.45	1288.17
534.65	1314.80
534.85	1290.22
535.05	1257.45
535.25	1216.49
535.44	1259.50
535.64	1243.12
535.84	1273.84
536.04	1304.56
536.24	1234.93
536.43	1327.08
536.63	1333.23
536.83	1232.88
537.03	1263.60
537.22	1273.84
537.42	1202.16
537.62	1224.69
537.82	1265.64
538.02	1320.94
538.21	1259.50
538.41	1259.50
538.61	1257.45
538.81	1200.11
539.00	1249.26
539.20	1353.71
539.40	1241.07
539.60	1286.12
539.79	1368.04
539.99	1288.17
540.19	1224.69
540.39	1206.25
540.58	1271.79
540.78	1327.08
540.98	1275.88
541.18	1351.66
541.37	1261.55
541.57	1273.84
541.77	1318.89
541.97	1193.97
542.16	1292.27
542.36	1284.08
542.56	1316.84
542.76	1275.88
542.95	1234.93
543.15	1316.84
543.35	1232.88
543.54	1347.56
543.74	1253.36
543.94	1366.00
544.14	1214.45
544.33	1320.94
544.53	1247.21
544.73	1257.45
544.93	1290.22
545.12	1337.32
545.32	1290.22
545.52	1316.84
545.71	1286.12
545.91	1294.32
546.11	1302.51
546.30	1255.40
546.50	1296.36
546.70	1290.22
546.90	1329.13
547.09	1243.12
547.29	1261.55
547.49	1282.03
547.68	1288.17
547.88	1345.52
548.08	1318.89
548.27	1331.18
548.47	1269.74
548.67	1296.36
548.87	1245.16
549.06	1232.88
549.26	1316.84
549.46	1296.36
549.65	1214.45
549.85	1339.37
550.05	1261.55
550.24	1263.60
550.44	1236.97
550.64	1247.21
550.83	1239.02
551.03	1325.04
551.23	1267.69
551.42	1226.73
551.62	1343.47
551.82	1277.93
552.01	1279.98
552.21	1249.26
552.41	1263.60
552.60	1314.80
552.80	1363.95
553.00	1316.84
553.19	1314.80
553.39	1300.46
553.59	1316.84
553.78	1316.84
553.98	1353.71
554.17	1333.23
554.37	1210.35
554.57	1304.56
554.76	1380.33
554.96	1273.84
555.16	1257.45
555.35	1292.27
555.55	1290.22
555.75	1308.65
555.94	1318.89
556.14	1275.88
556.33	1222.64
556.53	1316.84
556.73	1230.83
556.92	1339.37
557.12	1318.89
557.32	1275.88
557.51	1265.64
557.71	1263.60
557.90	1306.60
558.10	1251.31
558.30	1282.03
558.49	1212.40
558.69	1316.84
558.88	1284.08
559.08	1222.64
559.28	1269.74
559.47	1251.31
559.67	1302.51
559.86	1345.52
560.06	1228.78
560.26	1292.27
560.45	1359.85
560.65	1310.70
560.84	1222.64
561.04	1296.36
561.24	1271.79
561.43	1220.59
561.63	1302.51
561.82	1228.78
562.02	1304.56
562.22	1273.84
562.41	1302.51
562.61	1306.60
562.80	1232.88
563.00	1261.55
563.19	1267.69
563.39	1247.21
563.59	1243.12
563.78	1243.12
563.98	1277.93
564.17	1202.16
564.37	1239.02
564.56	1300.46
564.76	1275.88
564.96	1257.45
565.15	1290.22
565.35	1275.88
565.54	1273.84
565.74	1296.36
565.93	1275.88
566.13	1273.84
566.32	1241.07
566.52	1241.07
566.71	1228.78
566.91	1312.75
567.11	1259.50
567.30	1218.54
567.50	1294.32
567.69	1265.64
567.89	1232.88
568.08	1345.52
568.28	1224.69
568.47	1261.55
568.67	1318.89
568.86	1241.07
569.06	1282.03
569.25	1314.80
569.45	1261.55
569.64	1255.40
569.84	1187.82
570.04	1335.28
570.23	1306.60
570.43	1267.69
570.62	1277.93
570.82	1275.88
571.01	1306.60
571.21	1314.80
571.40	1275.88
571.60	1257.45
571.79	1277.93
571.99	1337.32
572.18	1273.84
572.38	1296.36
572.57	1265.64
572.77	1249.26
572.96	1257.45
573.16	1357.80
573.35	1310.70
573.55	1314.80
573.74	1253.36
573.94	1288.17
574.13	1234.93
574.33	1302.51
574.52	1269.74
574.71	1265.64
574.91	1279.98
575.10	1271.79
575.30	1230.83
575.49	1267.69
575.69	1279.98
575.88	1267.69
576.08	1275.88
576.27	1269.74
576.47	1282.03
576.66	1183.73
576.86	1228.78
577.05	1226.73
577.25	1245.16
577.44	1290.22
577.64	1269.74
577.83	1271.79
578.02	1271.79
578.22	1327.08
578.41	1284.08
578.61	1320.94
578.80	1286.12
579.00	1308.65
579.19	1245.16
579.39	1214.45
579.58	1374.19
579.77	1259.50
579.97	1308.65
580.16	1329.13
580.36	1253.36
580.55	1318.89
580.75	1200.11
580.94	1275.88
581.13	1306.60
581.33	1363.95
581.52	1329.13
581.72	1353.71
581.91	1327.08
582.11	1263.60
582.30	1308.65
582.49	1265.64
582.69	1292.27
582.88	1351.66
583.08	1279.98
583.27	1337.32
583.47	1284.08
583.66	1314.80
583.85	1302.51
584.05	1320.94
584.24	1265.64
584.44	1267.69
584.63	1361.90
584.82	1243.12
585.02	1298.41
585.21	1265.64
585.41	1208.30
585.60	1224.69
585.79	1290.22
585.99	1261.55
586.18	1286.12
586.37	1243.12
586.57	1322.99
586.76	1368.04
586.96	1290.22
587.15	1306.60
587.34	1298.41
587.54	1265.64
587.73	1302.51
587.93	1296.36
588.12	1193.97
588.31	1259.50
588.51	1314.80
588.70	1320.94
588.89	1335.28
589.09	1341.42
589.28	1187.82
589.47	1300.46
589.67	1239.02
589.86	1357.80
590.06	1210.35
590.25	1255.40
590.44	1279.98
590.64	1322.99
590.83	1363.95
591.02	1288.17
591.22	1277.93
591.41	1318.89
591.60	1251.31
591.80	1249.26
591.99	1216.49
592.18	1271.79
592.38	1322.99
592.57	1310.70
592.76	1290.22
592.96	1310.70
593.15	1198.06
593.34	1353.71
593.54	1232.88
593.73	1267.69
593.92	1224.69
594.12	1255.40
594.31	1277.93
594.50	1210.35
594.70	1271.79
594.89	1361.90
595.08	1257.45
595.28	1259.50
595.47	1234.93
595.66	1257.45
595.86	1222.64
596.05	1273.84
596.24	1224.69
596.43	1249.26
596.63	1398.76
596.82	1208.30
597.01	1263.60
597.21	1234.93
597.40	1298.41
597.59	1253.36
597.79	1253.36
597.98	1306.60
598.17	1271.79
598.36	1259.50
598.56	1259.50
598.75	1230.83
598.94	1288.17
599.14	1218.54
599.33	1275.88
599.52	1210.35
599.71	1226.73
599.91	1249.26
600.10	1269.74
600.29	1300.46
600.48	1302.51
600.68	1232.88
600.87	1286.12
601.06	1267.69
601.26	1261.55
601.45	1253.36
601.64	1255.40
601.83	1318.89
602.03	1236.97
602.22	1318.89
602.41	1261.55
602.60	1286.12
602.80	1312.75
602.99	1249.26
603.18	1298.41
603.37	1343.47
603.57	1269.74
603.76	1269.74
603.95	1261.55
604.14	1353.71
604.34	1284.08
604.53	1290.22
604.72	1187.82
604.91	1361.90
605.10	1245.16
605.30	1290.22
605.49	1335.28
605.68	1290.22
605.87	1320.94
606.07	1284.08
606.26	1284.08
606.45	1251.31
606.64	1339.37
606.84	1261.55
607.03	1300.46
607.22	1337.32
607.41	1239.02
607.60	1273.84
607.80	1288.17
607.99	1314.80
608.18	1275.88
608.37	1224.69
608.56	1302.51
608.76	1308.65
608.95	1304.56
609.14	1284.08
609.33	1279.98
609.52	1312.75
609.72	1341.42
609.91	1251.31
610.10	1228.78
610.29	1312.75
610.48	1286.12
610.68	1226.73
610.87	1298.41
611.06	1296.36
611.25	1249.26
611.44	1261.55
611.63	1288.17
611.83	1253.36
612.02	1294.32
612.21	1345.52
612.40	1224.69
612.59	1314.80
612.79	1327.08
612.98	1286.12
613.17	1267.69
613.36	1304.56
613.55	1189.87
613.74	1222.64
613.93	1271.79
614.13	1214.45
614.32	1226.73
614.51	1253.36
614.70	1290.22
614.89	1290.22
615.08	1273.84
615.28	1343.47
615.47	1294.32
615.66	1345.52
615.85	1300.46
616.04	1339.37
616.23	1312.75
616.42	1267.69
616.62	1329.13
616.81	1261.55
617.00	1251.31
617.19	1329.13
617.38	1339.37
617.57	1279.98
617.76	1290.22
617.95	1200.11
618.15	1316.84
618.34	1282.03
618.53	1249.26
618.72	1255.40
618.91	1269.74
619.10	1245.16
619.29	1247.21
619.48	1220.59
619.68	1275.88
619.87	1363.95
620.06	1294.32
620.25	1257.45
620.44	1286.12
620.63	1294.32
620.82	1347.56
621.01	1298.41
621.20	1290.22
621.39	1257.45
621.59	1265.64
621.78	1294.32
621.97	1320.94
622.16	1267.69
622.35	1329.13
622.54	1279.98
622.73	1200.11
622.92	1378.28
623.11	1234.93
623.30	1294.32
623.49	1226.73
623.68	1290.22
623.88	1257.45
624.07	1216.49
624.26	1282.03
624.45	1288.17
624.64	1212.40
624.83	1339.37
625.02	1361.90
625.21	1286.12
625.40	1290.22
625.59	1314.80
625.78	1275.88
625.97	1290.22
626.16	1255.40
626.35	1363.95
626.54	1269.74
626.74	1263.60
626.93	1222.64
627.12	1335.28
627.31	1300.46
627.50	1232.88
627.69	1253.36
627.88	1232.88
628.07	1288.17
628.26	1296.36
628.45	1259.50
628.64	1294.32
628.83	1304.56
629.02	1331.18
629.21	1318.89
629.40	1263.60
629.59	1251.31
629.78	1320.94
629.97	1296.36
630.16	1333.23
630.35	1337.32
630.54	1304.56
630.73	1243.12
630.92	1331.18
631.11	1318.89
631.30	1443.82
631.49	1277.93
631.68	1460.20
631.87	1662.95
632.06	2088.93
632.25	1806.31
632.44	1875.94
632.63	2095.07
632.82	2324.44
633.01	3737.54
633.20	3397.58
633.39	3174.35
633.58	2500.57
633.77	2609.11
633.96	3606.47
634.15	4333.50
634.34	4050.88
634.53	3297.23
634.72	2666.46
634.91	2338.78
635.10	2131.94
635.29	1888.23
635.48	1773.54
635.67	1802.21
635.86	1722.34
636.05	1634.28
636.24	1490.92
636.43	1460.20
636.62	1421.29
636.81	1343.47
637.00	1388.52
637.19	1368.04
637.38	1353.71
637.57	1320.94
637.76	1366.00
637.95	1335.28
638.14	1345.52
638.33	1347.56
638.52	1298.41
638.71	1380.33
638.89	1290.22
639.08	1308.65
639.27	1310.70
639.46	1294.32
639.65	1294.32
639.84	1218.54
640.03	1341.42
640.22	1277.93
640.41	1196.01
640.60	1308.65
640.79	1271.79
640.98	1290.22
641.17	1255.40
641.36	1312.75
641.55	1316.84
641.74	1259.50
641.92	1286.12
642.11	1290.22
642.30	1349.61
642.49	1232.88
642.68	1341.42
642.87	1249.26
643.06	1353.71
643.25	1261.55
643.44	1204.21
643.63	1325.04
643.82	1290.22
644.00	1245.16
644.19	1302.51
644.38	1259.50
644.57	1208.30
644.76	1294.32
644.95	1292.27
645.14	1232.88
645.33	1222.64
645.52	1279.98
645.71	1316.84
645.89	1282.03
646.08	1361.90
646.27	1259.50
646.46	1239.02
646.65	1263.60
646.84	1259.50
647.03	1353.71
647.22	1259.50
647.40	1261.55
647.59	1247.21
647.78	1269.74
647.97	1196.01
648.16	1261.55
648.35	1232.88
648.54	1220.59
648.73	1228.78
648.91	1189.87
649.10	1224.69
649.29	1241.07
649.48	1214.45
649.67	1310.70
649.86	1251.31
650.05	1312.75
650.23	1314.80
650.42	1265.64
650.61	1312.75
650.80	1292.27
650.99	1302.51
651.18	1279.98
651.36	1310.70
651.55	1239.02
651.74	1351.66
651.93	1255.40
652.12	1204.21
652.31	1263.60
652.49	1228.78
652.68	1261.55
652.87	1288.17
653.06	1267.69
653.25	1247.21
653.44	1300.46
653.62	1269.74
653.81	1255.40
654.00	1243.12
654.19	1288.17
654.38	1226.73
654.56	1249.26
654.75	1312.75
654.94	1363.95
655.13	1343.47
655.32	1173.49
655.51	1306.60
655.69	1277.93
655.88	1288.17
656.07	1265.64
656.26	1257.45
656.45	1202.16
656.63	1322.99
656.82	1290.22
657.01	1310.70
657.20	1228.78
657.38	1247.21
657.57	1228.78
657.76	1228.78
657.95	1251.31
658.14	1261.55
658.32	1286.12
658.51	1337.32
658.70	1322.99
658.89	1234.93
659.08	1251.31
659.26	1259.50
659.45	1259.50
659.64	1232.88
659.83	1247.21
660.01	1302.51
660.20	1234.93
660.39	1271.79
660.58	1259.50
660.76	1271.79
660.95	1212.40
661.14	1290.22
661.33	1318.89
661.51	1300.46
661.70	1282.03
661.89	1255.40
662.08	1259.50
662.26	1288.17
662.45	1308.65
662.64	1290.22
662.83	1322.99
663.01	1314.80
663.20	1204.21
663.39	1355.76
663.58	1292.27
663.76	1290.22
663.95	1224.69
664.14	1286.12
664.32	1298.41
664.51	1298.41
664.70	1245.16
664.89	1259.50
665.07	1243.12
665.26	1271.79
665.45	1298.41
665.64	1232.88
665.82	1279.98
666.01	1296.36
666.20	1325.04
666.38	1265.64
666.57	1265.64
666.76	1318.89
666.95	1265.64
667.13	1322.99
667.32	1247.21
667.51	1343.47
667.69	1312.75
667.88	1241.07
668.07	1261.55
668.25	1335.28
668.44	1320.94
668.63	1300.46
668.81	1247.21
669.00	1275.88
669.19	1288.17
669.38	1255.40
669.56	1286.12
669.75	1239.02
669.94	1245.16
670.12	1202.16
670.31	1302.51
670.50	1327.08
670.68	1361.90
670.87	1263.60
671.06	1234.93
671.24	1357.80
671.43	1239.02
671.62	1320.94
671.80	1298.41
671.99	1269.74
672.18	1263.60
672.36	1355.76
672.55	1282.03
672.74	1265.64
672.92	1271.79
673.11	1302.51
673.29	1222.64
673.48	1296.36
673.67	1318.89
673.85	1298.41
674.04	1251.31
674.23	1304.56
674.41	1257.45
674.60	1255.40
674.79	1253.36
674.97	1253.36
675.16	1245.16
675.34	1282.03
675.53	1277.93
675.72	1222.64
675.90	1234.93
676.09	1347.56
676.28	1318.89
676.46	1306.60
676.65	1329.13
676.83	1239.02
677.02	1329.13
677.21	1378.28
677.39	1257.45
677.58	1249.26
677.77	1265.64
677.95	1236.97
678.14	1312.75
678.32	1214.45
678.51	1243.12
678.70	1220.59
678.88	1146.86
679.07	1204.21
679.25	1341.42
679.44	1308.65
679.63	1230.83
679.81	1277.93
680.00	1193.97
680.18	1239.02
680.37	1286.12
680.55	1314.80
680.74	1222.64
680.93	1277.93
681.11	1300.46
681.30	1265.64
681.48	1327.08
681.67	1206.25
681.85	1290.22
682.04	1314.80
682.23	1310.70
682.41	1310.70
682.60	1322.99
682.78	1322.99
682.97	1259.50
683.15	1322.99
683.34	1294.32
683.53	1255.40
683.71	1241.07
683.90	1333.23
684.08	1259.50
684.27	1265.64
684.45	1200.11
684.64	1251.31
684.82	1210.35
685.01	1290.22
685.19	1222.64
685.38	1296.36
685.57	1247.21
685.75	1277.93
685.94	1226.73
686.12	1259.50
686.31	1290.22
686.49	1218.54
686.68	1310.70
686.86	1298.41
687.05	1343.47
687.23	1314.80
687.42	1236.97
687.60	1208.30
687.79	1261.55
687.97	1296.36
688.16	1298.41
688.34	1316.84
688.53	1216.49
688.71	1282.03
688.90	1322.99
689.08	1247.21
689.27	1306.60
689.45	1271.79
689.64	1275.88
689.82	1255.40
690.01	1163.25
690.19	1337.32
690.38	1245.16
690.56	1261.55
690.75	1290.22
690.93	1236.97
691.12	1257.45
691.30	1255.40
691.49	1261.55
691.67	1292.27
691.86	1296.36
692.04	1251.31
692.23	1234.93
692.41	1265.64
692.60	1253.36
692.78	1232.88
692.97	1247.21
693.15	1241.07
693.34	1247.21
693.52	1222.64
693.71	1312.75
693.89	1312.75
694.08	1288.17
694.26	1269.74
694.44	1210.35
694.63	1232.88
694.81	1212.40
695.00	1230.83
695.18	1187.82
695.37	1239.02
695.55	1298.41
695.74	1228.78
695.92	1290.22
696.10	1228.78
696.29	1257.45
696.47	1224.69
696.66	1265.64
696.84	1228.78
697.03	1243.12
697.21	1310.70
697.40	1253.36
697.58	1322.99
697.76	1284.08
697.95	1261.55
698.13	1284.08
698.32	1298.41
698.50	1304.56
698.68	1265.64
698.87	1265.64
699.05	1312.75
699.24	1173.49
699.42	1292.27
699.61	1286.12
699.79	1327.08
699.97	1208.30
700.16	1269.74
700.34	1267.69
700.53	1241.07
700.71	1282.03
700.89	1220.59
701.08	1214.45
701.26	1275.88
701.45	1271.79
701.63	1372.14
701.81	1286.12
702.00	1271.79
702.18	1302.51
702.37	1288.17
702.55	1210.35
702.73	1318.89
702.92	1253.36
703.10	1282.03
703.28	1261.55
703.47	1339.37
703.65	1257.45
703.84	1282.03
704.02	1208.30
704.20	1286.12
704.39	1271.79
704.57	1273.84
704.75	1243.12
704.94	1333.23
705.12	1312.75
705.30	1228.78
705.49	1282.03
705.67	1284.08
705.86	1267.69
706.04	1191.92
706.22	1263.60
706.41	1257.45
706.59	1261.55
706.77	1277.93
706.96	1208.30
707.14	1267.69
707.32	1232.88
707.51	1322.99
707.69	1220.59
707.87	1286.12
708.06	1277.93
708.24	1363.95
708.42	1273.84
708.61	1253.36
708.79	1302.51
708.97	1200.11
709.16	1243.12
709.34	1216.49
709.52	1216.49
709.71	1265.64
709.89	1322.99
710.07	1249.26
710.26	1290.22
710.44	1214.45
710.62	1339.37
710.80	1302.51
710.99	1222.64
711.17	1329.13
711.35	1275.88
711.54	1226.73
711.72	1306.60
711.90	1353.71
712.09	1277.93
712.27	1222.64
712.45	1265.64
712.63	1259.50
712.82	1234.93
713.00	1232.88
713.18	1196.01
713.37	1312.75
713.55	1234.93
713.73	1296.36
713.91	1310.70
714.10	1234.93
714.28	1208.30
714.46	1257.45
714.65	1236.97
714.83	1282.03
715.01	1236.97
715.19	1288.17
715.38	1265.64
715.56	1290.22
715.74	1228.78
715.92	1261.55
716.11	1302.51
716.29	1200.11
716.47	1290.22
716.65	1247.21
716.84	1263.60
717.02	1198.06
717.20	1351.66
717.38	1273.84
717.57	1318.89
717.75	1224.69
717.93	1218.54
718.11	1290.22
718.30	1261.55
718.48	1282.03
718.66	1249.26
718.84	1314.80
719.03	1306.60
719.21	1331.18
719.39	1265.64
719.57	1265.64
719.75	1257.45
719.94	1288.17
720.12	1257.45
720.30	1234.93
720.48	1253.36
720.67	1314.80
720.85	1312.75
721.03	1320.94
721.21	1241.07
721.39	1294.32
721.58	1302.51
721.76	1306.60
721.94	1251.31
722.12	1265.64
722.30	1251.31
722.49	1230.83
722.67	1284.08
722.85	1234.93
723.03	1306.60
723.21	1302.51
723.40	1273.84
723.58	1282.03
723.76	1263.60
723.94	1208.30
724.12	1320.94
724.30	1265.64
724.49	1228.78
724.67	1249.26
724.85	1265.64
725.03	1261.55
725.21	1224.69
725.40	1255.40
725.58	1329.13
725.76	1304.56
725.94	1288.17
726.12	1232.88
726.30	1298.41
726.49	1249.26
726.67	1243.12
726.85	1282.03
727.03	1275.88
727.21	1284.08
727.39	1288.17
727.57	1333.23
727.76	1212.40
727.94	1275.88
728.12	1312.75
728.30	1241.07
728.48	1247.21
728.66	1284.08
728.84	1294.32
729.03	1191.92
729.21	1271.79
729.39	1216.49
729.57	1255.40
729.75	1282.03
729.93	1208.30
730.11	1282.03
730.30	1198.06
730.48	1263.60
730.66	1259.50
730.84	1234.93
731.02	1271.79
731.20	1214.45
731.38	1220.59
731.56	1288.17
731.74	1243.12
731.93	1288.17
732.11	1284.08
732.29	1226.73
732.47	1241.07
732.65	1339.37
732.83	1263.60
733.01	1261.55
733.19	1284.08
733.37	1263.60
733.56	1318.89
733.74	1263.60
733.92	1249.26
734.10	1241.07
734.28	1269.74
734.46	1253.36
734.64	1243.12
734.82	1320.94
735.00	1290.22
735.18	1277.93
735.36	1279.98
735.54	1304.56
735.73	1318.89
735.91	1265.64
736.09	1220.59
736.27	1329.13
736.45	1263.60
736.63	1204.21
736.81	1322.99
736.99	1329.13
737.17	1294.32
737.35	1228.78
737.53	1298.41
737.71	1306.60
737.89	1294.32
738.07	1251.31
738.25	1216.49
738.43	1230.83
738.61	1331.18
738.80	1263.60
738.98	1265.64
739.16	1222.64
739.34	1269.74
739.52	1247.21
739.70	1269.74
739.88	1230.83
740.06	1226.73
740.24	1230.83
740.42	1249.26
740.60	1320.94
740.78	1142.77
740.96	1263.60
741.14	1230.83
741.32	1314.80
741.50	1271.79
741.68	1361.90
741.86	1290.22
742.04	1222.64
742.22	1236.97
742.40	1245.16
742.58	1251.31
742.76	1316.84
742.94	1257.45
743.12	1230.83
743.30	1294.32
743.48	1216.49
743.66	1241.07
743.84	1245.16
744.02	1234.93
744.20	1216.49
744.38	1277.93
744.56	1296.36
744.74	1314.80
744.92	1282.03
745.10	1249.26
745.28	1232.88
745.46	1245.16
745.64	1245.16
745.82	1298.41
746.00	1236.97
746.18	1271.79
746.36	1239.02
746.54	1269.74
746.72	1341.42
746.90	1310.70
747.08	1236.97
747.26	1253.36
747.44	1259.50
747.62	1249.26
747.80	1245.16
747.98	1249.26
748.15	1288.17
748.33	1277.93
748.51	1331.18
748.69	1239.02
748.87	1296.36
749.05	1236.97
749.23	1245.16
749.41	1275.88
749.59	1267.69
749.77	1204.21
749.95	1269.74
750.13	1249.26
750.31	1300.46
750.49	1306.60
750.67	1277.93
750.85	1249.26
751.03	1243.12
751.20	1288.17
751.38	1226.73
751.56	1277.93
751.74	1267.69
751.92	1247.21
752.10	1261.55
752.28	1159.15
752.46	1214.45
752.64	1251.31
752.82	1304.56
753.00	1341.42
753.18	1279.98
753.35	1290.22
753.53	1257.45
753.71	1247.21
753.89	1310.70
754.07	1210.35
754.25	1351.66
754.43	1261.55
754.61	1245.16
754.79	1277.93
754.97	1255.40
755.14	1316.84
755.32	1267.69
755.50	1263.60
755.68	1341.42
755.86	1279.98
756.04	1282.03
756.22	1329.13
756.40	1269.74
756.57	1310.70
756.75	1265.64
756.93	1236.97
757.11	1282.03
757.29	1279.98
757.47	1282.03
757.65	1241.07
757.82	1257.45
758.00	1322.99
758.18	1239.02
758.36	1239.02
758.54	1255.40
758.72	1306.60
758.90	1347.56
759.07	1243.12
759.25	1279.98
759.43	1275.88
759.61	1224.69
759.79	1325.04
759.97	1296.36
760.15	1249.26
760.32	1249.26
760.50	1257.45
760.68	1308.65
760.86	1236.97
761.04	1243.12
761.22	1306.60
761.39	1253.36
761.57	1320.94
761.75	1298.41
761.93	1212.40
762.11	1232.88
762.28	1236.97
762.46	1312.75
762.64	1251.31
762.82	1255.40
763.00	1216.49
763.18	1310.70
763.35	1243.12
763.53	1306.60
763.71	1314.80
763.89	1247.21
764.07	1218.54
764.24	1310.70
764.42	1228.78
764.60	1314.80
764.78	1376.24
764.96	1210.35
765.13	1230.83
765.31	1206.25
765.49	1257.45
765.67	1245.16
765.84	1214.45
766.02	1345.52
766.20	1210.35
766.38	1171.44
766.56	1269.74
766.73	1267.69
766.91	1236.97
767.09	1314.80
767.27	1230.83
767.44	1253.36
767.62	1200.11
767.80	1200.11
767.98	1251.31
768.15	1232.88
768.33	1255.40
768.51	1210.35
768.69	1288.17
768.87	1294.32
769.04	1243.12
769.22	1286.12
769.40	1288.17
769.58	1247.21
769.75	1212.40
769.93	1292.27
770.11	1269.74
770.28	1220.59
770.46	1273.84
770.64	1245.16
770.82	1196.01
770.99	1286.12
771.17	1234.93
771.35	1275.88
771.53	1298.41
771.70	1185.77
771.88	1265.64
772.06	1200.11
772.23	1249.26
772.41	1191.92
772.59	1253.36
772.77	1247.21
772.94	1253.36
773.12	1243.12
773.30	1302.51
773.47	1284.08
773.65	1230.83
773.83	1271.79
774.01	1298.41
774.18	1226.73
774.36	1275.88
774.54	1226.73
774.71	1269.74
774.89	1294.32
775.07	1290.22
775.24	1236.97
775.42	1290.22
775.60	1273.84
775.78	1292.27
775.95	1343.47
776.13	1257.45
776.31	1300.46
776.48	1257.45
776.66	1288.17
776.84	1230.83
777.01	1282.03
777.19	1232.88
777.37	1243.12
777.54	1267.69
777.72	1423.34
777.90	1255.40
778.07	1230.83
778.25	1282.03
778.43	1302.51
778.60	1320.94
778.78	1320.94
778.96	1234.93
779.13	1263.60
779.31	1218.54
779.49	1376.24
779.66	1310.70
779.84	1243.12
780.01	1335.28
780.19	1241.07
780.37	1243.12
780.54	1271.79
780.72	1198.06
780.90	1239.02
781.07	1269.74
781.25	1210.35
781.43	1271.79
781.60	1224.69
781.78	1279.98
781.95	1247.21
782.13	1239.02
782.31	1214.45
782.48	1257.45
782.66	1314.80
782.83	1296.36
783.01	1198.06
783.19	1288.17
783.36	1312.75
783.54	1228.78
783.72	1300.46
783.89	1300.46
784.07	1196.01
784.24	1282.03
784.42	1327.08
784.60	1300.46
784.77	1282.03
784.95	1267.69
785.12	1271.79
785.30	1269.74
785.47	1247.21
785.65	1327.08
785.83	1284.08
786.00	1241.07
786.18	1351.66
786.35	1169.39
786.53	1329.13
786.71	1282.03
786.88	1243.12
787.06	1277.93
787.23	1189.87
787.41	1314.80
787.58	1302.51
787.76	1316.84
787.94	1273.84
788.11	1261.55
788.29	1234.93
788.46	1247.21
788.64	1308.65
788.81	1314.80
788.99	1216.49
789.16	1232.88
789.34	1208.30
789.52	1234.93
789.69	1261.55
789.87	1282.03
790.04	1198.06
790.22	1230.83
790.39	1243.12
790.57	1271.79
790.74	1277.93
790.92	1243.12
791.09	1198.06
791.27	1296.36
791.44	1253.36
791.62	1232.88
791.79	1263.60
791.97	1327.08
792.15	1320.94
792.32	1239.02
792.50	1331.18
792.67	1232.88
792.85	1230.83
793.02	1290.22
793.20	1259.50
793.37	1261.55
793.55	1236.97
793.72	1275.88
793.90	1247.21
794.07	1292.27
794.25	1253.36
794.42	1273.84
794.60	1265.64
794.77	1263.60
794.95	1247.21
795.12	1247.21
795.30	1255.40
795.47	1241.07
795.65	1257.45
795.82	1279.98
796.00	1216.49
796.17	1304.56
796.34	1236.97
796.52	1224.69
796.69	1316.84
796.87	1214.45
797.04	1230.83
797.22	1249.26
797.39	1312.75
797.57	1263.60
797.74	1273.84
797.92	1261.55
798.09	1318.89
798.27	1339.37
798.44	1265.64
798.62	1212.40
798.79	1222.64
798.96	1236.97
799.14	1269.74
799.31	1236.97
799.49	1314.80
799.66	1337.32
799.84	1341.42
800.01	1247.21
800.19	1245.16
800.36	1228.78
800.53	1298.41
800.71	1263.60
800.88	1300.46
801.06	1228.78
801.23	1220.59
801.41	1230.83
801.58	1302.51
801.75	1347.56
801.93	1245.16
802.10	1253.36
802.28	1265.64
802.45	1288.17
802.63	1257.45
802.80	1320.94
802.97	1316.84
803.15	1296.36
803.32	1247.21
803.50	1251.31
803.67	1214.45
803.84	1300.46
804.02	1277.93
804.19	1269.74
804.37	1236.97
804.54	1251.31
804.71	1239.02
804.89	1249.26
805.06	1302.51
805.24	1265.64
805.41	1267.69
805.58	1263.60
805.76	1298.41
805.93	1269.74
806.10	1255.40
806.28	1208.30
806.45	1224.69
806.63	1189.87
806.80	1290.22
806.97	1249.26
807.15	1179.63
807.32	1288.17
807.49	1234.93
807.67	1308.65
807.84	1308.65
808.01	1292.27
808.19	1286.12
808.36	1261.55
808.54	1304.56
808.71	1255.40
808.88	1335.28
809.06	1286.12
809.23	1241.07
809.40	1247.21
809.58	1318.89
809.75	1245.16
809.92	1243.12
810.10	1255.40
810.27	1337.32
810.44	1257.45
810.62	1144.81
810.79	1320.94
810.96	1302.51
811.14	1314.80
811.31	1234.93
811.48	1288.17
811.66	1261.55
811.83	1255.40
812.00	1267.69
812.18	1294.32
812.35	1284.08
812.52	1288.17
812.69	1241.07
812.87	1279.98
813.04	1304.56
813.21	1273.84
813.39	1239.02
813.56	1196.01
813.73	1253.36
813.91	1263.60
814.08	1255.40
814.25	1230.83
814.42	1298.41
814.60	1212.40
814.77	1273.84
814.94	1269.74
815.12	1245.16
815.29	1206.25
815.46	1349.61
815.63	1245.16
815.81	1236.97
815.98	1243.12
816.15	1222.64
816.33	1251.31
816.50	1265.64
816.67	1269.74
816.84	1255.40
817.02	1277.93
817.19	1234.93
817.36	1193.97
817.53	1243.12
817.71	1169.39
817.88	1265.64
818.05	1232.88
818.22	1273.84
818.40	1290.22
818.57	1257.45
818.74	1212.40
818.91	1239.02
819.09	1249.26
819.26	1271.79
819.43	1214.45
819.60	1222.64
819.78	1296.36
819.95	1245.16
820.12	1232.88
820.29	1296.36
820.47	1296.36
820.64	1212.40
820.81	1224.69
820.98	1265.64
821.15	1198.06
821.33	1253.36
821.50	1230.83
821.67	1257.45
821.84	1263.60
822.02	1261.55
822.19	1312.75
822.36	1150.96
822.53	1298.41
822.70	1255.40
822.88	1261.55
823.05	1312.75
823.22	1265.64
823.39	1230.83
823.56	1300.46
823.74	1196.01
823.91	1310.70
824.08	1255.40
824.25	1300.46
824.42	1273.84
824.60	1282.03
824.77	1302.51
824.94	1335.28
825.11	1208.30
825.28	1253.36
825.45	1290.22
825.63	1249.26
825.80	1177.58
825.97	1247.21
826.14	1251.31
826.31	1230.83
826.48	1224.69
826.66	1196.01
826.83	1204.21
827.00	1228.78
827.17	1257.45
827.34	1306.60
827.51	1343.47
827.69	1259.50
827.86	1265.64
828.03	1230.83
828.20	1224.69
828.37	1294.32
828.54	1284.08
828.71	1296.36
828.89	1286.12
829.06	1206.25
829.23	1306.60
829.40	1279.98
829.57	1251.31
829.74	1304.56
829.91	1222.64
830.09	1314.80
830.26	1200.11
830.43	1325.04
830.60	1269.74
830.77	1243.12
830.94	1269.74
831.11	1261.55
831.28	1263.60
831.46	1249.26
831.63	1247.21
831.80	1318.89
831.97	1245.16
832.14	1232.88
832.31	1372.14
832.48	1265.64
832.65	1247.21
832.82	1267.69
832.99	1257.45
833.17	1282.03
833.34	1249.26
833.51	1286.12
833.68	1284.08
833.85	1269.74
834.02	1304.56
834.19	1247.21
834.36	1236.97
834.53	1310.70
834.70	1255.40
834.87	1314.80
835.04	1292.27
835.22	1265.64
835.39	1210.35
835.56	1329.13
835.73	1312.75
835.90	1279.98
836.07	1279.98
836.24	1257.45
836.41	1318.89
836.58	1255.40
836.75	1282.03
836.92	1236.97
837.09	1226.73
837.26	1263.60
837.43	1337.32
837.60	1232.88
837.77	1275.88
837.94	1234.93
838.12	1339.37
838.29	1271.79
838.46	1288.17
838.63	1286.12
838.80	1325.04
838.97	1239.02
839.14	1265.64
839.31	1288.17
839.48	1234.93
839.65	1261.55
839.82	1202.16
839.99	1275.88
840.16	1298.41
840.33	1259.50
840.50	1253.36
840.67	1224.69
840.84	1290.22
841.01	1241.07
841.18	1236.97
841.35	1282.03
841.52	1263.60
841.69	1187.82
841.86	1243.12
842.03	1273.84
842.20	1265.64
842.37	1294.32
842.54	1282.03
842.71	1255.40
842.88	1269.74
843.05	1300.46
843.22	1308.65
843.39	1298.41
843.56	1290.22
843.73	1288.17
843.90	1200.11
844.07	1372.14
844.24	1224.69
844.41	1320.94
844.58	1282.03
844.75	1198.06
844.92	1320.94
845.09	1253.36
845.26	1271.79
845.43	1196.01
845.60	1277.93
845.77	1228.78
845.94	1265.64
846.10	1284.08
846.27	1263.60
846.44	1325.04
846.61	1236.97
846.78	1265.64
846.95	1318.89
847.12	1286.12
847.29	1282.03
847.46	1243.12
847.63	1247.21
847.80	1277.93
847.97	1261.55
848.14	1216.49
848.31	1296.36
848.48	1196.01
848.65	1216.49
848.82	1269.74
848.98	1341.42
849.15	1257.45
849.32	1329.13
849.49	1265.64
849.66	1193.97
849.83	1257.45
850.00	1306.60
850.17	1257.45
850.34	1245.16
850.51	1198.06
850.68	1187.82
850.85	1259.50
851.01	1286.12
851.18	1236.97
851.35	1228.78
851.52	1259.50
851.69	1271.79
851.86	1247.21
852.03	1302.51
852.20	1335.28
852.37	1351.66
852.53	1171.44
852.70	1353.71
852.87	1202.16
853.04	1187.82
853.21	1327.08
853.38	1239.02
853.55	1310.70
853.72	1320.94
853.89	1273.84
854.05	1322.99
854.22	1288.17
854.39	1345.52
854.56	1273.84
854.73	1261.55
854.90	1236.97
855.07	1249.26
855.23	1322.99
855.40	1212.40
855.57	1265.64
855.74	1261.55
855.91	1249.26
856.08	1253.36
856.25	1306.60
856.41	1251.31
856.58	1263.60
856.75	1271.79
856.92	1210.35
857.09	1308.65
857.26	1277.93
857.42	1271.79
857.59	1284.08
857.76	1263.60
857.93	1267.69
858.10	1279.98
858.27	1294.32
858.43	1214.45
858.60	1200.11
858.77	1255.40
858.94	1296.36
859.11	1271.79
859.27	1257.45
859.44	1282.03
859.61	1216.49
859.78	1284.08
859.95	1144.81
860.12	1241.07
860.28	1230.83
860.45	1226.73
860.62	1204.21
860.79	1247.21
860.95	1314.80
861.12	1259.50
861.29	1249.26
861.46	1212.40
861.63	1247.21
861.79	1200.11
861.96	1279.98
862.13	1208.30
862.30	1300.46
862.47	1241.07
862.63	1228.78
862.80	1312.75
862.97	1288.17
863.14	1265.64
863.30	1298.41
863.47	1308.65
863.64	1236.97
863.81	1261.55
863.97	1275.88
864.14	1241.07
864.31	1155.05
864.48	1222.64
864.65	1222.64
864.81	1241.07
864.98	1275.88
865.15	1353.71
865.32	1267.69
865.48	1261.55
865.65	1236.97
865.82	1271.79
865.98	1290.22
866.15	1320.94
866.32	1247.21
866.49	1296.36
866.65	1249.26
866.82	1294.32
866.99	1275.88
867.16	1224.69
867.32	1263.60
867.49	1306.60
867.66	1236.97
867.83	1216.49
867.99	1183.73
868.16	1230.83
868.33	1261.55
868.49	1146.86
868.66	1288.17
868.83	1216.49
868.99	1294.32
869.16	1243.12
869.33	1304.56
869.50	1296.36
869.66	1277.93
869.83	1322.99
870.00	1189.87
870.16	1263.60
870.33	1284.08
870.50	1220.59
870.66	1275.88
870.83	1251.31
871.00	1230.83
871.17	1230.83
871.33	1257.45
871.50	1255.40
871.67	1306.60
871.83	1245.16
872.00	1292.27
872.17	1273.84
872.33	1298.41
872.50	1292.27
872.67	1236.97
872.83	1200.11
873.00	1189.87
873.17	1310.70
873.33	1228.78
873.50	1241.07
873.67	1339.37
873.83	1284.08
874.00	1310.70
874.16	1290.22
874.33	1327.08
874.50	1263.60
874.66	1265.64
874.83	1214.45
875.00	1298.41
875.16	1255.40
875.33	1241.07
875.50	1290.22
875.66	1265.64
875.83	1282.03
875.99	1232.88
876.16	1308.65
876.33	1279.98
876.49	1314.80
876.66	1214.45
876.83	1255.40
876.99	1316.84
877.16	1241.07
877.32	1273.84
877.49	1249.26
877.66	1269.74
877.82	1216.49
877.99	1265.64
878.15	1232.88
878.32	1255.40
878.49	1212.40
878.65	1255.40
878.82	1300.46
878.98	1261.55
879.15	1271.79
879.32	1208.30
879.48	1333.23
879.65	1288.17
879.81	1239.02
879.98	1249.26
880.15	1296.36
880.31	1277.93
880.48	1298.41
880.64	1306.60
880.81	1349.61
880.97	1292.27
881.14	1224.69
881.31	1320.94
881.47	1361.90
881.64	1341.42
881.80	1241.07
881.97	1273.84
882.13	1277.93
882.30	1247.21
882.47	1259.50
882.63	1232.88
882.80	1269.74
882.96	1185.77
883.13	1196.01
883.29	1269.74
883.46	1263.60
883.62	1261.55
883.79	1261.55
883.95	1294.32
884.12	1318.89
884.29	1282.03
884.45	1247.21
884.62	1337.32
884.78	1224.69
884.95	1304.56
885.11	1312.75
885.28	1271.79
885.44	1261.55
885.61	1234.93
885.77	1282.03
885.94	1220.59
886.10	1288.17
886.27	1288.17
886.43	1187.82
886.60	1269.74
886.76	1277.93
886.93	1271.79
887.09	1257.45
887.26	1232.88
887.42	1255.40
887.59	1300.46
887.75	1322.99
887.92	1230.83
888.08	1298.41
888.25	1286.12
888.41	1247.21
888.58	1312.75
888.74	1230.83
888.91	1259.50
>>>>>End Processed Spectral Data<<<<<
