SpectraSuite Data File
++++++++++++++++++++++++++++++++++++
Date: Sun Apr 03 19:55:21 CEST 2016
User: root
Dark Spectrum Present: No
Reference Spectrum Present: No
Number of Sampled Component Spectra: 1
Spectrometers: USB4C02835
Integration Time (usec): 10000 (USB4C02835)
Spectra Averaged: 1 (USB4C02835)
Boxcar Smoothing: 0 (USB4C02835)
Correct for Electrical Dark: No (USB4C02835)
Strobe/Lamp Enabled: No (USB4C02835)
Correct for Detector Non-linearity: No (USB4C02835)
Correct for Stray Light: No (USB4C02835)
Number of Pixels in Processed Spectrum: 3648
>>>>>Begin Processed Spectral Data<<<<<
177.47	1288.17
177.69	1288.17
177.91	1288.17
178.13	1298.41
178.36	1269.74
178.58	1191.92
178.80	1267.69
179.02	1263.60
179.24	1279.98
179.46	1269.74
179.68	1275.88
179.90	1239.02
180.13	1312.75
180.35	1267.69
180.57	1214.45
180.79	1294.32
181.01	1204.21
181.23	1259.50
181.45	1247.21
181.67	1306.60
181.90	1300.46
182.12	1255.40
182.34	1220.59
182.56	1232.88
182.78	1249.26
183.00	1224.69
183.22	1282.03
183.44	1282.03
183.66	1277.93
183.89	1298.41
184.11	1322.99
184.33	1241.07
184.55	1224.69
184.77	1308.65
184.99	1230.83
185.21	1267.69
185.43	1294.32
185.65	1306.60
185.87	1214.45
186.10	1232.88
186.32	1349.61
186.54	1314.80
186.76	1212.40
186.98	1269.74
187.20	1296.36
187.42	1314.80
187.64	1337.32
187.86	1275.88
188.08	1216.49
188.30	1204.21
188.52	1247.21
188.75	1343.47
188.97	1239.02
189.19	1273.84
189.41	1241.07
189.63	1261.55
189.85	1275.88
190.07	1314.80
190.29	1181.68
190.51	1247.21
190.73	1234.93
190.95	1261.55
191.17	1286.12
191.39	1222.64
191.61	1269.74
191.84	1282.03
192.06	1267.69
192.28	1232.88
192.50	1241.07
192.72	1228.78
192.94	1275.88
193.16	1259.50
193.38	1290.22
193.60	1314.80
193.82	1234.93
194.04	1200.11
194.26	1226.73
194.48	1271.79
194.70	1312.75
194.92	1282.03
195.14	1282.03
195.36	1212.40
195.58	1255.40
195.80	1243.12
196.02	1200.11
196.24	1296.36
196.46	1255.40
196.69	1249.26
196.91	1222.64
197.13	1241.07
197.35	1286.12
197.57	1259.50
197.79	1249.26
198.01	1243.12
198.23	1269.74
198.45	1337.32
198.67	1296.36
198.89	1259.50
199.11	1267.69
199.33	1320.94
199.55	1322.99
199.77	1236.97
199.99	1249.26
200.21	1226.73
200.43	1239.02
200.65	1171.44
200.87	1234.93
201.09	1273.84
201.31	1226.73
201.53	1230.83
201.75	1230.83
201.97	1349.61
202.19	1273.84
202.41	1279.98
202.63	1306.60
202.85	1245.16
203.07	1230.83
203.29	1243.12
203.51	1251.31
203.73	1318.89
203.95	1263.60
204.17	1292.27
204.39	1222.64
204.61	1253.36
204.83	1245.16
205.05	1300.46
205.27	1239.02
205.49	1255.40
205.71	1300.46
205.93	1284.08
206.15	1325.04
206.37	1298.41
206.59	1261.55
206.81	1241.07
207.03	1241.07
207.25	1286.12
207.47	1310.70
207.69	1279.98
207.91	1257.45
208.13	1269.74
208.34	1230.83
208.56	1294.32
208.78	1282.03
209.00	1290.22
209.22	1245.16
209.44	1234.93
209.66	1357.80
209.88	1210.35
210.10	1304.56
210.32	1302.51
210.54	1247.21
210.76	1294.32
210.98	1345.52
211.20	1271.79
211.42	1292.27
211.64	1173.49
211.86	1288.17
212.08	1263.60
212.30	1322.99
212.52	1298.41
212.74	1271.79
212.96	1275.88
213.17	1265.64
213.39	1275.88
213.61	1247.21
213.83	1286.12
214.05	1253.36
214.27	1277.93
214.49	1204.21
214.71	1241.07
214.93	1263.60
215.15	1302.51
215.37	1279.98
215.59	1222.64
215.81	1232.88
216.03	1314.80
216.24	1273.84
216.46	1253.36
216.68	1286.12
216.90	1230.83
217.12	1261.55
217.34	1245.16
217.56	1335.28
217.78	1320.94
218.00	1286.12
218.22	1265.64
218.44	1263.60
218.66	1226.73
218.87	1265.64
219.09	1292.27
219.31	1208.30
219.53	1269.74
219.75	1267.69
219.97	1257.45
220.19	1241.07
220.41	1357.80
220.63	1277.93
220.85	1263.60
221.06	1245.16
221.28	1292.27
221.50	1214.45
221.72	1224.69
221.94	1255.40
222.16	1230.83
222.38	1263.60
222.60	1179.63
222.82	1241.07
223.03	1267.69
223.25	1282.03
223.47	1247.21
223.69	1312.75
223.91	1284.08
224.13	1273.84
224.35	1308.65
224.57	1308.65
224.78	1236.97
225.00	1320.94
225.22	1363.95
225.44	1265.64
225.66	1224.69
225.88	1271.79
226.10	1304.56
226.32	1312.75
226.53	1286.12
226.75	1282.03
226.97	1245.16
227.19	1216.49
227.41	1173.49
227.63	1220.59
227.85	1271.79
228.06	1335.28
228.28	1247.21
228.50	1228.78
228.72	1220.59
228.94	1302.51
229.16	1269.74
229.37	1208.30
229.59	1253.36
229.81	1226.73
230.03	1222.64
230.25	1279.98
230.47	1288.17
230.69	1259.50
230.90	1228.78
231.12	1247.21
231.34	1251.31
231.56	1282.03
231.78	1294.32
232.00	1183.73
232.21	1306.60
232.43	1247.21
232.65	1306.60
232.87	1273.84
233.09	1273.84
233.30	1286.12
233.52	1265.64
233.74	1314.80
233.96	1249.26
234.18	1320.94
234.40	1320.94
234.61	1273.84
234.83	1239.02
235.05	1304.56
235.27	1220.59
235.49	1282.03
235.70	1284.08
235.92	1290.22
236.14	1236.97
236.36	1288.17
236.58	1282.03
236.79	1253.36
237.01	1296.36
237.23	1271.79
237.45	1228.78
237.67	1327.08
237.88	1185.77
238.10	1296.36
238.32	1210.35
238.54	1339.37
238.76	1249.26
238.97	1310.70
239.19	1331.18
239.41	1232.88
239.63	1279.98
239.85	1277.93
240.06	1241.07
240.28	1290.22
240.50	1232.88
240.72	1294.32
240.93	1302.51
241.15	1345.52
241.37	1308.65
241.59	1247.21
241.81	1257.45
242.02	1304.56
242.24	1193.97
242.46	1304.56
242.68	1261.55
242.89	1239.02
243.11	1300.46
243.33	1273.84
243.55	1298.41
243.76	1226.73
243.98	1320.94
244.20	1265.64
244.42	1253.36
244.64	1290.22
244.85	1259.50
245.07	1292.27
245.29	1370.09
245.51	1306.60
245.72	1308.65
245.94	1298.41
246.16	1259.50
246.38	1243.12
246.59	1286.12
246.81	1300.46
247.03	1228.78
247.24	1316.84
247.46	1302.51
247.68	1208.30
247.90	1275.88
248.11	1286.12
248.33	1259.50
248.55	1298.41
248.77	1312.75
248.98	1255.40
249.20	1239.02
249.42	1204.21
249.64	1269.74
249.85	1308.65
250.07	1255.40
250.29	1359.85
250.50	1292.27
250.72	1232.88
250.94	1247.21
251.16	1277.93
251.37	1253.36
251.59	1263.60
251.81	1335.28
252.02	1282.03
252.24	1308.65
252.46	1241.07
252.68	1165.29
252.89	1261.55
253.11	1265.64
253.33	1279.98
253.54	1239.02
253.76	1255.40
253.98	1236.97
254.20	1279.98
254.41	1263.60
254.63	1306.60
254.85	1269.74
255.06	1325.04
255.28	1298.41
255.50	1210.35
255.71	1312.75
255.93	1224.69
256.15	1212.40
256.36	1214.45
256.58	1286.12
256.80	1253.36
257.02	1163.25
257.23	1277.93
257.45	1239.02
257.67	1257.45
257.88	1290.22
258.10	1282.03
258.32	1265.64
258.53	1292.27
258.75	1239.02
258.97	1277.93
259.18	1322.99
259.40	1191.92
259.62	1320.94
259.83	1224.69
260.05	1257.45
260.27	1302.51
260.48	1269.74
260.70	1224.69
260.92	1325.04
261.13	1306.60
261.35	1220.59
261.57	1193.97
261.78	1263.60
262.00	1210.35
262.22	1251.31
262.43	1208.30
262.65	1267.69
262.86	1251.31
263.08	1200.11
263.30	1298.41
263.51	1312.75
263.73	1308.65
263.95	1241.07
264.16	1277.93
264.38	1312.75
264.60	1304.56
264.81	1314.80
265.03	1273.84
265.25	1267.69
265.46	1239.02
265.68	1222.64
265.89	1279.98
266.11	1224.69
266.33	1204.21
266.54	1304.56
266.76	1247.21
266.98	1273.84
267.19	1327.08
267.41	1284.08
267.62	1304.56
267.84	1202.16
268.06	1247.21
268.27	1247.21
268.49	1308.65
268.70	1239.02
268.92	1222.64
269.14	1224.69
269.35	1222.64
269.57	1247.21
269.79	1290.22
270.00	1228.78
270.22	1253.36
270.43	1253.36
270.65	1284.08
270.87	1296.36
271.08	1269.74
271.30	1224.69
271.51	1296.36
271.73	1277.93
271.95	1224.69
272.16	1226.73
272.38	1355.76
272.59	1255.40
272.81	1312.75
273.02	1286.12
273.24	1269.74
273.46	1241.07
273.67	1294.32
273.89	1243.12
274.10	1318.89
274.32	1341.42
274.54	1296.36
274.75	1247.21
274.97	1331.18
275.18	1214.45
275.40	1310.70
275.61	1239.02
275.83	1220.59
276.05	1239.02
276.26	1261.55
276.48	1282.03
276.69	1273.84
276.91	1243.12
277.12	1308.65
277.34	1261.55
277.55	1275.88
277.77	1247.21
277.99	1279.98
278.20	1196.01
278.42	1325.04
278.63	1200.11
278.85	1218.54
279.06	1263.60
279.28	1263.60
279.49	1273.84
279.71	1253.36
279.93	1249.26
280.14	1277.93
280.36	1320.94
280.57	1296.36
280.79	1212.40
281.00	1327.08
281.22	1257.45
281.43	1263.60
281.65	1212.40
281.86	1294.32
282.08	1218.54
282.29	1331.18
282.51	1257.45
282.73	1288.17
282.94	1193.97
283.16	1308.65
283.37	1325.04
283.59	1318.89
283.80	1284.08
284.02	1236.97
284.23	1279.98
284.45	1226.73
284.66	1265.64
284.88	1261.55
285.09	1265.64
285.31	1314.80
285.52	1273.84
285.74	1263.60
285.95	1177.58
286.17	1265.64
286.38	1294.32
286.60	1296.36
286.81	1269.74
287.03	1224.69
287.24	1316.84
287.46	1224.69
287.67	1218.54
287.89	1273.84
288.10	1357.80
288.32	1304.56
288.53	1290.22
288.75	1306.60
288.96	1322.99
289.18	1269.74
289.39	1286.12
289.61	1253.36
289.82	1275.88
290.04	1218.54
290.25	1159.15
290.47	1239.02
290.68	1234.93
290.90	1234.93
291.11	1212.40
291.33	1310.70
291.54	1275.88
291.76	1243.12
291.97	1351.66
292.18	1331.18
292.40	1265.64
292.61	1267.69
292.83	1325.04
293.04	1306.60
293.26	1339.37
293.47	1251.31
293.69	1251.31
293.90	1243.12
294.12	1222.64
294.33	1316.84
294.55	1249.26
294.76	1351.66
294.97	1290.22
295.19	1306.60
295.40	1255.40
295.62	1300.46
295.83	1234.93
296.05	1290.22
296.26	1329.13
296.48	1296.36
296.69	1286.12
296.90	1228.78
297.12	1214.45
297.33	1290.22
297.55	1263.60
297.76	1249.26
297.98	1273.84
298.19	1318.89
298.41	1185.77
298.62	1232.88
298.83	1302.51
299.05	1173.49
299.26	1236.97
299.48	1275.88
299.69	1267.69
299.90	1292.27
300.12	1257.45
300.33	1241.07
300.55	1304.56
300.76	1329.13
300.98	1265.64
301.19	1249.26
301.40	1259.50
301.62	1234.93
301.83	1269.74
302.05	1210.35
302.26	1257.45
302.47	1230.83
302.69	1273.84
302.90	1267.69
303.12	1218.54
303.33	1341.42
303.54	1239.02
303.76	1290.22
303.97	1249.26
304.19	1384.43
304.40	1193.97
304.61	1198.06
304.83	1253.36
305.04	1247.21
305.26	1308.65
305.47	1241.07
305.68	1265.64
305.90	1310.70
306.11	1292.27
306.33	1257.45
306.54	1251.31
306.75	1216.49
306.97	1224.69
307.18	1273.84
307.39	1255.40
307.61	1228.78
307.82	1271.79
308.04	1245.16
308.25	1187.82
308.46	1261.55
308.68	1292.27
308.89	1239.02
309.10	1230.83
309.32	1314.80
309.53	1275.88
309.74	1232.88
309.96	1304.56
310.17	1288.17
310.39	1204.21
310.60	1271.79
310.81	1243.12
311.03	1241.07
311.24	1312.75
311.45	1263.60
311.67	1241.07
311.88	1290.22
312.09	1208.30
312.31	1277.93
312.52	1302.51
312.73	1271.79
312.95	1275.88
313.16	1210.35
313.37	1310.70
313.59	1220.59
313.80	1247.21
314.01	1265.64
314.23	1241.07
314.44	1200.11
314.65	1249.26
314.87	1279.98
315.08	1273.84
315.29	1273.84
315.51	1320.94
315.72	1374.19
315.93	1284.08
316.15	1279.98
316.36	1275.88
316.57	1230.83
316.79	1296.36
317.00	1282.03
317.21	1216.49
317.43	1247.21
317.64	1224.69
317.85	1316.84
318.07	1239.02
318.28	1290.22
318.49	1269.74
318.70	1253.36
318.92	1284.08
319.13	1273.84
319.34	1282.03
319.56	1204.21
319.77	1275.88
319.98	1167.34
320.20	1282.03
320.41	1263.60
320.62	1157.10
320.83	1296.36
321.05	1271.79
321.26	1275.88
321.47	1249.26
321.69	1214.45
321.90	1277.93
322.11	1265.64
322.32	1253.36
322.54	1337.32
322.75	1265.64
322.96	1302.51
323.18	1259.50
323.39	1316.84
323.60	1273.84
323.81	1353.71
324.03	1247.21
324.24	1265.64
324.45	1265.64
324.66	1300.46
324.88	1257.45
325.09	1279.98
325.30	1247.21
325.52	1308.65
325.73	1210.35
325.94	1296.36
326.15	1366.00
326.37	1275.88
326.58	1247.21
326.79	1222.64
327.00	1288.17
327.22	1300.46
327.43	1273.84
327.64	1286.12
327.85	1290.22
328.07	1212.40
328.28	1263.60
328.49	1327.08
328.70	1245.16
328.92	1339.37
329.13	1257.45
329.34	1236.97
329.55	1327.08
329.76	1290.22
329.98	1267.69
330.19	1232.88
330.40	1269.74
330.61	1245.16
330.83	1263.60
331.04	1273.84
331.25	1277.93
331.46	1325.04
331.68	1146.86
331.89	1216.49
332.10	1282.03
332.31	1279.98
332.52	1306.60
332.74	1316.84
332.95	1314.80
333.16	1271.79
333.37	1247.21
333.58	1259.50
333.80	1189.87
334.01	1298.41
334.22	1271.79
334.43	1273.84
334.64	1259.50
334.86	1294.32
335.07	1230.83
335.28	1292.27
335.49	1206.25
335.70	1337.32
335.92	1292.27
336.13	1224.69
336.34	1275.88
336.55	1261.55
336.76	1302.51
336.98	1216.49
337.19	1232.88
337.40	1282.03
337.61	1228.78
337.82	1314.80
338.04	1298.41
338.25	1232.88
338.46	1259.50
338.67	1298.41
338.88	1255.40
339.09	1271.79
339.31	1177.58
339.52	1290.22
339.73	1259.50
339.94	1271.79
340.15	1273.84
340.36	1212.40
340.58	1261.55
340.79	1220.59
341.00	1216.49
341.21	1267.69
341.42	1234.93
341.63	1198.06
341.85	1220.59
342.06	1306.60
342.27	1314.80
342.48	1265.64
342.69	1216.49
342.90	1277.93
343.12	1318.89
343.33	1259.50
343.54	1214.45
343.75	1271.79
343.96	1290.22
344.17	1236.97
344.38	1247.21
344.60	1257.45
344.81	1263.60
345.02	1232.88
345.23	1304.56
345.44	1243.12
345.65	1341.42
345.86	1271.79
346.07	1269.74
346.29	1265.64
346.50	1249.26
346.71	1284.08
346.92	1304.56
347.13	1304.56
347.34	1239.02
347.55	1245.16
347.76	1314.80
347.98	1222.64
348.19	1257.45
348.40	1282.03
348.61	1269.74
348.82	1286.12
349.03	1331.18
349.24	1333.23
349.45	1173.49
349.66	1202.16
349.88	1265.64
350.09	1251.31
350.30	1298.41
350.51	1296.36
350.72	1212.40
350.93	1257.45
351.14	1290.22
351.35	1220.59
351.56	1273.84
351.77	1214.45
351.99	1316.84
352.20	1318.89
352.41	1222.64
352.62	1322.99
352.83	1273.84
353.04	1269.74
353.25	1267.69
353.46	1286.12
353.67	1204.21
353.88	1329.13
354.09	1265.64
354.30	1265.64
354.52	1290.22
354.73	1265.64
354.94	1345.52
355.15	1259.50
355.36	1331.18
355.57	1218.54
355.78	1277.93
355.99	1296.36
356.20	1210.35
356.41	1247.21
356.62	1249.26
356.83	1232.88
357.04	1247.21
357.25	1312.75
357.46	1271.79
357.68	1294.32
357.89	1294.32
358.10	1331.18
358.31	1286.12
358.52	1279.98
358.73	1273.84
358.94	1208.30
359.15	1236.97
359.36	1241.07
359.57	1220.59
359.78	1302.51
359.99	1241.07
360.20	1312.75
360.41	1263.60
360.62	1239.02
360.83	1277.93
361.04	1261.55
361.25	1292.27
361.46	1322.99
361.67	1349.61
361.88	1306.60
362.09	1335.28
362.30	1314.80
362.51	1261.55
362.72	1232.88
362.93	1284.08
363.14	1253.36
363.35	1261.55
363.56	1220.59
363.78	1216.49
363.99	1306.60
364.20	1249.26
364.41	1318.89
364.62	1267.69
364.83	1243.12
365.04	1253.36
365.25	1249.26
365.46	1243.12
365.67	1279.98
365.88	1372.14
366.09	1265.64
366.30	1247.21
366.51	1265.64
366.72	1288.17
366.93	1273.84
367.14	1251.31
367.35	1302.51
367.56	1226.73
367.77	1261.55
367.98	1277.93
368.18	1308.65
368.39	1288.17
368.60	1314.80
368.81	1214.45
369.02	1312.75
369.23	1267.69
369.44	1253.36
369.65	1269.74
369.86	1179.63
370.07	1275.88
370.28	1325.04
370.49	1273.84
370.70	1255.40
370.91	1236.97
371.12	1282.03
371.33	1261.55
371.54	1325.04
371.75	1241.07
371.96	1310.70
372.17	1220.59
372.38	1249.26
372.59	1236.97
372.80	1335.28
373.01	1286.12
373.22	1239.02
373.43	1294.32
373.64	1273.84
373.85	1277.93
374.06	1257.45
374.26	1296.36
374.47	1241.07
374.68	1236.97
374.89	1196.01
375.10	1320.94
375.31	1251.31
375.52	1251.31
375.73	1273.84
375.94	1269.74
376.15	1331.18
376.36	1279.98
376.57	1239.02
376.78	1214.45
376.99	1222.64
377.20	1290.22
377.40	1243.12
377.61	1196.01
377.82	1277.93
378.03	1206.25
378.24	1198.06
378.45	1294.32
378.66	1275.88
378.87	1314.80
379.08	1290.22
379.29	1300.46
379.50	1300.46
379.71	1241.07
379.91	1218.54
380.12	1185.77
380.33	1241.07
380.54	1196.01
380.75	1353.71
380.96	1181.68
381.17	1265.64
381.38	1245.16
381.59	1253.36
381.80	1216.49
382.00	1251.31
382.21	1259.50
382.42	1277.93
382.63	1265.64
382.84	1282.03
383.05	1286.12
383.26	1296.36
383.47	1269.74
383.68	1275.88
383.88	1286.12
384.09	1239.02
384.30	1179.63
384.51	1302.51
384.72	1193.97
384.93	1282.03
385.14	1286.12
385.35	1247.21
385.55	1253.36
385.76	1249.26
385.97	1300.46
386.18	1277.93
386.39	1226.73
386.60	1282.03
386.81	1200.11
387.02	1265.64
387.22	1310.70
387.43	1290.22
387.64	1251.31
387.85	1222.64
388.06	1263.60
388.27	1257.45
388.48	1271.79
388.68	1322.99
388.89	1161.20
389.10	1257.45
389.31	1306.60
389.52	1335.28
389.73	1224.69
389.93	1314.80
390.14	1284.08
390.35	1247.21
390.56	1300.46
390.77	1306.60
390.98	1228.78
391.18	1241.07
391.39	1230.83
391.60	1239.02
391.81	1320.94
392.02	1257.45
392.23	1257.45
392.43	1343.47
392.64	1257.45
392.85	1273.84
393.06	1294.32
393.27	1298.41
393.47	1228.78
393.68	1298.41
393.89	1269.74
394.10	1284.08
394.31	1257.45
394.52	1245.16
394.72	1284.08
394.93	1228.78
395.14	1200.11
395.35	1302.51
395.56	1224.69
395.76	1253.36
395.97	1232.88
396.18	1288.17
396.39	1224.69
396.60	1247.21
396.80	1220.59
397.01	1241.07
397.22	1257.45
397.43	1261.55
397.64	1185.77
397.84	1282.03
398.05	1277.93
398.26	1269.74
398.47	1267.69
398.67	1226.73
398.88	1325.04
399.09	1327.08
399.30	1253.36
399.51	1308.65
399.71	1282.03
399.92	1216.49
400.13	1247.21
400.34	1163.25
400.54	1255.40
400.75	1339.37
400.96	1224.69
401.17	1259.50
401.37	1306.60
401.58	1263.60
401.79	1314.80
402.00	1208.30
402.21	1261.55
402.41	1310.70
402.62	1292.27
402.83	1269.74
403.04	1308.65
403.24	1196.01
403.45	1239.02
403.66	1193.97
403.87	1294.32
404.07	1269.74
404.28	1185.77
404.49	1216.49
404.70	1318.89
404.90	1277.93
405.11	1322.99
405.32	1208.30
405.52	1230.83
405.73	1218.54
405.94	1187.82
406.15	1193.97
406.35	1232.88
406.56	1239.02
406.77	1259.50
406.98	1269.74
407.18	1255.40
407.39	1288.17
407.60	1329.13
407.80	1343.47
408.01	1222.64
408.22	1269.74
408.43	1275.88
408.63	1322.99
408.84	1261.55
409.05	1257.45
409.25	1198.06
409.46	1277.93
409.67	1339.37
409.88	1163.25
410.08	1298.41
410.29	1193.97
410.50	1198.06
410.70	1249.26
410.91	1269.74
411.12	1247.21
411.32	1230.83
411.53	1265.64
411.74	1259.50
411.95	1282.03
412.15	1224.69
412.36	1320.94
412.57	1275.88
412.77	1224.69
412.98	1253.36
413.19	1243.12
413.39	1296.36
413.60	1261.55
413.81	1214.45
414.01	1282.03
414.22	1226.73
414.43	1249.26
414.63	1220.59
414.84	1208.30
415.05	1208.30
415.25	1282.03
415.46	1185.77
415.67	1282.03
415.87	1302.51
416.08	1275.88
416.29	1288.17
416.49	1314.80
416.70	1308.65
416.91	1271.79
417.11	1245.16
417.32	1279.98
417.53	1208.30
417.73	1288.17
417.94	1228.78
418.15	1249.26
418.35	1290.22
418.56	1286.12
418.77	1269.74
418.97	1294.32
419.18	1224.69
419.38	1249.26
419.59	1269.74
419.80	1294.32
420.00	1279.98
420.21	1298.41
420.42	1236.97
420.62	1298.41
420.83	1304.56
421.04	1259.50
421.24	1198.06
421.45	1226.73
421.65	1296.36
421.86	1267.69
422.07	1249.26
422.27	1261.55
422.48	1245.16
422.69	1222.64
422.89	1267.69
423.10	1253.36
423.30	1208.30
423.51	1306.60
423.72	1286.12
423.92	1241.07
424.13	1245.16
424.33	1224.69
424.54	1265.64
424.75	1282.03
424.95	1251.31
425.16	1275.88
425.36	1255.40
425.57	1208.30
425.78	1339.37
425.98	1239.02
426.19	1236.97
426.39	1200.11
426.60	1251.31
426.81	1265.64
427.01	1269.74
427.22	1267.69
427.42	1224.69
427.63	1292.27
427.83	1288.17
428.04	1298.41
428.25	1208.30
428.45	1255.40
428.66	1245.16
428.86	1275.88
429.07	1245.16
429.28	1310.70
429.48	1236.97
429.69	1220.59
429.89	1204.21
430.10	1183.73
430.30	1255.40
430.51	1314.80
430.71	1247.21
430.92	1216.49
431.13	1290.22
431.33	1241.07
431.54	1187.82
431.74	1284.08
431.95	1218.54
432.15	1314.80
432.36	1261.55
432.56	1325.04
432.77	1327.08
432.98	1245.16
433.18	1300.46
433.39	1320.94
433.59	1239.02
433.80	1267.69
434.00	1320.94
434.21	1279.98
434.41	1222.64
434.62	1261.55
434.82	1296.36
435.03	1247.21
435.23	1325.04
435.44	1193.97
435.64	1196.01
435.85	1314.80
436.06	1232.88
436.26	1243.12
436.47	1335.28
436.67	1277.93
436.88	1257.45
437.08	1212.40
437.29	1304.56
437.49	1257.45
437.70	1224.69
437.90	1306.60
438.11	1183.73
438.31	1269.74
438.52	1269.74
438.72	1265.64
438.93	1335.28
439.13	1318.89
439.34	1261.55
439.54	1253.36
439.75	1345.52
439.95	1269.74
440.16	1202.16
440.36	1255.40
440.57	1271.79
440.77	1230.83
440.98	1165.29
441.18	1196.01
441.39	1273.84
441.59	1331.18
441.80	1320.94
442.00	1302.51
442.21	1245.16
442.41	1273.84
442.62	1277.93
442.82	1263.60
443.02	1239.02
443.23	1241.07
443.43	1228.78
443.64	1269.74
443.84	1257.45
444.05	1269.74
444.25	1220.59
444.46	1245.16
444.66	1275.88
444.87	1249.26
445.07	1337.32
445.28	1263.60
445.48	1218.54
445.69	1275.88
445.89	1288.17
446.09	1302.51
446.30	1249.26
446.50	1269.74
446.71	1265.64
446.91	1300.46
447.12	1216.49
447.32	1257.45
447.53	1320.94
447.73	1329.13
447.93	1310.70
448.14	1306.60
448.34	1265.64
448.55	1275.88
448.75	1286.12
448.96	1296.36
449.16	1206.25
449.36	1353.71
449.57	1304.56
449.77	1290.22
449.98	1245.16
450.18	1259.50
450.39	1312.75
450.59	1282.03
450.79	1267.69
451.00	1241.07
451.20	1273.84
451.41	1267.69
451.61	1226.73
451.81	1284.08
452.02	1259.50
452.22	1335.28
452.43	1282.03
452.63	1282.03
452.84	1273.84
453.04	1337.32
453.24	1239.02
453.45	1316.84
453.65	1273.84
453.86	1277.93
454.06	1292.27
454.26	1255.40
454.47	1286.12
454.67	1277.93
454.87	1286.12
455.08	1300.46
455.28	1282.03
455.49	1273.84
455.69	1245.16
455.89	1232.88
456.10	1273.84
456.30	1236.97
456.51	1394.67
456.71	1316.84
456.91	1308.65
457.12	1294.32
457.32	1261.55
457.52	1232.88
457.73	1255.40
457.93	1239.02
458.14	1198.06
458.34	1318.89
458.54	1337.32
458.75	1212.40
458.95	1265.64
459.15	1351.66
459.36	1353.71
459.56	1218.54
459.76	1277.93
459.97	1312.75
460.17	1275.88
460.37	1241.07
460.58	1259.50
460.78	1253.36
460.99	1320.94
461.19	1261.55
461.39	1306.60
461.60	1222.64
461.80	1265.64
462.00	1232.88
462.21	1232.88
462.41	1308.65
462.61	1306.60
462.82	1288.17
463.02	1298.41
463.22	1314.80
463.43	1230.83
463.63	1275.88
463.83	1279.98
464.04	1290.22
464.24	1279.98
464.44	1341.42
464.64	1216.49
464.85	1279.98
465.05	1284.08
465.25	1296.36
465.46	1269.74
465.66	1298.41
465.86	1327.08
466.07	1290.22
466.27	1290.22
466.47	1261.55
466.68	1300.46
466.88	1212.40
467.08	1292.27
467.29	1300.46
467.49	1247.21
467.69	1277.93
467.89	1210.35
468.10	1239.02
468.30	1263.60
468.50	1370.09
468.71	1275.88
468.91	1277.93
469.11	1300.46
469.31	1296.36
469.52	1277.93
469.72	1271.79
469.92	1286.12
470.13	1267.69
470.33	1271.79
470.53	1249.26
470.73	1341.42
470.94	1273.84
471.14	1314.80
471.34	1271.79
471.54	1224.69
471.75	1273.84
471.95	1210.35
472.15	1230.83
472.36	1214.45
472.56	1243.12
472.76	1265.64
472.96	1292.27
473.17	1359.85
473.37	1255.40
473.57	1294.32
473.77	1279.98
473.98	1273.84
474.18	1269.74
474.38	1193.97
474.58	1251.31
474.79	1261.55
474.99	1239.02
475.19	1234.93
475.39	1282.03
475.60	1226.73
475.80	1236.97
476.00	1232.88
476.20	1292.27
476.41	1294.32
476.61	1318.89
476.81	1296.36
477.01	1298.41
477.21	1253.36
477.42	1318.89
477.62	1241.07
477.82	1263.60
478.02	1325.04
478.23	1314.80
478.43	1300.46
478.63	1249.26
478.83	1331.18
479.03	1286.12
479.24	1212.40
479.44	1300.46
479.64	1249.26
479.84	1214.45
480.04	1275.88
480.25	1322.99
480.45	1265.64
480.65	1296.36
480.85	1204.21
481.06	1271.79
481.26	1234.93
481.46	1298.41
481.66	1290.22
481.86	1208.30
482.06	1243.12
482.27	1267.69
482.47	1241.07
482.67	1251.31
482.87	1308.65
483.07	1261.55
483.28	1255.40
483.48	1241.07
483.68	1347.56
483.88	1335.28
484.08	1255.40
484.29	1269.74
484.49	1300.46
484.69	1279.98
484.89	1230.83
485.09	1265.64
485.29	1226.73
485.50	1263.60
485.70	1304.56
485.90	1310.70
486.10	1273.84
486.30	1286.12
486.50	1263.60
486.71	1216.49
486.91	1239.02
487.11	1275.88
487.31	1265.64
487.51	1310.70
487.71	1337.32
487.91	1259.50
488.12	1241.07
488.32	1228.78
488.52	1222.64
488.72	1263.60
488.92	1306.60
489.12	1290.22
489.32	1171.44
489.53	1296.36
489.73	1249.26
489.93	1259.50
490.13	1345.52
490.33	1265.64
490.53	1296.36
490.73	1232.88
490.94	1206.25
491.14	1263.60
491.34	1296.36
491.54	1288.17
491.74	1216.49
491.94	1322.99
492.14	1302.51
492.34	1314.80
492.54	1253.36
492.75	1224.69
492.95	1234.93
493.15	1298.41
493.35	1290.22
493.55	1255.40
493.75	1296.36
493.95	1357.80
494.15	1290.22
494.35	1265.64
494.56	1253.36
494.76	1210.35
494.96	1273.84
495.16	1279.98
495.36	1249.26
495.56	1189.87
495.76	1253.36
495.96	1308.65
496.16	1292.27
496.36	1277.93
496.56	1279.98
496.77	1277.93
496.97	1239.02
497.17	1300.46
497.37	1355.76
497.57	1288.17
497.77	1212.40
497.97	1239.02
498.17	1279.98
498.37	1247.21
498.57	1214.45
498.77	1269.74
498.97	1236.97
499.17	1292.27
499.38	1247.21
499.58	1179.63
499.78	1318.89
499.98	1263.60
500.18	1259.50
500.38	1298.41
500.58	1228.78
500.78	1314.80
500.98	1220.59
501.18	1271.79
501.38	1304.56
501.58	1322.99
501.78	1337.32
501.98	1239.02
502.18	1316.84
502.38	1275.88
502.58	1316.84
502.78	1296.36
502.98	1273.84
503.18	1345.52
503.38	1236.97
503.59	1296.36
503.79	1263.60
503.99	1206.25
504.19	1308.65
504.39	1239.02
504.59	1245.16
504.79	1263.60
504.99	1288.17
505.19	1232.88
505.39	1316.84
505.59	1198.06
505.79	1316.84
505.99	1269.74
506.19	1265.64
506.39	1331.18
506.59	1290.22
506.79	1294.32
506.99	1279.98
507.19	1277.93
507.39	1306.60
507.59	1249.26
507.79	1265.64
507.99	1187.82
508.19	1273.84
508.39	1200.11
508.59	1257.45
508.79	1327.08
508.99	1333.23
509.19	1251.31
509.39	1263.60
509.59	1306.60
509.79	1196.01
509.99	1345.52
510.19	1275.88
510.39	1308.65
510.59	1271.79
510.79	1329.13
510.99	1322.99
511.19	1284.08
511.39	1351.66
511.59	1380.33
511.79	1306.60
511.99	1320.94
512.19	1228.78
512.38	1257.45
512.58	1243.12
512.78	1331.18
512.98	1296.36
513.18	1245.16
513.38	1263.60
513.58	1312.75
513.78	1230.83
513.98	1247.21
514.18	1226.73
514.38	1347.56
514.58	1249.26
514.78	1239.02
514.98	1298.41
515.18	1312.75
515.38	1282.03
515.58	1292.27
515.78	1255.40
515.98	1267.69
516.18	1273.84
516.38	1318.89
516.57	1325.04
516.77	1286.12
516.97	1327.08
517.17	1265.64
517.37	1318.89
517.57	1318.89
517.77	1236.97
517.97	1288.17
518.17	1253.36
518.37	1212.40
518.57	1251.31
518.77	1263.60
518.97	1251.31
519.16	1292.27
519.36	1230.83
519.56	1275.88
519.76	1288.17
519.96	1263.60
520.16	1222.64
520.36	1306.60
520.56	1343.47
520.76	1355.76
520.96	1230.83
521.16	1312.75
521.35	1275.88
521.55	1228.78
521.75	1232.88
521.95	1269.74
522.15	1286.12
522.35	1275.88
522.55	1269.74
522.75	1267.69
522.95	1282.03
523.14	1265.64
523.34	1312.75
523.54	1294.32
523.74	1222.64
523.94	1279.98
524.14	1282.03
524.34	1247.21
524.54	1255.40
524.73	1290.22
524.93	1286.12
525.13	1304.56
525.33	1253.36
525.53	1279.98
525.73	1230.83
525.93	1230.83
526.13	1269.74
526.32	1245.16
526.52	1236.97
526.72	1292.27
526.92	1339.37
527.12	1306.60
527.32	1269.74
527.52	1255.40
527.71	1265.64
527.91	1312.75
528.11	1271.79
528.31	1290.22
528.51	1206.25
528.71	1314.80
528.90	1333.23
529.10	1257.45
529.30	1263.60
529.50	1271.79
529.70	1218.54
529.90	1298.41
530.09	1228.78
530.29	1355.76
530.49	1261.55
530.69	1290.22
530.89	1263.60
531.09	1288.17
531.28	1239.02
531.48	1249.26
531.68	1277.93
531.88	1366.00
532.08	1302.51
532.28	1249.26
532.47	1259.50
532.67	1271.79
532.87	1271.79
533.07	1304.56
533.27	1255.40
533.46	1273.84
533.66	1327.08
533.86	1269.74
534.06	1273.84
534.26	1275.88
534.45	1234.93
534.65	1349.61
534.85	1294.32
535.05	1275.88
535.25	1245.16
535.44	1245.16
535.64	1304.56
535.84	1282.03
536.04	1273.84
536.24	1349.61
536.43	1267.69
536.63	1308.65
536.83	1300.46
537.03	1329.13
537.22	1361.90
537.42	1302.51
537.62	1239.02
537.82	1247.21
538.02	1331.18
538.21	1370.09
538.41	1253.36
538.61	1298.41
538.81	1341.42
539.00	1298.41
539.20	1292.27
539.40	1277.93
539.60	1255.40
539.79	1318.89
539.99	1355.76
540.19	1243.12
540.39	1198.06
540.58	1204.21
540.78	1255.40
540.98	1277.93
541.18	1335.28
541.37	1247.21
541.57	1325.04
541.77	1322.99
541.97	1296.36
542.16	1337.32
542.36	1275.88
542.56	1286.12
542.76	1325.04
542.95	1273.84
543.15	1222.64
543.35	1308.65
543.54	1314.80
543.74	1290.22
543.94	1310.70
544.14	1222.64
544.33	1345.52
544.53	1271.79
544.73	1294.32
544.93	1265.64
545.12	1314.80
545.32	1214.45
545.52	1339.37
545.71	1316.84
545.91	1220.59
546.11	1263.60
546.30	1273.84
546.50	1279.98
546.70	1222.64
546.90	1214.45
547.09	1339.37
547.29	1304.56
547.49	1282.03
547.68	1304.56
547.88	1288.17
548.08	1273.84
548.27	1314.80
548.47	1269.74
548.67	1343.47
548.87	1308.65
549.06	1349.61
549.26	1320.94
549.46	1298.41
549.65	1275.88
549.85	1204.21
550.05	1284.08
550.24	1267.69
550.44	1282.03
550.64	1347.56
550.83	1259.50
551.03	1214.45
551.23	1320.94
551.42	1282.03
551.62	1298.41
551.82	1322.99
552.01	1253.36
552.21	1253.36
552.41	1298.41
552.60	1267.69
552.80	1273.84
553.00	1249.26
553.19	1331.18
553.39	1292.27
553.59	1282.03
553.78	1310.70
553.98	1236.97
554.17	1243.12
554.37	1288.17
554.57	1271.79
554.76	1298.41
554.96	1341.42
555.16	1284.08
555.35	1249.26
555.55	1306.60
555.75	1261.55
555.94	1286.12
556.14	1304.56
556.33	1245.16
556.53	1265.64
556.73	1312.75
556.92	1261.55
557.12	1320.94
557.32	1277.93
557.51	1310.70
557.71	1325.04
557.90	1290.22
558.10	1269.74
558.30	1325.04
558.49	1306.60
558.69	1255.40
558.88	1271.79
559.08	1333.23
559.28	1288.17
559.47	1253.36
559.67	1300.46
559.86	1298.41
560.06	1306.60
560.26	1300.46
560.45	1247.21
560.65	1271.79
560.84	1296.36
561.04	1232.88
561.24	1320.94
561.43	1243.12
561.63	1247.21
561.82	1243.12
562.02	1249.26
562.22	1312.75
562.41	1269.74
562.61	1261.55
562.80	1253.36
563.00	1261.55
563.19	1232.88
563.39	1339.37
563.59	1216.49
563.78	1284.08
563.98	1218.54
564.17	1277.93
564.37	1306.60
564.56	1271.79
564.76	1327.08
564.96	1247.21
565.15	1234.93
565.35	1298.41
565.54	1222.64
565.74	1255.40
565.93	1241.07
566.13	1302.51
566.32	1275.88
566.52	1312.75
566.71	1196.01
566.91	1273.84
567.11	1292.27
567.30	1327.08
567.50	1337.32
567.69	1234.93
567.89	1261.55
568.08	1296.36
568.28	1292.27
568.47	1253.36
568.67	1241.07
568.86	1259.50
569.06	1277.93
569.25	1253.36
569.45	1261.55
569.64	1284.08
569.84	1318.89
570.04	1206.25
570.23	1327.08
570.43	1282.03
570.62	1320.94
570.82	1296.36
571.01	1277.93
571.21	1327.08
571.40	1243.12
571.60	1298.41
571.79	1265.64
571.99	1216.49
572.18	1374.19
572.38	1251.31
572.57	1282.03
572.77	1331.18
572.96	1216.49
573.16	1298.41
573.35	1273.84
573.55	1239.02
573.74	1263.60
573.94	1306.60
574.13	1347.56
574.33	1290.22
574.52	1292.27
574.71	1271.79
574.91	1318.89
575.10	1269.74
575.30	1226.73
575.49	1202.16
575.69	1263.60
575.88	1271.79
576.08	1320.94
576.27	1296.36
576.47	1312.75
576.66	1282.03
576.86	1241.07
577.05	1310.70
577.25	1212.40
577.44	1236.97
577.64	1286.12
577.83	1269.74
578.02	1253.36
578.22	1337.32
578.41	1318.89
578.61	1249.26
578.80	1216.49
579.00	1290.22
579.19	1261.55
579.39	1325.04
579.58	1222.64
579.77	1302.51
579.97	1247.21
580.16	1292.27
580.36	1271.79
580.55	1288.17
580.75	1378.28
580.94	1306.60
581.13	1333.23
581.33	1288.17
581.52	1286.12
581.72	1206.25
581.91	1288.17
582.11	1232.88
582.30	1304.56
582.49	1267.69
582.69	1271.79
582.88	1298.41
583.08	1259.50
583.27	1302.51
583.47	1292.27
583.66	1312.75
583.85	1275.88
584.05	1355.76
584.24	1247.21
584.44	1255.40
584.63	1284.08
584.82	1243.12
585.02	1300.46
585.21	1312.75
585.41	1296.36
585.60	1286.12
585.79	1267.69
585.99	1320.94
586.18	1218.54
586.37	1279.98
586.57	1212.40
586.76	1310.70
586.96	1302.51
587.15	1306.60
587.34	1247.21
587.54	1185.77
587.73	1292.27
587.93	1249.26
588.12	1259.50
588.31	1312.75
588.51	1327.08
588.70	1269.74
588.89	1345.52
589.09	1247.21
589.28	1343.47
589.47	1288.17
589.67	1277.93
589.86	1286.12
590.06	1216.49
590.25	1220.59
590.44	1286.12
590.64	1259.50
590.83	1353.71
591.02	1302.51
591.22	1224.69
591.41	1275.88
591.60	1210.35
591.80	1296.36
591.99	1288.17
592.18	1314.80
592.38	1273.84
592.57	1339.37
592.76	1230.83
592.96	1279.98
593.15	1298.41
593.34	1255.40
593.54	1296.36
593.73	1284.08
593.92	1265.64
594.12	1314.80
594.31	1245.16
594.50	1355.76
594.70	1292.27
594.89	1331.18
595.08	1236.97
595.28	1230.83
595.47	1304.56
595.66	1277.93
595.86	1290.22
596.05	1255.40
596.24	1335.28
596.43	1294.32
596.63	1269.74
596.82	1302.51
597.01	1288.17
597.21	1316.84
597.40	1261.55
597.59	1214.45
597.79	1230.83
597.98	1298.41
598.17	1345.52
598.36	1282.03
598.56	1353.71
598.75	1271.79
598.94	1259.50
599.14	1302.51
599.33	1333.23
599.52	1304.56
599.71	1277.93
599.91	1216.49
600.10	1275.88
600.29	1322.99
600.48	1273.84
600.68	1253.36
600.87	1308.65
601.06	1220.59
601.26	1193.97
601.45	1279.98
601.64	1234.93
601.83	1277.93
602.03	1234.93
602.22	1232.88
602.41	1241.07
602.60	1253.36
602.80	1251.31
602.99	1310.70
603.18	1279.98
603.37	1290.22
603.57	1296.36
603.76	1327.08
603.95	1275.88
604.14	1284.08
604.34	1300.46
604.53	1236.97
604.72	1269.74
604.91	1284.08
605.10	1257.45
605.30	1339.37
605.49	1271.79
605.68	1232.88
605.87	1267.69
606.07	1261.55
606.26	1382.38
606.45	1279.98
606.64	1261.55
606.84	1222.64
607.03	1284.08
607.22	1271.79
607.41	1265.64
607.60	1251.31
607.80	1265.64
607.99	1308.65
608.18	1286.12
608.37	1333.23
608.56	1339.37
608.76	1226.73
608.95	1296.36
609.14	1316.84
609.33	1337.32
609.52	1243.12
609.72	1359.85
609.91	1273.84
610.10	1288.17
610.29	1314.80
610.48	1255.40
610.68	1282.03
610.87	1282.03
611.06	1335.28
611.25	1232.88
611.44	1232.88
611.63	1275.88
611.83	1296.36
612.02	1269.74
612.21	1300.46
612.40	1269.74
612.59	1279.98
612.79	1255.40
612.98	1318.89
613.17	1220.59
613.36	1357.80
613.55	1320.94
613.74	1284.08
613.93	1298.41
614.13	1261.55
614.32	1245.16
614.51	1304.56
614.70	1318.89
614.89	1306.60
615.08	1224.69
615.28	1327.08
615.47	1232.88
615.66	1320.94
615.85	1308.65
616.04	1269.74
616.23	1265.64
616.42	1259.50
616.62	1257.45
616.81	1247.21
617.00	1314.80
617.19	1239.02
617.38	1306.60
617.57	1329.13
617.76	1306.60
617.95	1318.89
618.15	1282.03
618.34	1241.07
618.53	1320.94
618.72	1265.64
618.91	1343.47
619.10	1267.69
619.29	1298.41
619.48	1282.03
619.68	1304.56
619.87	1257.45
620.06	1316.84
620.25	1310.70
620.44	1341.42
620.63	1279.98
620.82	1253.36
621.01	1325.04
621.20	1200.11
621.39	1298.41
621.59	1271.79
621.78	1331.18
621.97	1251.31
622.16	1302.51
622.35	1265.64
622.54	1212.40
622.73	1310.70
622.92	1314.80
623.11	1279.98
623.30	1216.49
623.49	1247.21
623.68	1310.70
623.88	1290.22
624.07	1314.80
624.26	1275.88
624.45	1331.18
624.64	1290.22
624.83	1282.03
625.02	1347.56
625.21	1345.52
625.40	1234.93
625.59	1284.08
625.78	1204.21
625.97	1314.80
626.16	1347.56
626.35	1347.56
626.54	1337.32
626.74	1288.17
626.93	1239.02
627.12	1335.28
627.31	1308.65
627.50	1347.56
627.69	1306.60
627.88	1306.60
628.07	1329.13
628.26	1292.27
628.45	1298.41
628.64	1306.60
628.83	1277.93
629.02	1271.79
629.21	1302.51
629.40	1282.03
629.59	1277.93
629.78	1370.09
629.97	1269.74
630.16	1249.26
630.35	1310.70
630.54	1329.13
630.73	1292.27
630.92	1320.94
631.11	1388.52
631.30	1300.46
631.49	1339.37
631.68	1855.46
631.87	5187.50
632.06	16889.60
632.25	32208.40
632.44	43054.45
632.63	53697.74
632.82	34225.65
633.01	9559.92
633.20	4493.24
633.39	4399.04
633.58	3452.88
633.77	2181.09
633.96	1701.86
634.15	1796.07
634.34	1779.68
634.53	1568.74
634.72	1619.94
634.91	1505.26
635.10	1556.46
635.29	1447.91
635.48	1529.83
635.67	1439.72
635.86	1454.06
636.05	1425.39
636.24	1388.52
636.43	1357.80
636.62	1374.19
636.81	1388.52
637.00	1343.47
637.19	1300.46
637.38	1368.04
637.57	1341.42
637.76	1363.95
637.95	1320.94
638.14	1353.71
638.33	1292.27
638.52	1290.22
638.71	1372.14
638.89	1288.17
639.08	1322.99
639.27	1279.98
639.46	1310.70
639.65	1288.17
639.84	1302.51
640.03	1404.91
640.22	1257.45
640.41	1284.08
640.60	1261.55
640.79	1302.51
640.98	1290.22
641.17	1243.12
641.36	1304.56
641.55	1294.32
641.74	1327.08
641.92	1259.50
642.11	1322.99
642.30	1372.14
642.49	1249.26
642.68	1273.84
642.87	1239.02
643.06	1302.51
643.25	1290.22
643.44	1282.03
643.63	1247.21
643.82	1314.80
644.00	1286.12
644.19	1275.88
644.38	1267.69
644.57	1253.36
644.76	1339.37
644.95	1214.45
645.14	1257.45
645.33	1243.12
645.52	1282.03
645.71	1308.65
645.89	1343.47
646.08	1271.79
646.27	1214.45
646.46	1271.79
646.65	1196.01
646.84	1314.80
647.03	1376.24
647.22	1316.84
647.40	1312.75
647.59	1331.18
647.78	1265.64
647.97	1325.04
648.16	1275.88
648.35	1306.60
648.54	1204.21
648.73	1314.80
648.91	1245.16
649.10	1218.54
649.29	1255.40
649.48	1269.74
649.67	1265.64
649.86	1249.26
650.05	1193.97
650.23	1232.88
650.42	1204.21
650.61	1277.93
650.80	1363.95
650.99	1189.87
651.18	1232.88
651.36	1290.22
651.55	1206.25
651.74	1261.55
651.93	1282.03
652.12	1230.83
652.31	1296.36
652.49	1333.23
652.68	1241.07
652.87	1257.45
653.06	1290.22
653.25	1288.17
653.44	1329.13
653.62	1224.69
653.81	1245.16
654.00	1282.03
654.19	1251.31
654.38	1296.36
654.56	1304.56
654.75	1187.82
654.94	1298.41
655.13	1165.29
655.32	1232.88
655.51	1247.21
655.69	1337.32
655.88	1357.80
656.07	1241.07
656.26	1226.73
656.45	1212.40
656.63	1304.56
656.82	1286.12
657.01	1253.36
657.20	1290.22
657.38	1234.93
657.57	1257.45
657.76	1320.94
657.95	1228.78
658.14	1210.35
658.32	1279.98
658.51	1308.65
658.70	1257.45
658.89	1337.32
659.08	1304.56
659.26	1298.41
659.45	1290.22
659.64	1282.03
659.83	1335.28
660.01	1318.89
660.20	1224.69
660.39	1353.71
660.58	1290.22
660.76	1347.56
660.95	1284.08
661.14	1257.45
661.33	1267.69
661.51	1292.27
661.70	1290.22
661.89	1325.04
662.08	1259.50
662.26	1259.50
662.45	1257.45
662.64	1308.65
662.83	1243.12
663.01	1196.01
663.20	1269.74
663.39	1236.97
663.58	1269.74
663.76	1300.46
663.95	1271.79
664.14	1216.49
664.32	1241.07
664.51	1298.41
664.70	1204.21
664.89	1288.17
665.07	1298.41
665.26	1204.21
665.45	1216.49
665.64	1296.36
665.82	1239.02
666.01	1263.60
666.20	1263.60
666.38	1245.16
666.57	1249.26
666.76	1257.45
666.95	1318.89
667.13	1200.11
667.32	1257.45
667.51	1261.55
667.69	1267.69
667.88	1290.22
668.07	1279.98
668.25	1277.93
668.44	1286.12
668.63	1243.12
668.81	1282.03
669.00	1325.04
669.19	1241.07
669.38	1263.60
669.56	1236.97
669.75	1306.60
669.94	1308.65
670.12	1167.34
670.31	1236.97
670.50	1241.07
670.68	1292.27
670.87	1230.83
671.06	1292.27
671.24	1249.26
671.43	1218.54
671.62	1298.41
671.80	1191.92
671.99	1253.36
672.18	1306.60
672.36	1314.80
672.55	1259.50
672.74	1214.45
672.92	1200.11
673.11	1277.93
673.29	1302.51
673.48	1200.11
673.67	1318.89
673.85	1245.16
674.04	1300.46
674.23	1279.98
674.41	1220.59
674.60	1249.26
674.79	1267.69
674.97	1200.11
675.16	1247.21
675.34	1257.45
675.53	1347.56
675.72	1220.59
675.90	1220.59
676.09	1245.16
676.28	1269.74
676.46	1259.50
676.65	1275.88
676.83	1310.70
677.02	1296.36
677.21	1277.93
677.39	1290.22
677.58	1300.46
677.77	1206.25
677.95	1144.81
678.14	1273.84
678.32	1265.64
678.51	1320.94
678.70	1290.22
678.88	1306.60
679.07	1298.41
679.25	1257.45
679.44	1187.82
679.63	1247.21
679.81	1279.98
680.00	1292.27
680.18	1292.27
680.37	1304.56
680.55	1234.93
680.74	1279.98
680.93	1333.23
681.11	1185.77
681.30	1239.02
681.48	1247.21
681.67	1200.11
681.85	1286.12
682.04	1275.88
682.23	1327.08
682.41	1210.35
682.60	1226.73
682.78	1304.56
682.97	1243.12
683.15	1241.07
683.34	1226.73
683.53	1210.35
683.71	1241.07
683.90	1282.03
684.08	1165.29
684.27	1273.84
684.45	1208.30
684.64	1327.08
684.82	1292.27
685.01	1232.88
685.19	1292.27
685.38	1382.38
685.57	1224.69
685.75	1284.08
685.94	1234.93
686.12	1294.32
686.31	1216.49
686.49	1183.73
686.68	1288.17
686.86	1296.36
687.05	1296.36
687.23	1255.40
687.42	1224.69
687.60	1259.50
687.79	1251.31
687.97	1271.79
688.16	1273.84
688.34	1216.49
688.53	1308.65
688.71	1310.70
688.90	1269.74
689.08	1290.22
689.27	1230.83
689.45	1284.08
689.64	1271.79
689.82	1282.03
690.01	1230.83
690.19	1269.74
690.38	1271.79
690.56	1245.16
690.75	1290.22
690.93	1234.93
691.12	1216.49
691.30	1312.75
691.49	1286.12
691.67	1249.26
691.86	1253.36
692.04	1273.84
692.23	1265.64
692.41	1265.64
692.60	1253.36
692.78	1214.45
692.97	1220.59
693.15	1263.60
693.34	1298.41
693.52	1265.64
693.71	1263.60
693.89	1241.07
694.08	1300.46
694.26	1239.02
694.44	1271.79
694.63	1331.18
694.81	1265.64
695.00	1263.60
695.18	1308.65
695.37	1343.47
695.55	1222.64
695.74	1331.18
695.92	1286.12
696.10	1271.79
696.29	1259.50
696.47	1239.02
696.66	1300.46
696.84	1261.55
697.03	1261.55
697.21	1284.08
697.40	1286.12
697.58	1282.03
697.76	1222.64
697.95	1316.84
698.13	1245.16
698.32	1306.60
698.50	1279.98
698.68	1243.12
698.87	1320.94
699.05	1271.79
699.24	1320.94
699.42	1269.74
699.61	1273.84
699.79	1230.83
699.97	1251.31
700.16	1155.05
700.34	1216.49
700.53	1204.21
700.71	1263.60
700.89	1312.75
701.08	1314.80
701.26	1308.65
701.45	1331.18
701.63	1234.93
701.81	1267.69
702.00	1314.80
702.18	1314.80
702.37	1306.60
702.55	1261.55
702.73	1275.88
702.92	1284.08
703.10	1271.79
703.28	1312.75
703.47	1247.21
703.65	1279.98
703.84	1282.03
704.02	1259.50
704.20	1271.79
704.39	1249.26
704.57	1208.30
704.75	1234.93
704.94	1200.11
705.12	1296.36
705.30	1306.60
705.49	1247.21
705.67	1300.46
705.86	1263.60
706.04	1241.07
706.22	1261.55
706.41	1282.03
706.59	1230.83
706.77	1257.45
706.96	1230.83
707.14	1259.50
707.32	1269.74
707.51	1239.02
707.69	1247.21
707.87	1263.60
708.06	1265.64
708.24	1310.70
708.42	1282.03
708.61	1284.08
708.79	1245.16
708.97	1243.12
709.16	1318.89
709.34	1253.36
709.52	1230.83
709.71	1300.46
709.89	1245.16
710.07	1265.64
710.26	1253.36
710.44	1282.03
710.62	1320.94
710.80	1249.26
710.99	1312.75
711.17	1396.71
711.35	1234.93
711.54	1175.53
711.72	1296.36
711.90	1241.07
712.09	1331.18
712.27	1241.07
712.45	1234.93
712.63	1331.18
712.82	1236.97
713.00	1257.45
713.18	1308.65
713.37	1245.16
713.55	1292.27
713.73	1236.97
713.91	1263.60
714.10	1279.98
714.28	1292.27
714.46	1239.02
714.65	1257.45
714.83	1255.40
715.01	1302.51
715.19	1271.79
715.38	1200.11
715.56	1322.99
715.74	1331.18
715.92	1253.36
716.11	1245.16
716.29	1279.98
716.47	1265.64
716.65	1263.60
716.84	1232.88
717.02	1257.45
717.20	1331.18
717.38	1269.74
717.57	1284.08
717.75	1249.26
717.93	1222.64
718.11	1320.94
718.30	1271.79
718.48	1279.98
718.66	1167.34
718.84	1247.21
719.03	1290.22
719.21	1243.12
719.39	1206.25
719.57	1290.22
719.75	1239.02
719.94	1261.55
720.12	1232.88
720.30	1247.21
720.48	1263.60
720.67	1239.02
720.85	1292.27
721.03	1232.88
721.21	1282.03
721.39	1220.59
721.58	1249.26
721.76	1243.12
721.94	1200.11
722.12	1241.07
722.30	1261.55
722.49	1230.83
722.67	1241.07
722.85	1302.51
723.03	1265.64
723.21	1179.63
723.40	1339.37
723.58	1263.60
723.76	1327.08
723.94	1320.94
724.12	1245.16
724.30	1204.21
724.49	1294.32
724.67	1302.51
724.85	1255.40
725.03	1376.24
725.21	1230.83
725.40	1275.88
725.58	1202.16
725.76	1226.73
725.94	1259.50
726.12	1228.78
726.30	1302.51
726.49	1273.84
726.67	1271.79
726.85	1271.79
727.03	1279.98
727.21	1226.73
727.39	1277.93
727.57	1296.36
727.76	1202.16
727.94	1277.93
728.12	1263.60
728.30	1306.60
728.48	1304.56
728.66	1239.02
728.84	1187.82
729.03	1224.69
729.21	1255.40
729.39	1253.36
729.57	1265.64
729.75	1370.09
729.93	1204.21
730.11	1165.29
730.30	1241.07
730.48	1288.17
730.66	1345.52
730.84	1316.84
731.02	1296.36
731.20	1236.97
731.38	1267.69
731.56	1286.12
731.74	1279.98
731.93	1314.80
732.11	1257.45
732.29	1222.64
732.47	1265.64
732.65	1284.08
732.83	1314.80
733.01	1300.46
733.19	1286.12
733.37	1257.45
733.56	1292.27
733.74	1290.22
733.92	1318.89
734.10	1310.70
734.28	1306.60
734.46	1267.69
734.64	1222.64
734.82	1275.88
735.00	1296.36
735.18	1308.65
735.36	1263.60
735.54	1292.27
735.73	1263.60
735.91	1277.93
736.09	1271.79
736.27	1331.18
736.45	1253.36
736.63	1265.64
736.81	1253.36
736.99	1310.70
737.17	1243.12
737.35	1257.45
737.53	1331.18
737.71	1241.07
737.89	1339.37
738.07	1282.03
738.25	1269.74
738.43	1206.25
738.61	1187.82
738.80	1296.36
738.98	1257.45
739.16	1282.03
739.34	1277.93
739.52	1208.30
739.70	1265.64
739.88	1253.36
740.06	1253.36
740.24	1286.12
740.42	1298.41
740.60	1253.36
740.78	1257.45
740.96	1218.54
741.14	1314.80
741.32	1253.36
741.50	1257.45
741.68	1322.99
741.86	1255.40
742.04	1216.49
742.22	1214.45
742.40	1300.46
742.58	1210.35
742.76	1212.40
742.94	1189.87
743.12	1198.06
743.30	1271.79
743.48	1261.55
743.66	1222.64
743.84	1255.40
744.02	1255.40
744.20	1251.31
744.38	1257.45
744.56	1310.70
744.74	1271.79
744.92	1273.84
745.10	1236.97
745.28	1322.99
745.46	1267.69
745.64	1277.93
745.82	1198.06
746.00	1327.08
746.18	1253.36
746.36	1198.06
746.54	1255.40
746.72	1304.56
746.90	1261.55
747.08	1222.64
747.26	1302.51
747.44	1306.60
747.62	1243.12
747.80	1210.35
747.98	1191.92
748.15	1193.97
748.33	1320.94
748.51	1333.23
748.69	1288.17
748.87	1247.21
749.05	1208.30
749.23	1312.75
749.41	1306.60
749.59	1243.12
749.77	1273.84
749.95	1263.60
750.13	1312.75
750.31	1322.99
750.49	1304.56
750.67	1331.18
750.85	1261.55
751.03	1316.84
751.20	1220.59
751.38	1292.27
751.56	1282.03
751.74	1294.32
751.92	1245.16
752.10	1279.98
752.28	1196.01
752.46	1300.46
752.64	1265.64
752.82	1226.73
753.00	1257.45
753.18	1257.45
753.35	1216.49
753.53	1302.51
753.71	1343.47
753.89	1294.32
754.07	1234.93
754.25	1286.12
754.43	1282.03
754.61	1273.84
754.79	1224.69
754.97	1263.60
755.14	1230.83
755.32	1298.41
755.50	1267.69
755.68	1245.16
755.86	1234.93
756.04	1267.69
756.22	1218.54
756.40	1314.80
756.57	1255.40
756.75	1273.84
756.93	1312.75
757.11	1255.40
757.29	1265.64
757.47	1339.37
757.65	1327.08
757.82	1267.69
758.00	1198.06
758.18	1271.79
758.36	1275.88
758.54	1294.32
758.72	1275.88
758.90	1220.59
759.07	1269.74
759.25	1292.27
759.43	1247.21
759.61	1263.60
759.79	1206.25
759.97	1263.60
760.15	1341.42
760.32	1273.84
760.50	1329.13
760.68	1208.30
760.86	1220.59
761.04	1265.64
761.22	1318.89
761.39	1220.59
761.57	1286.12
761.75	1210.35
761.93	1257.45
762.11	1267.69
762.28	1359.85
762.46	1226.73
762.64	1181.68
762.82	1224.69
763.00	1247.21
763.18	1222.64
763.35	1327.08
763.53	1224.69
763.71	1286.12
763.89	1224.69
764.07	1310.70
764.24	1320.94
764.42	1253.36
764.60	1304.56
764.78	1302.51
764.96	1239.02
765.13	1259.50
765.31	1292.27
765.49	1261.55
765.67	1320.94
765.84	1320.94
766.02	1294.32
766.20	1366.00
766.38	1308.65
766.56	1216.49
766.73	1265.64
766.91	1286.12
767.09	1261.55
767.27	1294.32
767.44	1271.79
767.62	1271.79
767.80	1284.08
767.98	1243.12
768.15	1255.40
768.33	1198.06
768.51	1282.03
768.69	1300.46
768.87	1230.83
769.04	1322.99
769.22	1333.23
769.40	1261.55
769.58	1275.88
769.75	1366.00
769.93	1265.64
770.11	1298.41
770.28	1232.88
770.46	1222.64
770.64	1273.84
770.82	1308.65
770.99	1275.88
771.17	1173.49
771.35	1306.60
771.53	1279.98
771.70	1247.21
771.88	1279.98
772.06	1310.70
772.23	1271.79
772.41	1384.43
772.59	1331.18
772.77	1200.11
772.94	1148.91
773.12	1251.31
773.30	1300.46
773.47	1271.79
773.65	1263.60
773.83	1265.64
774.01	1253.36
774.18	1218.54
774.36	1259.50
774.54	1249.26
774.71	1263.60
774.89	1257.45
775.07	1351.66
775.24	1322.99
775.42	1210.35
775.60	1269.74
775.78	1284.08
775.95	1247.21
776.13	1339.37
776.31	1243.12
776.48	1290.22
776.66	1294.32
776.84	1230.83
777.01	1296.36
777.19	1273.84
777.37	1279.98
777.54	1308.65
777.72	1318.89
777.90	1243.12
778.07	1232.88
778.25	1251.31
778.43	1282.03
778.60	1314.80
778.78	1208.30
778.96	1320.94
779.13	1339.37
779.31	1284.08
779.49	1249.26
779.66	1245.16
779.84	1206.25
780.01	1267.69
780.19	1214.45
780.37	1251.31
780.54	1224.69
780.72	1284.08
780.90	1325.04
781.07	1206.25
781.25	1288.17
781.43	1292.27
781.60	1257.45
781.78	1335.28
781.95	1304.56
782.13	1275.88
782.31	1314.80
782.48	1265.64
782.66	1265.64
782.83	1208.30
783.01	1257.45
783.19	1341.42
783.36	1228.78
783.54	1310.70
783.72	1290.22
783.89	1312.75
784.07	1290.22
784.24	1306.60
784.42	1245.16
784.60	1187.82
784.77	1175.53
784.95	1247.21
785.12	1255.40
785.30	1206.25
785.47	1298.41
785.65	1284.08
785.83	1243.12
786.00	1249.26
786.18	1206.25
786.35	1200.11
786.53	1327.08
786.71	1267.69
786.88	1306.60
787.06	1247.21
787.23	1327.08
787.41	1228.78
787.58	1265.64
787.76	1236.97
787.94	1261.55
788.11	1269.74
788.29	1300.46
788.46	1294.32
788.64	1359.85
788.81	1263.60
788.99	1261.55
789.16	1273.84
789.34	1253.36
789.52	1261.55
789.69	1304.56
789.87	1273.84
790.04	1277.93
790.22	1251.31
790.39	1277.93
790.57	1284.08
790.74	1286.12
790.92	1329.13
791.09	1273.84
791.27	1247.21
791.44	1294.32
791.62	1277.93
791.79	1239.02
791.97	1267.69
792.15	1245.16
792.32	1277.93
792.50	1284.08
792.67	1284.08
792.85	1267.69
793.02	1247.21
793.20	1288.17
793.37	1353.71
793.55	1236.97
793.72	1259.50
793.90	1316.84
794.07	1220.59
794.25	1292.27
794.42	1251.31
794.60	1243.12
794.77	1271.79
794.95	1218.54
795.12	1259.50
795.30	1288.17
795.47	1304.56
795.65	1249.26
795.82	1210.35
796.00	1224.69
796.17	1290.22
796.34	1273.84
796.52	1308.65
796.69	1189.87
796.87	1247.21
797.04	1198.06
797.22	1265.64
797.39	1288.17
797.57	1224.69
797.74	1208.30
797.92	1308.65
798.09	1273.84
798.27	1306.60
798.44	1228.78
798.62	1161.20
798.79	1290.22
798.96	1314.80
799.14	1181.68
799.31	1327.08
799.49	1318.89
799.66	1239.02
799.84	1226.73
800.01	1333.23
800.19	1282.03
800.36	1337.32
800.53	1357.80
800.71	1282.03
800.88	1277.93
801.06	1232.88
801.23	1230.83
801.41	1288.17
801.58	1226.73
801.75	1191.92
801.93	1286.12
802.10	1361.90
802.28	1331.18
802.45	1224.69
802.63	1208.30
802.80	1261.55
802.97	1230.83
803.15	1232.88
803.32	1279.98
803.50	1247.21
803.67	1228.78
803.84	1325.04
804.02	1284.08
804.19	1183.73
804.37	1226.73
804.54	1255.40
804.71	1257.45
804.89	1222.64
805.06	1310.70
805.24	1304.56
805.41	1275.88
805.58	1259.50
805.76	1243.12
805.93	1224.69
806.10	1265.64
806.28	1222.64
806.45	1302.51
806.63	1245.16
806.80	1230.83
806.97	1267.69
807.15	1236.97
807.32	1236.97
807.49	1251.31
807.67	1239.02
807.84	1290.22
808.01	1228.78
808.19	1292.27
808.36	1335.28
808.54	1292.27
808.71	1271.79
808.88	1302.51
809.06	1300.46
809.23	1310.70
809.40	1208.30
809.58	1286.12
809.75	1263.60
809.92	1249.26
810.10	1265.64
810.27	1257.45
810.44	1284.08
810.62	1224.69
810.79	1239.02
810.96	1212.40
811.14	1247.21
811.31	1261.55
811.48	1243.12
811.66	1286.12
811.83	1284.08
812.00	1214.45
812.18	1275.88
812.35	1290.22
812.52	1273.84
812.69	1286.12
812.87	1277.93
813.04	1222.64
813.21	1341.42
813.39	1267.69
813.56	1282.03
813.73	1294.32
813.91	1251.31
814.08	1279.98
814.25	1314.80
814.42	1316.84
814.60	1279.98
814.77	1255.40
814.94	1234.93
815.12	1292.27
815.29	1249.26
815.46	1273.84
815.63	1269.74
815.81	1216.49
815.98	1286.12
816.15	1275.88
816.33	1257.45
816.50	1306.60
816.67	1296.36
816.84	1222.64
817.02	1304.56
817.19	1259.50
817.36	1226.73
817.53	1206.25
817.71	1241.07
817.88	1247.21
818.05	1255.40
818.22	1222.64
818.40	1288.17
818.57	1226.73
818.74	1267.69
818.91	1206.25
819.09	1292.27
819.26	1263.60
819.43	1294.32
819.60	1167.34
819.78	1243.12
819.95	1239.02
820.12	1230.83
820.29	1208.30
820.47	1224.69
820.64	1259.50
820.81	1214.45
820.98	1241.07
821.15	1251.31
821.33	1282.03
821.50	1263.60
821.67	1273.84
821.84	1269.74
822.02	1282.03
822.19	1298.41
822.36	1196.01
822.53	1267.69
822.70	1298.41
822.88	1249.26
823.05	1296.36
823.22	1275.88
823.39	1206.25
823.56	1277.93
823.74	1273.84
823.91	1241.07
824.08	1288.17
824.25	1220.59
824.42	1247.21
824.60	1208.30
824.77	1304.56
824.94	1249.26
825.11	1259.50
825.28	1259.50
825.45	1298.41
825.63	1206.25
825.80	1243.12
825.97	1200.11
826.14	1257.45
826.31	1284.08
826.48	1230.83
826.66	1232.88
826.83	1245.16
827.00	1216.49
827.17	1171.44
827.34	1298.41
827.51	1279.98
827.69	1230.83
827.86	1378.28
828.03	1263.60
828.20	1247.21
828.37	1251.31
828.54	1198.06
828.71	1257.45
828.89	1224.69
829.06	1224.69
829.23	1318.89
829.40	1239.02
829.57	1275.88
829.74	1234.93
829.91	1249.26
830.09	1261.55
830.26	1247.21
830.43	1253.36
830.60	1296.36
830.77	1253.36
830.94	1273.84
831.11	1255.40
831.28	1304.56
831.46	1279.98
831.63	1265.64
831.80	1300.46
831.97	1314.80
832.14	1275.88
832.31	1296.36
832.48	1314.80
832.65	1251.31
832.82	1302.51
832.99	1292.27
833.17	1298.41
833.34	1275.88
833.51	1251.31
833.68	1243.12
833.85	1157.10
834.02	1296.36
834.19	1296.36
834.36	1226.73
834.53	1245.16
834.70	1177.58
834.87	1279.98
835.04	1335.28
835.22	1257.45
835.39	1312.75
835.56	1267.69
835.73	1257.45
835.90	1325.04
836.07	1249.26
836.24	1275.88
836.41	1298.41
836.58	1296.36
836.75	1282.03
836.92	1265.64
837.09	1282.03
837.26	1271.79
837.43	1241.07
837.60	1343.47
837.77	1236.97
837.94	1239.02
838.12	1351.66
838.29	1208.30
838.46	1226.73
838.63	1290.22
838.80	1216.49
838.97	1263.60
839.14	1206.25
839.31	1245.16
839.48	1310.70
839.65	1255.40
839.82	1263.60
839.99	1306.60
840.16	1245.16
840.33	1286.12
840.50	1247.21
840.67	1224.69
840.84	1288.17
841.01	1275.88
841.18	1282.03
841.35	1216.49
841.52	1247.21
841.69	1263.60
841.86	1292.27
842.03	1243.12
842.20	1296.36
842.37	1255.40
842.54	1359.85
842.71	1316.84
842.88	1296.36
843.05	1306.60
843.22	1320.94
843.39	1224.69
843.56	1310.70
843.73	1296.36
843.90	1316.84
844.07	1218.54
844.24	1175.53
844.41	1267.69
844.58	1249.26
844.75	1329.13
844.92	1226.73
845.09	1257.45
845.26	1288.17
845.43	1275.88
845.60	1265.64
845.77	1263.60
845.94	1249.26
846.10	1234.93
846.27	1308.65
846.44	1290.22
846.61	1253.36
846.78	1271.79
846.95	1230.83
847.12	1277.93
847.29	1214.45
847.46	1232.88
847.63	1335.28
847.80	1230.83
847.97	1222.64
848.14	1214.45
848.31	1259.50
848.48	1255.40
848.65	1255.40
848.82	1267.69
848.98	1263.60
849.15	1271.79
849.32	1267.69
849.49	1279.98
849.66	1263.60
849.83	1288.17
850.00	1259.50
850.17	1269.74
850.34	1241.07
850.51	1263.60
850.68	1304.56
850.85	1226.73
851.01	1189.87
851.18	1296.36
851.35	1239.02
851.52	1236.97
851.69	1175.53
851.86	1327.08
852.03	1200.11
852.20	1234.93
852.37	1322.99
852.53	1222.64
852.70	1241.07
852.87	1292.27
853.04	1271.79
853.21	1247.21
853.38	1312.75
853.55	1288.17
853.72	1292.27
853.89	1230.83
854.05	1271.79
854.22	1206.25
854.39	1312.75
854.56	1327.08
854.73	1265.64
854.90	1300.46
855.07	1245.16
855.23	1290.22
855.40	1193.97
855.57	1279.98
855.74	1265.64
855.91	1341.42
856.08	1296.36
856.25	1271.79
856.41	1249.26
856.58	1265.64
856.75	1241.07
856.92	1236.97
857.09	1239.02
857.26	1263.60
857.42	1249.26
857.59	1241.07
857.76	1294.32
857.93	1273.84
858.10	1232.88
858.27	1263.60
858.43	1269.74
858.60	1224.69
858.77	1255.40
858.94	1212.40
859.11	1216.49
859.27	1288.17
859.44	1298.41
859.61	1251.31
859.78	1245.16
859.95	1261.55
860.12	1286.12
860.28	1310.70
860.45	1249.26
860.62	1253.36
860.79	1277.93
860.95	1212.40
861.12	1247.21
861.29	1265.64
861.46	1318.89
861.63	1247.21
861.79	1284.08
861.96	1325.04
862.13	1335.28
862.30	1234.93
862.47	1251.31
862.63	1298.41
862.80	1284.08
862.97	1257.45
863.14	1232.88
863.30	1253.36
863.47	1290.22
863.64	1282.03
863.81	1230.83
863.97	1298.41
864.14	1204.21
864.31	1312.75
864.48	1216.49
864.65	1314.80
864.81	1259.50
864.98	1267.69
865.15	1286.12
865.32	1308.65
865.48	1245.16
865.65	1249.26
865.82	1228.78
865.98	1339.37
866.15	1288.17
866.32	1267.69
866.49	1302.51
866.65	1230.83
866.82	1277.93
866.99	1212.40
867.16	1243.12
867.32	1269.74
867.49	1257.45
867.66	1290.22
867.83	1236.97
867.99	1271.79
868.16	1271.79
868.33	1220.59
868.49	1255.40
868.66	1279.98
868.83	1300.46
868.99	1273.84
869.16	1253.36
869.33	1322.99
869.50	1396.71
869.66	1277.93
869.83	1212.40
870.00	1232.88
870.16	1306.60
870.33	1253.36
870.50	1265.64
870.66	1255.40
870.83	1286.12
871.00	1322.99
871.17	1234.93
871.33	1273.84
871.50	1267.69
871.67	1257.45
871.83	1212.40
872.00	1214.45
872.17	1224.69
872.33	1306.60
872.50	1290.22
872.67	1298.41
872.83	1314.80
873.00	1265.64
873.17	1241.07
873.33	1294.32
873.50	1341.42
873.67	1269.74
873.83	1232.88
874.00	1222.64
874.16	1351.66
874.33	1253.36
874.50	1222.64
874.66	1277.93
874.83	1198.06
875.00	1259.50
875.16	1241.07
875.33	1286.12
875.50	1308.65
875.66	1198.06
875.83	1222.64
875.99	1327.08
876.16	1273.84
876.33	1243.12
876.49	1304.56
876.66	1271.79
876.83	1267.69
876.99	1234.93
877.16	1226.73
877.32	1247.21
877.49	1267.69
877.66	1230.83
877.82	1239.02
877.99	1363.95
878.15	1232.88
878.32	1265.64
878.49	1247.21
878.65	1216.49
878.82	1292.27
878.98	1306.60
879.15	1292.27
879.32	1271.79
879.48	1224.69
879.65	1263.60
879.81	1257.45
879.98	1273.84
880.15	1236.97
880.31	1230.83
880.48	1331.18
880.64	1267.69
880.81	1275.88
880.97	1253.36
881.14	1300.46
881.31	1271.79
881.47	1290.22
881.64	1232.88
881.80	1218.54
881.97	1245.16
882.13	1290.22
882.30	1279.98
882.47	1243.12
882.63	1341.42
882.80	1228.78
882.96	1316.84
883.13	1224.69
883.29	1304.56
883.46	1282.03
883.62	1292.27
883.79	1224.69
883.95	1267.69
884.12	1226.73
884.29	1277.93
884.45	1333.23
884.62	1261.55
884.78	1249.26
884.95	1271.79
885.11	1245.16
885.28	1230.83
885.44	1216.49
885.61	1175.53
885.77	1245.16
885.94	1294.32
886.10	1275.88
886.27	1228.78
886.43	1257.45
886.60	1259.50
886.76	1216.49
886.93	1310.70
887.09	1333.23
887.26	1247.21
887.42	1241.07
887.59	1298.41
887.75	1298.41
887.92	1214.45
888.08	1306.60
888.25	1318.89
888.41	1284.08
888.58	1269.74
888.74	1298.41
888.91	1249.26
>>>>>End Processed Spectral Data<<<<<
