SpectraSuite Data File
++++++++++++++++++++++++++++++++++++
Date: Sun Apr 03 19:55:35 CEST 2016
User: root
Dark Spectrum Present: No
Reference Spectrum Present: No
Number of Sampled Component Spectra: 1
Spectrometers: USB4C02835
Integration Time (usec): 10000 (USB4C02835)
Spectra Averaged: 1 (USB4C02835)
Boxcar Smoothing: 0 (USB4C02835)
Correct for Electrical Dark: No (USB4C02835)
Strobe/Lamp Enabled: No (USB4C02835)
Correct for Detector Non-linearity: No (USB4C02835)
Correct for Stray Light: No (USB4C02835)
Number of Pixels in Processed Spectrum: 3648
>>>>>Begin Processed Spectral Data<<<<<
177.47	1208.30
177.69	1208.30
177.91	1208.30
178.13	1255.40
178.36	1163.25
178.58	1298.41
178.80	1296.36
179.02	1224.69
179.24	1310.70
179.46	1304.56
179.68	1273.84
179.90	1282.03
180.13	1292.27
180.35	1245.16
180.57	1251.31
180.79	1288.17
181.01	1245.16
181.23	1257.45
181.45	1232.88
181.67	1189.87
181.90	1298.41
182.12	1257.45
182.34	1279.98
182.56	1296.36
182.78	1216.49
183.00	1232.88
183.22	1210.35
183.44	1370.09
183.66	1249.26
183.89	1304.56
184.11	1148.91
184.33	1312.75
184.55	1208.30
184.77	1275.88
184.99	1216.49
185.21	1279.98
185.43	1312.75
185.65	1298.41
185.87	1316.84
186.10	1255.40
186.32	1196.01
186.54	1294.32
186.76	1271.79
186.98	1300.46
187.20	1206.25
187.42	1226.73
187.64	1271.79
187.86	1212.40
188.08	1339.37
188.30	1308.65
188.52	1386.47
188.75	1228.78
188.97	1228.78
189.19	1296.36
189.41	1267.69
189.63	1329.13
189.85	1259.50
190.07	1275.88
190.29	1261.55
190.51	1259.50
190.73	1255.40
190.95	1265.64
191.17	1224.69
191.39	1263.60
191.61	1357.80
191.84	1312.75
192.06	1290.22
192.28	1251.31
192.50	1273.84
192.72	1249.26
192.94	1232.88
193.16	1200.11
193.38	1306.60
193.60	1142.77
193.82	1232.88
194.04	1232.88
194.26	1286.12
194.48	1171.44
194.70	1230.83
194.92	1290.22
195.14	1269.74
195.36	1210.35
195.58	1306.60
195.80	1228.78
196.02	1230.83
196.24	1247.21
196.46	1349.61
196.69	1259.50
196.91	1263.60
197.13	1236.97
197.35	1228.78
197.57	1253.36
197.79	1222.64
198.01	1339.37
198.23	1296.36
198.45	1306.60
198.67	1269.74
198.89	1347.56
199.11	1296.36
199.33	1259.50
199.55	1302.51
199.77	1310.70
199.99	1257.45
200.21	1259.50
200.43	1226.73
200.65	1282.03
200.87	1196.01
201.09	1304.56
201.31	1294.32
201.53	1261.55
201.75	1275.88
201.97	1298.41
202.19	1343.47
202.41	1243.12
202.63	1228.78
202.85	1259.50
203.07	1230.83
203.29	1327.08
203.51	1286.12
203.73	1224.69
203.95	1284.08
204.17	1310.70
204.39	1263.60
204.61	1327.08
204.83	1267.69
205.05	1214.45
205.27	1284.08
205.49	1226.73
205.71	1339.37
205.93	1253.36
206.15	1239.02
206.37	1273.84
206.59	1255.40
206.81	1249.26
207.03	1286.12
207.25	1310.70
207.47	1269.74
207.69	1310.70
207.91	1263.60
208.13	1177.58
208.34	1310.70
208.56	1204.21
208.78	1271.79
209.00	1245.16
209.22	1294.32
209.44	1359.85
209.66	1251.31
209.88	1228.78
210.10	1241.07
210.32	1218.54
210.54	1312.75
210.76	1224.69
210.98	1325.04
211.20	1202.16
211.42	1282.03
211.64	1230.83
211.86	1306.60
212.08	1214.45
212.30	1282.03
212.52	1253.36
212.74	1298.41
212.96	1251.31
213.17	1273.84
213.39	1220.59
213.61	1261.55
213.83	1292.27
214.05	1318.89
214.27	1320.94
214.49	1198.06
214.71	1255.40
214.93	1347.56
215.15	1271.79
215.37	1247.21
215.59	1294.32
215.81	1232.88
216.03	1290.22
216.24	1239.02
216.46	1302.51
216.68	1212.40
216.90	1259.50
217.12	1290.22
217.34	1218.54
217.56	1198.06
217.78	1243.12
218.00	1236.97
218.22	1245.16
218.44	1167.34
218.66	1308.65
218.87	1345.52
219.09	1314.80
219.31	1251.31
219.53	1337.32
219.75	1349.61
219.97	1302.51
220.19	1279.98
220.41	1245.16
220.63	1288.17
220.85	1308.65
221.06	1277.93
221.28	1279.98
221.50	1316.84
221.72	1275.88
221.94	1341.42
222.16	1253.36
222.38	1308.65
222.60	1277.93
222.82	1275.88
223.03	1247.21
223.25	1277.93
223.47	1282.03
223.69	1284.08
223.91	1265.64
224.13	1275.88
224.35	1282.03
224.57	1351.66
224.78	1253.36
225.00	1353.71
225.22	1247.21
225.44	1263.60
225.66	1273.84
225.88	1259.50
226.10	1339.37
226.32	1267.69
226.53	1261.55
226.75	1286.12
226.97	1179.63
227.19	1200.11
227.41	1183.73
227.63	1257.45
227.85	1261.55
228.06	1255.40
228.28	1290.22
228.50	1298.41
228.72	1288.17
228.94	1245.16
229.16	1312.75
229.37	1282.03
229.59	1267.69
229.81	1196.01
230.03	1249.26
230.25	1314.80
230.47	1261.55
230.69	1191.92
230.90	1277.93
231.12	1255.40
231.34	1296.36
231.56	1251.31
231.78	1232.88
232.00	1230.83
232.21	1204.21
232.43	1288.17
232.65	1257.45
232.87	1355.76
233.09	1257.45
233.30	1261.55
233.52	1249.26
233.74	1239.02
233.96	1239.02
234.18	1259.50
234.40	1267.69
234.61	1335.28
234.83	1198.06
235.05	1191.92
235.27	1267.69
235.49	1259.50
235.70	1269.74
235.92	1308.65
236.14	1169.39
236.36	1243.12
236.58	1275.88
236.79	1310.70
237.01	1181.68
237.23	1263.60
237.45	1290.22
237.67	1228.78
237.88	1255.40
238.10	1255.40
238.32	1339.37
238.54	1312.75
238.76	1208.30
238.97	1308.65
239.19	1269.74
239.41	1263.60
239.63	1269.74
239.85	1249.26
240.06	1181.68
240.28	1253.36
240.50	1327.08
240.72	1318.89
240.93	1312.75
241.15	1292.27
241.37	1263.60
241.59	1380.33
241.81	1259.50
242.02	1314.80
242.24	1327.08
242.46	1241.07
242.68	1267.69
242.89	1259.50
243.11	1257.45
243.33	1282.03
243.55	1200.11
243.76	1236.97
243.98	1253.36
244.20	1271.79
244.42	1265.64
244.64	1357.80
244.85	1249.26
245.07	1269.74
245.29	1253.36
245.51	1318.89
245.72	1306.60
245.94	1327.08
246.16	1288.17
246.38	1236.97
246.59	1269.74
246.81	1290.22
247.03	1257.45
247.24	1249.26
247.46	1218.54
247.68	1241.07
247.90	1351.66
248.11	1300.46
248.33	1384.43
248.55	1267.69
248.77	1214.45
248.98	1343.47
249.20	1298.41
249.42	1298.41
249.64	1271.79
249.85	1239.02
250.07	1208.30
250.29	1241.07
250.50	1290.22
250.72	1239.02
250.94	1265.64
251.16	1269.74
251.37	1196.01
251.59	1296.36
251.81	1243.12
252.02	1265.64
252.24	1263.60
252.46	1241.07
252.68	1232.88
252.89	1263.60
253.11	1243.12
253.33	1310.70
253.54	1325.04
253.76	1271.79
253.98	1288.17
254.20	1296.36
254.41	1263.60
254.63	1261.55
254.85	1329.13
255.06	1265.64
255.28	1322.99
255.50	1290.22
255.71	1277.93
255.93	1265.64
256.15	1263.60
256.36	1271.79
256.58	1253.36
256.80	1263.60
257.02	1339.37
257.23	1245.16
257.45	1226.73
257.67	1331.18
257.88	1261.55
258.10	1269.74
258.32	1245.16
258.53	1290.22
258.75	1290.22
258.97	1222.64
259.18	1312.75
259.40	1294.32
259.62	1273.84
259.83	1345.52
260.05	1329.13
260.27	1329.13
260.48	1275.88
260.70	1210.35
260.92	1247.21
261.13	1261.55
261.35	1320.94
261.57	1322.99
261.78	1245.16
262.00	1226.73
262.22	1306.60
262.43	1308.65
262.65	1216.49
262.86	1218.54
263.08	1224.69
263.30	1308.65
263.51	1241.07
263.73	1185.77
263.95	1329.13
264.16	1241.07
264.38	1273.84
264.60	1259.50
264.81	1277.93
265.03	1290.22
265.25	1279.98
265.46	1277.93
265.68	1306.60
265.89	1302.51
266.11	1214.45
266.33	1257.45
266.54	1349.61
266.76	1282.03
266.98	1275.88
267.19	1222.64
267.41	1288.17
267.62	1282.03
267.84	1282.03
268.06	1312.75
268.27	1279.98
268.49	1251.31
268.70	1224.69
268.92	1341.42
269.14	1269.74
269.35	1277.93
269.57	1302.51
269.79	1267.69
270.00	1329.13
270.22	1232.88
270.43	1265.64
270.65	1236.97
270.87	1234.93
271.08	1206.25
271.30	1214.45
271.51	1318.89
271.73	1282.03
271.95	1277.93
272.16	1292.27
272.38	1284.08
272.59	1308.65
272.81	1191.92
273.02	1253.36
273.24	1253.36
273.46	1212.40
273.67	1275.88
273.89	1245.16
274.10	1331.18
274.32	1179.63
274.54	1234.93
274.75	1261.55
274.97	1239.02
275.18	1191.92
275.40	1239.02
275.61	1302.51
275.83	1306.60
276.05	1249.26
276.26	1267.69
276.48	1304.56
276.69	1343.47
276.91	1257.45
277.12	1294.32
277.34	1300.46
277.55	1337.32
277.77	1253.36
277.99	1263.60
278.20	1185.77
278.42	1327.08
278.63	1239.02
278.85	1284.08
279.06	1294.32
279.28	1253.36
279.49	1275.88
279.71	1341.42
279.93	1208.30
280.14	1282.03
280.36	1265.64
280.57	1279.98
280.79	1325.04
281.00	1279.98
281.22	1249.26
281.43	1228.78
281.65	1214.45
281.86	1302.51
282.08	1241.07
282.29	1284.08
282.51	1249.26
282.73	1214.45
282.94	1226.73
283.16	1261.55
283.37	1343.47
283.59	1232.88
283.80	1257.45
284.02	1265.64
284.23	1349.61
284.45	1265.64
284.66	1294.32
284.88	1251.31
285.09	1259.50
285.31	1228.78
285.52	1261.55
285.74	1210.35
285.95	1290.22
286.17	1247.21
286.38	1282.03
286.60	1267.69
286.81	1267.69
287.03	1273.84
287.24	1239.02
287.46	1216.49
287.67	1251.31
287.89	1337.32
288.10	1269.74
288.32	1273.84
288.53	1218.54
288.75	1329.13
288.96	1271.79
289.18	1247.21
289.39	1308.65
289.61	1228.78
289.82	1249.26
290.04	1263.60
290.25	1292.27
290.47	1257.45
290.68	1220.59
290.90	1218.54
291.11	1286.12
291.33	1273.84
291.54	1304.56
291.76	1265.64
291.97	1257.45
292.18	1335.28
292.40	1288.17
292.61	1277.93
292.83	1331.18
293.04	1271.79
293.26	1261.55
293.47	1284.08
293.69	1288.17
293.90	1255.40
294.12	1282.03
294.33	1304.56
294.55	1275.88
294.76	1286.12
294.97	1273.84
295.19	1261.55
295.40	1247.21
295.62	1228.78
295.83	1314.80
296.05	1208.30
296.26	1183.73
296.48	1267.69
296.69	1300.46
296.90	1298.41
297.12	1218.54
297.33	1257.45
297.55	1357.80
297.76	1322.99
297.98	1314.80
298.19	1247.21
298.41	1214.45
298.62	1222.64
298.83	1273.84
299.05	1232.88
299.26	1251.31
299.48	1318.89
299.69	1275.88
299.90	1282.03
300.12	1230.83
300.33	1255.40
300.55	1310.70
300.76	1202.16
300.98	1306.60
301.19	1241.07
301.40	1298.41
301.62	1171.44
301.83	1275.88
302.05	1269.74
302.26	1239.02
302.47	1263.60
302.69	1226.73
302.90	1327.08
303.12	1277.93
303.33	1304.56
303.54	1298.41
303.76	1259.50
303.97	1290.22
304.19	1277.93
304.40	1282.03
304.61	1286.12
304.83	1253.36
305.04	1259.50
305.26	1331.18
305.47	1310.70
305.68	1265.64
305.90	1232.88
306.11	1284.08
306.33	1214.45
306.54	1271.79
306.75	1214.45
306.97	1222.64
307.18	1284.08
307.39	1292.27
307.61	1302.51
307.82	1269.74
308.04	1353.71
308.25	1366.00
308.46	1275.88
308.68	1284.08
308.89	1251.31
309.10	1320.94
309.32	1331.18
309.53	1294.32
309.74	1277.93
309.96	1210.35
310.17	1253.36
310.39	1249.26
310.60	1243.12
310.81	1218.54
311.03	1302.51
311.24	1173.49
311.45	1288.17
311.67	1243.12
311.88	1341.42
312.09	1312.75
312.31	1345.52
312.52	1318.89
312.73	1251.31
312.95	1273.84
313.16	1204.21
313.37	1243.12
313.59	1214.45
313.80	1314.80
314.01	1359.85
314.23	1265.64
314.44	1343.47
314.65	1286.12
314.87	1257.45
315.08	1247.21
315.29	1292.27
315.51	1325.04
315.72	1341.42
315.93	1279.98
316.15	1286.12
316.36	1222.64
316.57	1234.93
316.79	1216.49
317.00	1239.02
317.21	1265.64
317.43	1269.74
317.64	1300.46
317.85	1251.31
318.07	1202.16
318.28	1239.02
318.49	1267.69
318.70	1292.27
318.92	1302.51
319.13	1236.97
319.34	1236.97
319.56	1255.40
319.77	1279.98
319.98	1265.64
320.20	1251.31
320.41	1312.75
320.62	1177.58
320.83	1271.79
321.05	1263.60
321.26	1343.47
321.47	1255.40
321.69	1183.73
321.90	1277.93
322.11	1286.12
322.32	1206.25
322.54	1214.45
322.75	1249.26
322.96	1277.93
323.18	1296.36
323.39	1282.03
323.60	1277.93
323.81	1257.45
324.03	1304.56
324.24	1282.03
324.45	1265.64
324.66	1284.08
324.88	1357.80
325.09	1224.69
325.30	1245.16
325.52	1226.73
325.73	1349.61
325.94	1290.22
326.15	1312.75
326.37	1249.26
326.58	1245.16
326.79	1259.50
327.00	1259.50
327.22	1187.82
327.43	1198.06
327.64	1286.12
327.85	1251.31
328.07	1267.69
328.28	1239.02
328.49	1163.25
328.70	1314.80
328.92	1284.08
329.13	1224.69
329.34	1261.55
329.55	1255.40
329.76	1226.73
329.98	1193.97
330.19	1247.21
330.40	1265.64
330.61	1316.84
330.83	1222.64
331.04	1241.07
331.25	1288.17
331.46	1279.98
331.68	1312.75
331.89	1232.88
332.10	1224.69
332.31	1241.07
332.52	1277.93
332.74	1236.97
332.95	1275.88
333.16	1292.27
333.37	1241.07
333.58	1247.21
333.80	1230.83
334.01	1316.84
334.22	1310.70
334.43	1202.16
334.64	1253.36
334.86	1191.92
335.07	1140.72
335.28	1292.27
335.49	1279.98
335.70	1191.92
335.92	1187.82
336.13	1257.45
336.34	1290.22
336.55	1290.22
336.76	1239.02
336.98	1325.04
337.19	1247.21
337.40	1277.93
337.61	1226.73
337.82	1220.59
338.04	1255.40
338.25	1243.12
338.46	1206.25
338.67	1335.28
338.88	1228.78
339.09	1265.64
339.31	1329.13
339.52	1290.22
339.73	1153.01
339.94	1306.60
340.15	1228.78
340.36	1329.13
340.58	1255.40
340.79	1300.46
341.00	1300.46
341.21	1304.56
341.42	1208.30
341.63	1265.64
341.85	1241.07
342.06	1245.16
342.27	1241.07
342.48	1296.36
342.69	1273.84
342.90	1259.50
343.12	1325.04
343.33	1271.79
343.54	1228.78
343.75	1282.03
343.96	1204.21
344.17	1265.64
344.38	1224.69
344.60	1304.56
344.81	1214.45
345.02	1241.07
345.23	1302.51
345.44	1300.46
345.65	1271.79
345.86	1288.17
346.07	1300.46
346.29	1214.45
346.50	1314.80
346.71	1290.22
346.92	1337.32
347.13	1308.65
347.34	1333.23
347.55	1261.55
347.76	1257.45
347.98	1284.08
348.19	1236.97
348.40	1259.50
348.61	1257.45
348.82	1298.41
349.03	1267.69
349.24	1218.54
349.45	1329.13
349.66	1181.68
349.88	1224.69
350.09	1277.93
350.30	1288.17
350.51	1265.64
350.72	1253.36
350.93	1253.36
351.14	1241.07
351.35	1243.12
351.56	1259.50
351.77	1255.40
351.99	1302.51
352.20	1279.98
352.41	1306.60
352.62	1275.88
352.83	1306.60
353.04	1263.60
353.25	1279.98
353.46	1327.08
353.67	1208.30
353.88	1320.94
354.09	1302.51
354.30	1247.21
354.52	1226.73
354.73	1279.98
354.94	1306.60
355.15	1261.55
355.36	1298.41
355.57	1232.88
355.78	1288.17
355.99	1277.93
356.20	1286.12
356.41	1337.32
356.62	1277.93
356.83	1263.60
357.04	1288.17
357.25	1214.45
357.46	1269.74
357.68	1282.03
357.89	1265.64
358.10	1212.40
358.31	1251.31
358.52	1249.26
358.73	1249.26
358.94	1251.31
359.15	1282.03
359.36	1314.80
359.57	1290.22
359.78	1314.80
359.99	1257.45
360.20	1312.75
360.41	1257.45
360.62	1232.88
360.83	1247.21
361.04	1302.51
361.25	1249.26
361.46	1284.08
361.67	1243.12
361.88	1259.50
362.09	1257.45
362.30	1267.69
362.51	1265.64
362.72	1325.04
362.93	1243.12
363.14	1208.30
363.35	1290.22
363.56	1218.54
363.78	1239.02
363.99	1253.36
364.20	1282.03
364.41	1202.16
364.62	1298.41
364.83	1234.93
365.04	1230.83
365.25	1185.77
365.46	1257.45
365.67	1286.12
365.88	1353.71
366.09	1271.79
366.30	1259.50
366.51	1316.84
366.72	1318.89
366.93	1267.69
367.14	1308.65
367.35	1271.79
367.56	1204.21
367.77	1265.64
367.98	1210.35
368.18	1306.60
368.39	1306.60
368.60	1275.88
368.81	1275.88
369.02	1249.26
369.23	1224.69
369.44	1314.80
369.65	1251.31
369.86	1241.07
370.07	1234.93
370.28	1253.36
370.49	1308.65
370.70	1288.17
370.91	1265.64
371.12	1263.60
371.33	1230.83
371.54	1269.74
371.75	1269.74
371.96	1341.42
372.17	1251.31
372.38	1267.69
372.59	1220.59
372.80	1294.32
373.01	1234.93
373.22	1247.21
373.43	1224.69
373.64	1325.04
373.85	1294.32
374.06	1265.64
374.26	1310.70
374.47	1290.22
374.68	1290.22
374.89	1253.36
375.10	1253.36
375.31	1314.80
375.52	1249.26
375.73	1226.73
375.94	1216.49
376.15	1298.41
376.36	1255.40
376.57	1277.93
376.78	1277.93
376.99	1267.69
377.20	1310.70
377.40	1191.92
377.61	1271.79
377.82	1271.79
378.03	1296.36
378.24	1198.06
378.45	1310.70
378.66	1284.08
378.87	1294.32
379.08	1255.40
379.29	1216.49
379.50	1271.79
379.71	1327.08
379.91	1255.40
380.12	1277.93
380.33	1284.08
380.54	1220.59
380.75	1304.56
380.96	1257.45
381.17	1222.64
381.38	1318.89
381.59	1155.05
381.80	1216.49
382.00	1273.84
382.21	1226.73
382.42	1288.17
382.63	1222.64
382.84	1249.26
383.05	1230.83
383.26	1247.21
383.47	1232.88
383.68	1290.22
383.88	1144.81
384.09	1325.04
384.30	1275.88
384.51	1263.60
384.72	1341.42
384.93	1279.98
385.14	1310.70
385.35	1230.83
385.55	1296.36
385.76	1239.02
385.97	1277.93
386.18	1273.84
386.39	1331.18
386.60	1296.36
386.81	1290.22
387.02	1200.11
387.22	1259.50
387.43	1261.55
387.64	1304.56
387.85	1255.40
388.06	1224.69
388.27	1273.84
388.48	1257.45
388.68	1286.12
388.89	1249.26
389.10	1247.21
389.31	1239.02
389.52	1253.36
389.73	1243.12
389.93	1249.26
390.14	1279.98
390.35	1208.30
390.56	1212.40
390.77	1269.74
390.98	1279.98
391.18	1251.31
391.39	1273.84
391.60	1230.83
391.81	1193.97
392.02	1329.13
392.23	1296.36
392.43	1282.03
392.64	1247.21
392.85	1247.21
393.06	1271.79
393.27	1216.49
393.47	1333.23
393.68	1310.70
393.89	1359.85
394.10	1269.74
394.31	1294.32
394.52	1269.74
394.72	1275.88
394.93	1277.93
395.14	1312.75
395.35	1265.64
395.56	1288.17
395.76	1243.12
395.97	1286.12
396.18	1284.08
396.39	1265.64
396.60	1191.92
396.80	1290.22
397.01	1304.56
397.22	1282.03
397.43	1337.32
397.64	1359.85
397.84	1261.55
398.05	1353.71
398.26	1239.02
398.47	1273.84
398.67	1322.99
398.88	1249.26
399.09	1212.40
399.30	1273.84
399.51	1243.12
399.71	1193.97
399.92	1224.69
400.13	1261.55
400.34	1288.17
400.54	1300.46
400.75	1282.03
400.96	1247.21
401.17	1241.07
401.37	1239.02
401.58	1236.97
401.79	1239.02
402.00	1191.92
402.21	1329.13
402.41	1226.73
402.62	1245.16
402.83	1290.22
403.04	1255.40
403.24	1282.03
403.45	1191.92
403.66	1314.80
403.87	1292.27
404.07	1282.03
404.28	1282.03
404.49	1232.88
404.70	1216.49
404.90	1296.36
405.11	1316.84
405.32	1249.26
405.52	1292.27
405.73	1222.64
405.94	1275.88
406.15	1263.60
406.35	1255.40
406.56	1261.55
406.77	1263.60
406.98	1314.80
407.18	1253.36
407.39	1294.32
407.60	1224.69
407.80	1279.98
408.01	1220.59
408.22	1204.21
408.43	1265.64
408.63	1247.21
408.84	1310.70
409.05	1214.45
409.25	1228.78
409.46	1241.07
409.67	1228.78
409.88	1292.27
410.08	1232.88
410.29	1263.60
410.50	1241.07
410.70	1224.69
410.91	1261.55
411.12	1327.08
411.32	1290.22
411.53	1263.60
411.74	1288.17
411.95	1273.84
412.15	1308.65
412.36	1191.92
412.57	1333.23
412.77	1314.80
412.98	1353.71
413.19	1245.16
413.39	1259.50
413.60	1331.18
413.81	1253.36
414.01	1263.60
414.22	1247.21
414.43	1302.51
414.63	1253.36
414.84	1296.36
415.05	1159.15
415.25	1208.30
415.46	1300.46
415.67	1277.93
415.87	1230.83
416.08	1259.50
416.29	1341.42
416.49	1241.07
416.70	1232.88
416.91	1320.94
417.11	1312.75
417.32	1247.21
417.53	1290.22
417.73	1294.32
417.94	1222.64
418.15	1206.25
418.35	1298.41
418.56	1241.07
418.77	1220.59
418.97	1193.97
419.18	1222.64
419.38	1228.78
419.59	1308.65
419.80	1335.28
420.00	1288.17
420.21	1318.89
420.42	1296.36
420.62	1261.55
420.83	1245.16
421.04	1204.21
421.24	1312.75
421.45	1277.93
421.65	1318.89
421.86	1318.89
422.07	1320.94
422.27	1322.99
422.48	1312.75
422.69	1247.21
422.89	1316.84
423.10	1302.51
423.30	1224.69
423.51	1251.31
423.72	1298.41
423.92	1353.71
424.13	1259.50
424.33	1279.98
424.54	1234.93
424.75	1304.56
424.95	1247.21
425.16	1312.75
425.36	1267.69
425.57	1308.65
425.78	1314.80
425.98	1339.37
426.19	1312.75
426.39	1241.07
426.60	1292.27
426.81	1296.36
427.01	1251.31
427.22	1302.51
427.42	1290.22
427.63	1288.17
427.83	1316.84
428.04	1263.60
428.25	1279.98
428.45	1216.49
428.66	1261.55
428.86	1259.50
429.07	1253.36
429.28	1230.83
429.48	1290.22
429.69	1329.13
429.89	1343.47
430.10	1310.70
430.30	1273.84
430.51	1366.00
430.71	1175.53
430.92	1306.60
431.13	1202.16
431.33	1282.03
431.54	1275.88
431.74	1247.21
431.95	1349.61
432.15	1308.65
432.36	1187.82
432.56	1343.47
432.77	1255.40
432.98	1286.12
433.18	1300.46
433.39	1284.08
433.59	1282.03
433.80	1329.13
434.00	1288.17
434.21	1296.36
434.41	1296.36
434.62	1286.12
434.82	1275.88
435.03	1302.51
435.23	1196.01
435.44	1196.01
435.64	1275.88
435.85	1282.03
436.06	1247.21
436.26	1333.23
436.47	1284.08
436.67	1267.69
436.88	1284.08
437.08	1236.97
437.29	1279.98
437.49	1269.74
437.70	1282.03
437.90	1263.60
438.11	1224.69
438.31	1288.17
438.52	1329.13
438.72	1314.80
438.93	1273.84
439.13	1198.06
439.34	1234.93
439.54	1263.60
439.75	1241.07
439.95	1306.60
440.16	1228.78
440.36	1226.73
440.57	1208.30
440.77	1345.52
440.98	1267.69
441.18	1269.74
441.39	1318.89
441.59	1222.64
441.80	1284.08
442.00	1296.36
442.21	1269.74
442.41	1329.13
442.62	1329.13
442.82	1216.49
443.02	1257.45
443.23	1314.80
443.43	1325.04
443.64	1279.98
443.84	1282.03
444.05	1298.41
444.25	1275.88
444.46	1325.04
444.66	1302.51
444.87	1187.82
445.07	1263.60
445.28	1292.27
445.48	1386.47
445.69	1316.84
445.89	1306.60
446.09	1310.70
446.30	1290.22
446.50	1288.17
446.71	1304.56
446.91	1300.46
447.12	1288.17
447.32	1275.88
447.53	1243.12
447.73	1169.39
447.93	1288.17
448.14	1306.60
448.34	1320.94
448.55	1273.84
448.75	1335.28
448.96	1355.76
449.16	1255.40
449.36	1261.55
449.57	1259.50
449.77	1298.41
449.98	1292.27
450.18	1241.07
450.39	1296.36
450.59	1218.54
450.79	1296.36
451.00	1220.59
451.20	1249.26
451.41	1271.79
451.61	1302.51
451.81	1216.49
452.02	1310.70
452.22	1257.45
452.43	1298.41
452.63	1279.98
452.84	1245.16
453.04	1279.98
453.24	1257.45
453.45	1265.64
453.65	1239.02
453.86	1292.27
454.06	1236.97
454.26	1325.04
454.47	1290.22
454.67	1239.02
454.87	1243.12
455.08	1302.51
455.28	1224.69
455.49	1290.22
455.69	1269.74
455.89	1271.79
456.10	1327.08
456.30	1314.80
456.51	1275.88
456.71	1298.41
456.91	1288.17
457.12	1322.99
457.32	1257.45
457.52	1261.55
457.73	1265.64
457.93	1304.56
458.14	1300.46
458.34	1234.93
458.54	1253.36
458.75	1253.36
458.95	1239.02
459.15	1318.89
459.36	1306.60
459.56	1261.55
459.76	1314.80
459.97	1314.80
460.17	1218.54
460.37	1339.37
460.58	1343.47
460.78	1302.51
460.99	1216.49
461.19	1249.26
461.39	1349.61
461.60	1259.50
461.80	1263.60
462.00	1265.64
462.21	1322.99
462.41	1243.12
462.61	1275.88
462.82	1282.03
463.02	1290.22
463.22	1294.32
463.43	1349.61
463.63	1226.73
463.83	1327.08
464.04	1300.46
464.24	1261.55
464.44	1290.22
464.64	1222.64
464.85	1269.74
465.05	1273.84
465.25	1259.50
465.46	1308.65
465.66	1347.56
465.86	1255.40
466.07	1253.36
466.27	1245.16
466.47	1337.32
466.68	1298.41
466.88	1247.21
467.08	1200.11
467.29	1249.26
467.49	1245.16
467.69	1314.80
467.89	1284.08
468.10	1327.08
468.30	1329.13
468.50	1239.02
468.71	1218.54
468.91	1304.56
469.11	1357.80
469.31	1314.80
469.52	1183.73
469.72	1310.70
469.92	1284.08
470.13	1249.26
470.33	1290.22
470.53	1290.22
470.73	1251.31
470.94	1261.55
471.14	1245.16
471.34	1214.45
471.54	1261.55
471.75	1243.12
471.95	1279.98
472.15	1310.70
472.36	1302.51
472.56	1216.49
472.76	1241.07
472.96	1337.32
473.17	1331.18
473.37	1247.21
473.57	1216.49
473.77	1161.20
473.98	1230.83
474.18	1224.69
474.38	1286.12
474.58	1263.60
474.79	1243.12
474.99	1271.79
475.19	1198.06
475.39	1267.69
475.60	1261.55
475.80	1284.08
476.00	1337.32
476.20	1181.68
476.41	1267.69
476.61	1230.83
476.81	1277.93
477.01	1298.41
477.21	1310.70
477.42	1267.69
477.62	1265.64
477.82	1288.17
478.02	1286.12
478.23	1275.88
478.43	1355.76
478.63	1251.31
478.83	1245.16
479.03	1232.88
479.24	1310.70
479.44	1282.03
479.64	1275.88
479.84	1261.55
480.04	1257.45
480.25	1236.97
480.45	1300.46
480.65	1288.17
480.85	1251.31
481.06	1290.22
481.26	1275.88
481.46	1255.40
481.66	1261.55
481.86	1306.60
482.06	1224.69
482.27	1327.08
482.47	1243.12
482.67	1265.64
482.87	1214.45
483.07	1327.08
483.28	1259.50
483.48	1298.41
483.68	1253.36
483.88	1304.56
484.08	1243.12
484.29	1298.41
484.49	1236.97
484.69	1292.27
484.89	1224.69
485.09	1331.18
485.29	1271.79
485.50	1210.35
485.70	1232.88
485.90	1249.26
486.10	1349.61
486.30	1279.98
486.50	1234.93
486.71	1316.84
486.91	1181.68
487.11	1251.31
487.31	1202.16
487.51	1327.08
487.71	1298.41
487.91	1296.36
488.12	1216.49
488.32	1243.12
488.52	1257.45
488.72	1251.31
488.92	1265.64
489.12	1273.84
489.32	1284.08
489.53	1208.30
489.73	1292.27
489.93	1251.31
490.13	1245.16
490.33	1288.17
490.53	1251.31
490.73	1277.93
490.94	1228.78
491.14	1327.08
491.34	1279.98
491.54	1275.88
491.74	1271.79
491.94	1288.17
492.14	1200.11
492.34	1245.16
492.54	1275.88
492.75	1261.55
492.95	1329.13
493.15	1241.07
493.35	1245.16
493.55	1282.03
493.75	1255.40
493.95	1304.56
494.15	1308.65
494.35	1310.70
494.56	1279.98
494.76	1257.45
494.96	1277.93
495.16	1294.32
495.36	1277.93
495.56	1245.16
495.76	1191.92
495.96	1206.25
496.16	1282.03
496.36	1232.88
496.56	1284.08
496.77	1376.24
496.97	1208.30
497.17	1277.93
497.37	1191.92
497.57	1277.93
497.77	1273.84
497.97	1265.64
498.17	1247.21
498.37	1308.65
498.57	1296.36
498.77	1251.31
498.97	1300.46
499.17	1271.79
499.38	1273.84
499.58	1288.17
499.78	1273.84
499.98	1341.42
500.18	1345.52
500.38	1271.79
500.58	1245.16
500.78	1251.31
500.98	1273.84
501.18	1241.07
501.38	1349.61
501.58	1286.12
501.78	1288.17
501.98	1277.93
502.18	1259.50
502.38	1249.26
502.58	1236.97
502.78	1288.17
502.98	1343.47
503.18	1214.45
503.38	1312.75
503.59	1312.75
503.79	1234.93
503.99	1331.18
504.19	1292.27
504.39	1236.97
504.59	1320.94
504.79	1327.08
504.99	1204.21
505.19	1294.32
505.39	1275.88
505.59	1345.52
505.79	1253.36
505.99	1265.64
506.19	1296.36
506.39	1292.27
506.59	1210.35
506.79	1290.22
506.99	1175.53
507.19	1267.69
507.39	1288.17
507.59	1232.88
507.79	1288.17
507.99	1230.83
508.19	1292.27
508.39	1314.80
508.59	1331.18
508.79	1269.74
508.99	1353.71
509.19	1198.06
509.39	1257.45
509.59	1345.52
509.79	1265.64
509.99	1243.12
510.19	1298.41
510.39	1277.93
510.59	1310.70
510.79	1322.99
510.99	1361.90
511.19	1181.68
511.39	1341.42
511.59	1292.27
511.79	1269.74
511.99	1265.64
512.19	1296.36
512.38	1296.36
512.58	1290.22
512.78	1366.00
512.98	1308.65
513.18	1304.56
513.38	1249.26
513.58	1226.73
513.78	1261.55
513.98	1341.42
514.18	1265.64
514.38	1282.03
514.58	1269.74
514.78	1282.03
514.98	1210.35
515.18	1239.02
515.38	1226.73
515.58	1331.18
515.78	1277.93
515.98	1265.64
516.18	1304.56
516.38	1380.33
516.57	1241.07
516.77	1222.64
516.97	1308.65
517.17	1271.79
517.37	1275.88
517.57	1212.40
517.77	1241.07
517.97	1296.36
518.17	1316.84
518.37	1269.74
518.57	1298.41
518.77	1259.50
518.97	1279.98
519.16	1230.83
519.36	1220.59
519.56	1224.69
519.76	1302.51
519.96	1286.12
520.16	1359.85
520.36	1372.14
520.56	1255.40
520.76	1230.83
520.96	1294.32
521.16	1302.51
521.35	1263.60
521.55	1322.99
521.75	1286.12
521.95	1275.88
522.15	1269.74
522.35	1255.40
522.55	1269.74
522.75	1312.75
522.95	1257.45
523.14	1271.79
523.34	1310.70
523.54	1318.89
523.74	1267.69
523.94	1265.64
524.14	1288.17
524.34	1245.16
524.54	1288.17
524.73	1267.69
524.93	1320.94
525.13	1245.16
525.33	1314.80
525.53	1298.41
525.73	1312.75
525.93	1261.55
526.13	1218.54
526.32	1296.36
526.52	1339.37
526.72	1249.26
526.92	1220.59
527.12	1191.92
527.32	1261.55
527.52	1271.79
527.71	1294.32
527.91	1216.49
528.11	1329.13
528.31	1273.84
528.51	1282.03
528.71	1253.36
528.90	1302.51
529.10	1304.56
529.30	1308.65
529.50	1296.36
529.70	1273.84
529.90	1288.17
530.09	1370.09
530.29	1234.93
530.49	1275.88
530.69	1320.94
530.89	1327.08
531.09	1216.49
531.28	1273.84
531.48	1335.28
531.68	1288.17
531.88	1290.22
532.08	1275.88
532.28	1288.17
532.47	1363.95
532.67	1308.65
532.87	1298.41
533.07	1255.40
533.27	1294.32
533.46	1394.67
533.66	1251.31
533.86	1304.56
534.06	1247.21
534.26	1275.88
534.45	1228.78
534.65	1282.03
534.85	1310.70
535.05	1302.51
535.25	1312.75
535.44	1224.69
535.64	1310.70
535.84	1269.74
536.04	1230.83
536.24	1232.88
536.43	1241.07
536.63	1228.78
536.83	1282.03
537.03	1259.50
537.22	1261.55
537.42	1257.45
537.62	1271.79
537.82	1327.08
538.02	1269.74
538.21	1304.56
538.41	1277.93
538.61	1300.46
538.81	1267.69
539.00	1316.84
539.20	1253.36
539.40	1232.88
539.60	1282.03
539.79	1275.88
539.99	1318.89
540.19	1327.08
540.39	1234.93
540.58	1361.90
540.78	1306.60
540.98	1236.97
541.18	1265.64
541.37	1314.80
541.57	1312.75
541.77	1298.41
541.97	1343.47
542.16	1171.44
542.36	1273.84
542.56	1296.36
542.76	1333.23
542.95	1329.13
543.15	1296.36
543.35	1220.59
543.54	1247.21
543.74	1349.61
543.94	1306.60
544.14	1269.74
544.33	1226.73
544.53	1329.13
544.73	1359.85
544.93	1261.55
545.12	1245.16
545.32	1284.08
545.52	1267.69
545.71	1355.76
545.91	1220.59
546.11	1316.84
546.30	1304.56
546.50	1230.83
546.70	1308.65
546.90	1312.75
547.09	1292.27
547.29	1331.18
547.49	1282.03
547.68	1257.45
547.88	1239.02
548.08	1327.08
548.27	1288.17
548.47	1292.27
548.67	1302.51
548.87	1224.69
549.06	1265.64
549.26	1257.45
549.46	1269.74
549.65	1265.64
549.85	1320.94
550.05	1222.64
550.24	1259.50
550.44	1298.41
550.64	1214.45
550.83	1357.80
551.03	1284.08
551.23	1296.36
551.42	1257.45
551.62	1259.50
551.82	1275.88
552.01	1253.36
552.21	1286.12
552.41	1325.04
552.60	1290.22
552.80	1290.22
553.00	1179.63
553.19	1269.74
553.39	1269.74
553.59	1288.17
553.78	1232.88
553.98	1296.36
554.17	1329.13
554.37	1298.41
554.57	1269.74
554.76	1282.03
554.96	1263.60
555.16	1286.12
555.35	1290.22
555.55	1265.64
555.75	1191.92
555.94	1255.40
556.14	1189.87
556.33	1273.84
556.53	1247.21
556.73	1259.50
556.92	1206.25
557.12	1392.62
557.32	1271.79
557.51	1314.80
557.71	1288.17
557.90	1343.47
558.10	1249.26
558.30	1361.90
558.49	1310.70
558.69	1325.04
558.88	1378.28
559.08	1271.79
559.28	1265.64
559.47	1222.64
559.67	1265.64
559.86	1296.36
560.06	1322.99
560.26	1314.80
560.45	1253.36
560.65	1306.60
560.84	1314.80
561.04	1255.40
561.24	1269.74
561.43	1300.46
561.63	1302.51
561.82	1300.46
562.02	1202.16
562.22	1327.08
562.41	1200.11
562.61	1273.84
562.80	1224.69
563.00	1286.12
563.19	1316.84
563.39	1226.73
563.59	1282.03
563.78	1263.60
563.98	1255.40
564.17	1265.64
564.37	1259.50
564.56	1206.25
564.76	1304.56
564.96	1306.60
565.15	1277.93
565.35	1236.97
565.54	1322.99
565.74	1327.08
565.93	1320.94
566.13	1253.36
566.32	1263.60
566.52	1265.64
566.71	1329.13
566.91	1337.32
567.11	1304.56
567.30	1288.17
567.50	1292.27
567.69	1239.02
567.89	1294.32
568.08	1279.98
568.28	1329.13
568.47	1218.54
568.67	1320.94
568.86	1265.64
569.06	1284.08
569.25	1314.80
569.45	1357.80
569.64	1286.12
569.84	1310.70
570.04	1359.85
570.23	1284.08
570.43	1327.08
570.62	1257.45
570.82	1353.71
571.01	1316.84
571.21	1279.98
571.40	1269.74
571.60	1249.26
571.79	1255.40
571.99	1277.93
572.18	1208.30
572.38	1290.22
572.57	1329.13
572.77	1277.93
572.96	1271.79
573.16	1271.79
573.35	1359.85
573.55	1284.08
573.74	1273.84
573.94	1331.18
574.13	1253.36
574.33	1269.74
574.52	1308.65
574.71	1308.65
574.91	1361.90
575.10	1243.12
575.30	1226.73
575.49	1300.46
575.69	1234.93
575.88	1331.18
576.08	1296.36
576.27	1183.73
576.47	1253.36
576.66	1267.69
576.86	1269.74
577.05	1273.84
577.25	1290.22
577.44	1220.59
577.64	1298.41
577.83	1318.89
578.02	1218.54
578.22	1351.66
578.41	1345.52
578.61	1255.40
578.80	1255.40
579.00	1296.36
579.19	1196.01
579.39	1271.79
579.58	1277.93
579.77	1265.64
579.97	1316.84
580.16	1374.19
580.36	1277.93
580.55	1306.60
580.75	1294.32
580.94	1261.55
581.13	1306.60
581.33	1257.45
581.52	1337.32
581.72	1243.12
581.91	1310.70
582.11	1306.60
582.30	1224.69
582.49	1304.56
582.69	1259.50
582.88	1320.94
583.08	1257.45
583.27	1327.08
583.47	1322.99
583.66	1347.56
583.85	1347.56
584.05	1271.79
584.24	1236.97
584.44	1331.18
584.63	1245.16
584.82	1298.41
585.02	1222.64
585.21	1320.94
585.41	1290.22
585.60	1275.88
585.79	1247.21
585.99	1312.75
586.18	1224.69
586.37	1255.40
586.57	1232.88
586.76	1306.60
586.96	1243.12
587.15	1314.80
587.34	1298.41
587.54	1314.80
587.73	1273.84
587.93	1259.50
588.12	1296.36
588.31	1310.70
588.51	1341.42
588.70	1329.13
588.89	1279.98
589.09	1234.93
589.28	1249.26
589.47	1202.16
589.67	1273.84
589.86	1286.12
590.06	1294.32
590.25	1282.03
590.44	1282.03
590.64	1302.51
590.83	1263.60
591.02	1286.12
591.22	1275.88
591.41	1232.88
591.60	1312.75
591.80	1349.61
591.99	1247.21
592.18	1259.50
592.38	1300.46
592.57	1226.73
592.76	1296.36
592.96	1267.69
593.15	1259.50
593.34	1320.94
593.54	1298.41
593.73	1361.90
593.92	1296.36
594.12	1251.31
594.31	1333.23
594.50	1318.89
594.70	1228.78
594.89	1234.93
595.08	1226.73
595.28	1241.07
595.47	1257.45
595.66	1300.46
595.86	1322.99
596.05	1331.18
596.24	1312.75
596.43	1220.59
596.63	1277.93
596.82	1322.99
597.01	1308.65
597.21	1333.23
597.40	1286.12
597.59	1292.27
597.79	1277.93
597.98	1347.56
598.17	1322.99
598.36	1277.93
598.56	1312.75
598.75	1286.12
598.94	1294.32
599.14	1267.69
599.33	1306.60
599.52	1298.41
599.71	1279.98
599.91	1239.02
600.10	1288.17
600.29	1265.64
600.48	1314.80
600.68	1322.99
600.87	1204.21
601.06	1265.64
601.26	1345.52
601.45	1228.78
601.64	1292.27
601.83	1230.83
602.03	1247.21
602.22	1265.64
602.41	1236.97
602.60	1222.64
602.80	1343.47
602.99	1345.52
603.18	1304.56
603.37	1322.99
603.57	1273.84
603.76	1279.98
603.95	1310.70
604.14	1200.11
604.34	1222.64
604.53	1196.01
604.72	1257.45
604.91	1271.79
605.10	1273.84
605.30	1222.64
605.49	1304.56
605.68	1243.12
605.87	1275.88
606.07	1316.84
606.26	1302.51
606.45	1228.78
606.64	1294.32
606.84	1271.79
607.03	1249.26
607.22	1306.60
607.41	1218.54
607.60	1279.98
607.80	1300.46
607.99	1292.27
608.18	1259.50
608.37	1230.83
608.56	1245.16
608.76	1318.89
608.95	1273.84
609.14	1216.49
609.33	1271.79
609.52	1277.93
609.72	1234.93
609.91	1325.04
610.10	1230.83
610.29	1290.22
610.48	1296.36
610.68	1247.21
610.87	1296.36
611.06	1290.22
611.25	1282.03
611.44	1314.80
611.63	1306.60
611.83	1388.52
612.02	1316.84
612.21	1347.56
612.40	1241.07
612.59	1284.08
612.79	1316.84
612.98	1296.36
613.17	1183.73
613.36	1267.69
613.55	1255.40
613.74	1361.90
613.93	1314.80
614.13	1273.84
614.32	1275.88
614.51	1224.69
614.70	1314.80
614.89	1271.79
615.08	1273.84
615.28	1298.41
615.47	1290.22
615.66	1296.36
615.85	1277.93
616.04	1273.84
616.23	1290.22
616.42	1187.82
616.62	1294.32
616.81	1279.98
617.00	1202.16
617.19	1345.52
617.38	1202.16
617.57	1304.56
617.76	1208.30
617.95	1267.69
618.15	1363.95
618.34	1200.11
618.53	1290.22
618.72	1279.98
618.91	1239.02
619.10	1312.75
619.29	1275.88
619.48	1288.17
619.68	1304.56
619.87	1337.32
620.06	1314.80
620.25	1214.45
620.44	1228.78
620.63	1351.66
620.82	1269.74
621.01	1269.74
621.20	1282.03
621.39	1298.41
621.59	1259.50
621.78	1286.12
621.97	1339.37
622.16	1247.21
622.35	1284.08
622.54	1345.52
622.73	1226.73
622.92	1298.41
623.11	1327.08
623.30	1263.60
623.49	1271.79
623.68	1306.60
623.88	1243.12
624.07	1294.32
624.26	1269.74
624.45	1314.80
624.64	1234.93
624.83	1222.64
625.02	1312.75
625.21	1271.79
625.40	1288.17
625.59	1294.32
625.78	1294.32
625.97	1357.80
626.16	1298.41
626.35	1333.23
626.54	1386.47
626.74	1361.90
626.93	1343.47
627.12	1304.56
627.31	1376.24
627.50	1288.17
627.69	1261.55
627.88	1298.41
628.07	1318.89
628.26	1366.00
628.45	1300.46
628.64	1183.73
628.83	1302.51
629.02	1247.21
629.21	1341.42
629.40	1267.69
629.59	1245.16
629.78	1298.41
629.97	1302.51
630.16	1353.71
630.35	1316.84
630.54	1402.86
630.73	1290.22
630.92	1279.98
631.11	1327.08
631.30	1374.19
631.49	1380.33
631.68	1535.98
631.87	1941.47
632.06	2768.85
632.25	2367.45
632.44	2691.03
632.63	2775.00
632.82	2775.00
633.01	4464.57
633.20	5152.69
633.39	6913.94
633.58	14763.81
633.77	27166.31
633.96	35290.60
634.15	34262.52
634.34	24538.76
634.53	12869.44
634.72	5703.59
634.91	2994.13
635.10	2504.67
635.29	2392.03
635.48	2068.45
635.67	1796.07
635.86	1535.98
636.05	1460.20
636.24	1511.40
636.43	1431.53
636.62	1355.76
636.81	1355.76
637.00	1290.22
637.19	1314.80
637.38	1316.84
637.57	1308.65
637.76	1306.60
637.95	1230.83
638.14	1372.14
638.33	1282.03
638.52	1263.60
638.71	1290.22
638.89	1322.99
639.08	1318.89
639.27	1308.65
639.46	1239.02
639.65	1355.76
639.84	1333.23
640.03	1312.75
640.22	1259.50
640.41	1290.22
640.60	1302.51
640.79	1234.93
640.98	1265.64
641.17	1359.85
641.36	1286.12
641.55	1306.60
641.74	1275.88
641.92	1279.98
642.11	1206.25
642.30	1234.93
642.49	1322.99
642.68	1277.93
642.87	1318.89
643.06	1271.79
643.25	1271.79
643.44	1255.40
643.63	1253.36
643.82	1325.04
644.00	1290.22
644.19	1273.84
644.38	1329.13
644.57	1251.31
644.76	1286.12
644.95	1249.26
645.14	1214.45
645.33	1286.12
645.52	1355.76
645.71	1290.22
645.89	1257.45
646.08	1214.45
646.27	1177.58
646.46	1327.08
646.65	1228.78
646.84	1284.08
647.03	1257.45
647.22	1275.88
647.40	1277.93
647.59	1296.36
647.78	1322.99
647.97	1314.80
648.16	1245.16
648.35	1232.88
648.54	1232.88
648.73	1269.74
648.91	1335.28
649.10	1239.02
649.29	1241.07
649.48	1257.45
649.67	1304.56
649.86	1282.03
650.05	1335.28
650.23	1273.84
650.42	1345.52
650.61	1288.17
650.80	1286.12
650.99	1294.32
651.18	1241.07
651.36	1339.37
651.55	1251.31
651.74	1351.66
651.93	1296.36
652.12	1257.45
652.31	1249.26
652.49	1275.88
652.68	1189.87
652.87	1263.60
653.06	1290.22
653.25	1284.08
653.44	1214.45
653.62	1329.13
653.81	1298.41
654.00	1239.02
654.19	1249.26
654.38	1236.97
654.56	1279.98
654.75	1292.27
654.94	1241.07
655.13	1263.60
655.32	1236.97
655.51	1247.21
655.69	1265.64
655.88	1282.03
656.07	1265.64
656.26	1288.17
656.45	1222.64
656.63	1257.45
656.82	1222.64
657.01	1263.60
657.20	1243.12
657.38	1179.63
657.57	1322.99
657.76	1206.25
657.95	1316.84
658.14	1253.36
658.32	1269.74
658.51	1243.12
658.70	1269.74
658.89	1271.79
659.08	1228.78
659.26	1312.75
659.45	1259.50
659.64	1333.23
659.83	1193.97
660.01	1282.03
660.20	1290.22
660.39	1241.07
660.58	1253.36
660.76	1267.69
660.95	1331.18
661.14	1294.32
661.33	1370.09
661.51	1298.41
661.70	1232.88
661.89	1306.60
662.08	1296.36
662.26	1333.23
662.45	1220.59
662.64	1335.28
662.83	1298.41
663.01	1300.46
663.20	1302.51
663.39	1255.40
663.58	1290.22
663.76	1220.59
663.95	1245.16
664.14	1243.12
664.32	1312.75
664.51	1241.07
664.70	1232.88
664.89	1226.73
665.07	1214.45
665.26	1255.40
665.45	1265.64
665.64	1257.45
665.82	1234.93
666.01	1245.16
666.20	1245.16
666.38	1353.71
666.57	1255.40
666.76	1218.54
666.95	1282.03
667.13	1271.79
667.32	1296.36
667.51	1222.64
667.69	1300.46
667.88	1206.25
668.07	1386.47
668.25	1179.63
668.44	1320.94
668.63	1257.45
668.81	1243.12
669.00	1243.12
669.19	1222.64
669.38	1308.65
669.56	1198.06
669.75	1269.74
669.94	1265.64
670.12	1286.12
670.31	1267.69
670.50	1298.41
670.68	1351.66
670.87	1247.21
671.06	1267.69
671.24	1273.84
671.43	1212.40
671.62	1298.41
671.80	1257.45
671.99	1322.99
672.18	1257.45
672.36	1298.41
672.55	1269.74
672.74	1290.22
672.92	1273.84
673.11	1282.03
673.29	1308.65
673.48	1316.84
673.67	1298.41
673.85	1243.12
674.04	1267.69
674.23	1265.64
674.41	1253.36
674.60	1255.40
674.79	1232.88
674.97	1296.36
675.16	1282.03
675.34	1314.80
675.53	1265.64
675.72	1296.36
675.90	1312.75
676.09	1275.88
676.28	1245.16
676.46	1292.27
676.65	1312.75
676.83	1230.83
677.02	1298.41
677.21	1257.45
677.39	1259.50
677.58	1226.73
677.77	1314.80
677.95	1341.42
678.14	1243.12
678.32	1245.16
678.51	1191.92
678.70	1320.94
678.88	1282.03
679.07	1310.70
679.25	1239.02
679.44	1232.88
679.63	1208.30
679.81	1251.31
680.00	1216.49
680.18	1257.45
680.37	1224.69
680.55	1312.75
680.74	1226.73
680.93	1306.60
681.11	1208.30
681.30	1292.27
681.48	1263.60
681.67	1212.40
681.85	1224.69
682.04	1273.84
682.23	1333.23
682.41	1261.55
682.60	1253.36
682.78	1224.69
682.97	1210.35
683.15	1282.03
683.34	1255.40
683.53	1284.08
683.71	1296.36
683.90	1269.74
684.08	1214.45
684.27	1292.27
684.45	1241.07
684.64	1290.22
684.82	1320.94
685.01	1239.02
685.19	1257.45
685.38	1228.78
685.57	1318.89
685.75	1253.36
685.94	1220.59
686.12	1310.70
686.31	1243.12
686.49	1279.98
686.68	1339.37
686.86	1331.18
687.05	1243.12
687.23	1212.40
687.42	1253.36
687.60	1286.12
687.79	1208.30
687.97	1314.80
688.16	1275.88
688.34	1253.36
688.53	1251.31
688.71	1239.02
688.90	1304.56
689.08	1261.55
689.27	1282.03
689.45	1300.46
689.64	1333.23
689.82	1257.45
690.01	1314.80
690.19	1302.51
690.38	1314.80
690.56	1320.94
690.75	1267.69
690.93	1175.53
691.12	1255.40
691.30	1259.50
691.49	1261.55
691.67	1179.63
691.86	1294.32
692.04	1292.27
692.23	1316.84
692.41	1247.21
692.60	1236.97
692.78	1304.56
692.97	1224.69
693.15	1306.60
693.34	1318.89
693.52	1261.55
693.71	1226.73
693.89	1220.59
694.08	1277.93
694.26	1310.70
694.44	1318.89
694.63	1296.36
694.81	1312.75
695.00	1224.69
695.18	1275.88
695.37	1279.98
695.55	1228.78
695.74	1292.27
695.92	1343.47
696.10	1345.52
696.29	1249.26
696.47	1234.93
696.66	1247.21
696.84	1277.93
697.03	1277.93
697.21	1312.75
697.40	1310.70
697.58	1306.60
697.76	1144.81
697.95	1327.08
698.13	1239.02
698.32	1290.22
698.50	1312.75
698.68	1253.36
698.87	1290.22
699.05	1263.60
699.24	1214.45
699.42	1261.55
699.61	1261.55
699.79	1239.02
699.97	1275.88
700.16	1265.64
700.34	1200.11
700.53	1279.98
700.71	1298.41
700.89	1255.40
701.08	1290.22
701.26	1245.16
701.45	1257.45
701.63	1179.63
701.81	1220.59
702.00	1277.93
702.18	1255.40
702.37	1226.73
702.55	1304.56
702.73	1259.50
702.92	1275.88
703.10	1224.69
703.28	1275.88
703.47	1243.12
703.65	1247.21
703.84	1339.37
704.02	1296.36
704.20	1284.08
704.39	1302.51
704.57	1210.35
704.75	1257.45
704.94	1263.60
705.12	1302.51
705.30	1267.69
705.49	1269.74
705.67	1302.51
705.86	1288.17
706.04	1251.31
706.22	1247.21
706.41	1288.17
706.59	1279.98
706.77	1220.59
706.96	1253.36
707.14	1279.98
707.32	1226.73
707.51	1263.60
707.69	1228.78
707.87	1261.55
708.06	1279.98
708.24	1277.93
708.42	1259.50
708.61	1257.45
708.79	1253.36
708.97	1284.08
709.16	1243.12
709.34	1339.37
709.52	1310.70
709.71	1292.27
709.89	1269.74
710.07	1306.60
710.26	1312.75
710.44	1245.16
710.62	1341.42
710.80	1335.28
710.99	1230.83
711.17	1220.59
711.35	1275.88
711.54	1296.36
711.72	1343.47
711.90	1325.04
712.09	1222.64
712.27	1282.03
712.45	1279.98
712.63	1241.07
712.82	1148.91
713.00	1314.80
713.18	1310.70
713.37	1265.64
713.55	1267.69
713.73	1236.97
713.91	1218.54
714.10	1316.84
714.28	1228.78
714.46	1370.09
714.65	1257.45
714.83	1232.88
715.01	1265.64
715.19	1218.54
715.38	1230.83
715.56	1234.93
715.74	1232.88
715.92	1167.34
716.11	1251.31
716.29	1247.21
716.47	1222.64
716.65	1253.36
716.84	1228.78
717.02	1275.88
717.20	1247.21
717.38	1282.03
717.57	1333.23
717.75	1163.25
717.93	1265.64
718.11	1279.98
718.30	1298.41
718.48	1296.36
718.66	1175.53
718.84	1310.70
719.03	1304.56
719.21	1310.70
719.39	1292.27
719.57	1269.74
719.75	1279.98
719.94	1216.49
720.12	1292.27
720.30	1331.18
720.48	1294.32
720.67	1320.94
720.85	1208.30
721.03	1279.98
721.21	1286.12
721.39	1249.26
721.58	1212.40
721.76	1368.04
721.94	1308.65
722.12	1214.45
722.30	1284.08
722.49	1279.98
722.67	1255.40
722.85	1308.65
723.03	1306.60
723.21	1294.32
723.40	1304.56
723.58	1269.74
723.76	1218.54
723.94	1261.55
724.12	1300.46
724.30	1343.47
724.49	1236.97
724.67	1255.40
724.85	1333.23
725.03	1232.88
725.21	1263.60
725.40	1259.50
725.58	1273.84
725.76	1335.28
725.94	1230.83
726.12	1279.98
726.30	1339.37
726.49	1253.36
726.67	1263.60
726.85	1314.80
727.03	1236.97
727.21	1273.84
727.39	1243.12
727.57	1204.21
727.76	1339.37
727.94	1318.89
728.12	1234.93
728.30	1216.49
728.48	1353.71
728.66	1279.98
728.84	1226.73
729.03	1302.51
729.21	1214.45
729.39	1343.47
729.57	1243.12
729.75	1210.35
729.93	1314.80
730.11	1247.21
730.30	1288.17
730.48	1273.84
730.66	1300.46
730.84	1310.70
731.02	1257.45
731.20	1253.36
731.38	1318.89
731.56	1273.84
731.74	1314.80
731.93	1206.25
732.11	1249.26
732.29	1279.98
732.47	1230.83
732.65	1230.83
732.83	1222.64
733.01	1259.50
733.19	1257.45
733.37	1275.88
733.56	1191.92
733.74	1216.49
733.92	1357.80
734.10	1193.97
734.28	1392.62
734.46	1253.36
734.64	1255.40
734.82	1304.56
735.00	1320.94
735.18	1196.01
735.36	1249.26
735.54	1255.40
735.73	1249.26
735.91	1294.32
736.09	1357.80
736.27	1263.60
736.45	1273.84
736.63	1239.02
736.81	1234.93
736.99	1277.93
737.17	1300.46
737.35	1175.53
737.53	1286.12
737.71	1296.36
737.89	1288.17
738.07	1316.84
738.25	1257.45
738.43	1290.22
738.61	1257.45
738.80	1292.27
738.98	1271.79
739.16	1253.36
739.34	1169.39
739.52	1271.79
739.70	1288.17
739.88	1220.59
740.06	1253.36
740.24	1226.73
740.42	1345.52
740.60	1210.35
740.78	1253.36
740.96	1216.49
741.14	1263.60
741.32	1249.26
741.50	1271.79
741.68	1259.50
741.86	1302.51
742.04	1239.02
742.22	1239.02
742.40	1249.26
742.58	1282.03
742.76	1298.41
742.94	1226.73
743.12	1247.21
743.30	1243.12
743.48	1241.07
743.66	1232.88
743.84	1308.65
744.02	1263.60
744.20	1257.45
744.38	1290.22
744.56	1259.50
744.74	1290.22
744.92	1302.51
745.10	1327.08
745.28	1310.70
745.46	1191.92
745.64	1277.93
745.82	1224.69
746.00	1349.61
746.18	1325.04
746.36	1275.88
746.54	1226.73
746.72	1239.02
746.90	1320.94
747.08	1327.08
747.26	1304.56
747.44	1249.26
747.62	1267.69
747.80	1239.02
747.98	1275.88
748.15	1310.70
748.33	1265.64
748.51	1286.12
748.69	1249.26
748.87	1249.26
749.05	1253.36
749.23	1222.64
749.41	1261.55
749.59	1275.88
749.77	1269.74
749.95	1257.45
750.13	1220.59
750.31	1275.88
750.49	1298.41
750.67	1257.45
750.85	1265.64
751.03	1314.80
751.20	1296.36
751.38	1277.93
751.56	1191.92
751.74	1327.08
751.92	1241.07
752.10	1310.70
752.28	1253.36
752.46	1355.76
752.64	1241.07
752.82	1314.80
753.00	1241.07
753.18	1316.84
753.35	1320.94
753.53	1230.83
753.71	1273.84
753.89	1257.45
754.07	1325.04
754.25	1255.40
754.43	1202.16
754.61	1189.87
754.79	1345.52
754.97	1245.16
755.14	1318.89
755.32	1222.64
755.50	1265.64
755.68	1290.22
755.86	1249.26
756.04	1290.22
756.22	1224.69
756.40	1261.55
756.57	1167.34
756.75	1282.03
756.93	1245.16
757.11	1318.89
757.29	1294.32
757.47	1259.50
757.65	1226.73
757.82	1273.84
758.00	1200.11
758.18	1279.98
758.36	1296.36
758.54	1279.98
758.72	1304.56
758.90	1216.49
759.07	1302.51
759.25	1284.08
759.43	1343.47
759.61	1316.84
759.79	1277.93
759.97	1302.51
760.15	1232.88
760.32	1261.55
760.50	1234.93
760.68	1230.83
760.86	1208.30
761.04	1255.40
761.22	1325.04
761.39	1253.36
761.57	1273.84
761.75	1298.41
761.93	1230.83
762.11	1269.74
762.28	1314.80
762.46	1282.03
762.64	1302.51
762.82	1288.17
763.00	1329.13
763.18	1210.35
763.35	1208.30
763.53	1296.36
763.71	1288.17
763.89	1290.22
764.07	1275.88
764.24	1222.64
764.42	1302.51
764.60	1226.73
764.78	1306.60
764.96	1245.16
765.13	1279.98
765.31	1236.97
765.49	1259.50
765.67	1269.74
765.84	1298.41
766.02	1224.69
766.20	1206.25
766.38	1263.60
766.56	1292.27
766.73	1314.80
766.91	1259.50
767.09	1265.64
767.27	1339.37
767.44	1232.88
767.62	1282.03
767.80	1273.84
767.98	1228.78
768.15	1267.69
768.33	1302.51
768.51	1216.49
768.69	1288.17
768.87	1273.84
769.04	1284.08
769.22	1230.83
769.40	1265.64
769.58	1253.36
769.75	1284.08
769.93	1284.08
770.11	1277.93
770.28	1247.21
770.46	1327.08
770.64	1279.98
770.82	1206.25
770.99	1269.74
771.17	1224.69
771.35	1249.26
771.53	1269.74
771.70	1220.59
771.88	1271.79
772.06	1273.84
772.23	1234.93
772.41	1210.35
772.59	1302.51
772.77	1288.17
772.94	1247.21
773.12	1298.41
773.30	1230.83
773.47	1216.49
773.65	1267.69
773.83	1222.64
774.01	1222.64
774.18	1177.58
774.36	1296.36
774.54	1298.41
774.71	1343.47
774.89	1220.59
775.07	1290.22
775.24	1218.54
775.42	1224.69
775.60	1267.69
775.78	1308.65
775.95	1292.27
776.13	1167.34
776.31	1275.88
776.48	1271.79
776.66	1269.74
776.84	1290.22
777.01	1269.74
777.19	1243.12
777.37	1247.21
777.54	1230.83
777.72	1300.46
777.90	1282.03
778.07	1200.11
778.25	1265.64
778.43	1236.97
778.60	1277.93
778.78	1288.17
778.96	1310.70
779.13	1220.59
779.31	1298.41
779.49	1310.70
779.66	1275.88
779.84	1251.31
780.01	1210.35
780.19	1269.74
780.37	1271.79
780.54	1271.79
780.72	1220.59
780.90	1196.01
781.07	1357.80
781.25	1249.26
781.43	1288.17
781.60	1222.64
781.78	1275.88
781.95	1306.60
782.13	1327.08
782.31	1247.21
782.48	1200.11
782.66	1257.45
782.83	1288.17
783.01	1333.23
783.19	1255.40
783.36	1302.51
783.54	1337.32
783.72	1279.98
783.89	1259.50
784.07	1265.64
784.24	1316.84
784.42	1298.41
784.60	1253.36
784.77	1279.98
784.95	1314.80
785.12	1318.89
785.30	1234.93
785.47	1265.64
785.65	1308.65
785.83	1226.73
786.00	1284.08
786.18	1265.64
786.35	1226.73
786.53	1298.41
786.71	1253.36
786.88	1255.40
787.06	1208.30
787.23	1239.02
787.41	1271.79
787.58	1322.99
787.76	1241.07
787.94	1224.69
788.11	1275.88
788.29	1290.22
788.46	1286.12
788.64	1224.69
788.81	1239.02
788.99	1269.74
789.16	1218.54
789.34	1308.65
789.52	1314.80
789.69	1265.64
789.87	1298.41
790.04	1275.88
790.22	1228.78
790.39	1239.02
790.57	1286.12
790.74	1302.51
790.92	1253.36
791.09	1247.21
791.27	1372.14
791.44	1302.51
791.62	1236.97
791.79	1200.11
791.97	1232.88
792.15	1269.74
792.32	1284.08
792.50	1345.52
792.67	1271.79
792.85	1249.26
793.02	1308.65
793.20	1198.06
793.37	1224.69
793.55	1277.93
793.72	1269.74
793.90	1255.40
794.07	1249.26
794.25	1282.03
794.42	1269.74
794.60	1320.94
794.77	1279.98
794.95	1196.01
795.12	1196.01
795.30	1230.83
795.47	1247.21
795.65	1271.79
795.82	1294.32
796.00	1286.12
796.17	1253.36
796.34	1273.84
796.52	1267.69
796.69	1257.45
796.87	1322.99
797.04	1236.97
797.22	1271.79
797.39	1347.56
797.57	1214.45
797.74	1282.03
797.92	1239.02
798.09	1157.10
798.27	1279.98
798.44	1263.60
798.62	1249.26
798.79	1228.78
798.96	1284.08
799.14	1316.84
799.31	1267.69
799.49	1267.69
799.66	1220.59
799.84	1241.07
800.01	1290.22
800.19	1255.40
800.36	1282.03
800.53	1208.30
800.71	1325.04
800.88	1247.21
801.06	1286.12
801.23	1257.45
801.41	1275.88
801.58	1257.45
801.75	1318.89
801.93	1314.80
802.10	1222.64
802.28	1253.36
802.45	1290.22
802.63	1271.79
802.80	1306.60
802.97	1249.26
803.15	1294.32
803.32	1306.60
803.50	1292.27
803.67	1191.92
803.84	1286.12
804.02	1230.83
804.19	1277.93
804.37	1257.45
804.54	1255.40
804.71	1306.60
804.89	1212.40
805.06	1296.36
805.24	1284.08
805.41	1282.03
805.58	1261.55
805.76	1239.02
805.93	1228.78
806.10	1308.65
806.28	1259.50
806.45	1290.22
806.63	1198.06
806.80	1279.98
806.97	1253.36
807.15	1230.83
807.32	1304.56
807.49	1267.69
807.67	1294.32
807.84	1306.60
808.01	1226.73
808.19	1316.84
808.36	1269.74
808.54	1325.04
808.71	1322.99
808.88	1296.36
809.06	1224.69
809.23	1322.99
809.40	1241.07
809.58	1255.40
809.75	1294.32
809.92	1253.36
810.10	1249.26
810.27	1241.07
810.44	1290.22
810.62	1234.93
810.79	1230.83
810.96	1273.84
811.14	1284.08
811.31	1232.88
811.48	1335.28
811.66	1224.69
811.83	1273.84
812.00	1275.88
812.18	1298.41
812.35	1312.75
812.52	1351.66
812.69	1263.60
812.87	1302.51
813.04	1226.73
813.21	1308.65
813.39	1294.32
813.56	1271.79
813.73	1277.93
813.91	1277.93
814.08	1261.55
814.25	1298.41
814.42	1249.26
814.60	1294.32
814.77	1232.88
814.94	1245.16
815.12	1232.88
815.29	1290.22
815.46	1302.51
815.63	1322.99
815.81	1279.98
815.98	1239.02
816.15	1310.70
816.33	1175.53
816.50	1220.59
816.67	1183.73
816.84	1257.45
817.02	1208.30
817.19	1335.28
817.36	1269.74
817.53	1310.70
817.71	1130.48
817.88	1271.79
818.05	1267.69
818.22	1316.84
818.40	1294.32
818.57	1263.60
818.74	1300.46
818.91	1322.99
819.09	1206.25
819.26	1259.50
819.43	1275.88
819.60	1320.94
819.78	1259.50
819.95	1322.99
820.12	1284.08
820.29	1228.78
820.47	1320.94
820.64	1261.55
820.81	1294.32
820.98	1261.55
821.15	1253.36
821.33	1284.08
821.50	1361.90
821.67	1284.08
821.84	1230.83
822.02	1198.06
822.19	1273.84
822.36	1236.97
822.53	1208.30
822.70	1312.75
822.88	1290.22
823.05	1241.07
823.22	1255.40
823.39	1273.84
823.56	1273.84
823.74	1241.07
823.91	1196.01
824.08	1263.60
824.25	1294.32
824.42	1245.16
824.60	1208.30
824.77	1312.75
824.94	1187.82
825.11	1212.40
825.28	1157.10
825.45	1261.55
825.63	1282.03
825.80	1320.94
825.97	1222.64
826.14	1275.88
826.31	1236.97
826.48	1288.17
826.66	1216.49
826.83	1249.26
827.00	1220.59
827.17	1232.88
827.34	1269.74
827.51	1210.35
827.69	1292.27
827.86	1292.27
828.03	1320.94
828.20	1255.40
828.37	1255.40
828.54	1349.61
828.71	1208.30
828.89	1257.45
829.06	1288.17
829.23	1273.84
829.40	1243.12
829.57	1241.07
829.74	1226.73
829.91	1245.16
830.09	1265.64
830.26	1261.55
830.43	1296.36
830.60	1322.99
830.77	1224.69
830.94	1331.18
831.11	1191.92
831.28	1294.32
831.46	1257.45
831.63	1212.40
831.80	1267.69
831.97	1232.88
832.14	1234.93
832.31	1294.32
832.48	1169.39
832.65	1253.36
832.82	1302.51
832.99	1206.25
833.17	1304.56
833.34	1296.36
833.51	1224.69
833.68	1243.12
833.85	1290.22
834.02	1193.97
834.19	1232.88
834.36	1286.12
834.53	1247.21
834.70	1245.16
834.87	1247.21
835.04	1239.02
835.22	1302.51
835.39	1255.40
835.56	1349.61
835.73	1150.96
835.90	1290.22
836.07	1269.74
836.24	1247.21
836.41	1279.98
836.58	1253.36
836.75	1275.88
836.92	1308.65
837.09	1333.23
837.26	1320.94
837.43	1288.17
837.60	1271.79
837.77	1286.12
837.94	1273.84
838.12	1218.54
838.29	1306.60
838.46	1261.55
838.63	1249.26
838.80	1259.50
838.97	1259.50
839.14	1271.79
839.31	1316.84
839.48	1269.74
839.65	1257.45
839.82	1241.07
839.99	1189.87
840.16	1306.60
840.33	1322.99
840.50	1282.03
840.67	1255.40
840.84	1261.55
841.01	1259.50
841.18	1189.87
841.35	1284.08
841.52	1249.26
841.69	1271.79
841.86	1298.41
842.03	1269.74
842.20	1271.79
842.37	1241.07
842.54	1273.84
842.71	1296.36
842.88	1322.99
843.05	1224.69
843.22	1255.40
843.39	1298.41
843.56	1265.64
843.73	1208.30
843.90	1228.78
844.07	1265.64
844.24	1279.98
844.41	1232.88
844.58	1198.06
844.75	1247.21
844.92	1249.26
845.09	1267.69
845.26	1318.89
845.43	1247.21
845.60	1247.21
845.77	1282.03
845.94	1286.12
846.10	1253.36
846.27	1294.32
846.44	1210.35
846.61	1273.84
846.78	1310.70
846.95	1265.64
847.12	1261.55
847.29	1322.99
847.46	1282.03
847.63	1267.69
847.80	1200.11
847.97	1306.60
848.14	1329.13
848.31	1224.69
848.48	1247.21
848.65	1298.41
848.82	1320.94
848.98	1245.16
849.15	1216.49
849.32	1306.60
849.49	1361.90
849.66	1245.16
849.83	1249.26
850.00	1310.70
850.17	1284.08
850.34	1202.16
850.51	1249.26
850.68	1226.73
850.85	1282.03
851.01	1318.89
851.18	1241.07
851.35	1314.80
851.52	1308.65
851.69	1255.40
851.86	1282.03
852.03	1271.79
852.20	1320.94
852.37	1222.64
852.53	1292.27
852.70	1257.45
852.87	1193.97
853.04	1269.74
853.21	1372.14
853.38	1196.01
853.55	1290.22
853.72	1314.80
853.89	1245.16
854.05	1294.32
854.22	1220.59
854.39	1345.52
854.56	1335.28
854.73	1284.08
854.90	1284.08
855.07	1251.31
855.23	1277.93
855.40	1288.17
855.57	1302.51
855.74	1241.07
855.91	1236.97
856.08	1304.56
856.25	1224.69
856.41	1351.66
856.58	1257.45
856.75	1298.41
856.92	1216.49
857.09	1232.88
857.26	1234.93
857.42	1308.65
857.59	1232.88
857.76	1241.07
857.93	1288.17
858.10	1290.22
858.27	1236.97
858.43	1200.11
858.60	1228.78
858.77	1282.03
858.94	1245.16
859.11	1282.03
859.27	1243.12
859.44	1241.07
859.61	1247.21
859.78	1269.74
859.95	1302.51
860.12	1271.79
860.28	1327.08
860.45	1253.36
860.62	1351.66
860.79	1181.68
860.95	1304.56
861.12	1288.17
861.29	1300.46
861.46	1243.12
861.63	1351.66
861.79	1290.22
861.96	1232.88
862.13	1216.49
862.30	1304.56
862.47	1345.52
862.63	1228.78
862.80	1214.45
862.97	1296.36
863.14	1363.95
863.30	1314.80
863.47	1257.45
863.64	1308.65
863.81	1263.60
863.97	1220.59
864.14	1226.73
864.31	1234.93
864.48	1290.22
864.65	1257.45
864.81	1310.70
864.98	1294.32
865.15	1249.26
865.32	1288.17
865.48	1220.59
865.65	1290.22
865.82	1329.13
865.98	1257.45
866.15	1288.17
866.32	1269.74
866.49	1337.32
866.65	1331.18
866.82	1226.73
866.99	1234.93
867.16	1259.50
867.32	1150.96
867.49	1331.18
867.66	1275.88
867.83	1206.25
867.99	1222.64
868.16	1322.99
868.33	1230.83
868.49	1228.78
868.66	1337.32
868.83	1306.60
868.99	1232.88
869.16	1226.73
869.33	1251.31
869.50	1243.12
869.66	1277.93
869.83	1236.97
870.00	1245.16
870.16	1251.31
870.33	1325.04
870.50	1263.60
870.66	1320.94
870.83	1226.73
871.00	1327.08
871.17	1265.64
871.33	1222.64
871.50	1273.84
871.67	1224.69
871.83	1206.25
872.00	1308.65
872.17	1286.12
872.33	1259.50
872.50	1320.94
872.67	1243.12
872.83	1259.50
873.00	1236.97
873.17	1279.98
873.33	1288.17
873.50	1320.94
873.67	1271.79
873.83	1288.17
874.00	1314.80
874.16	1214.45
874.33	1273.84
874.50	1257.45
874.66	1327.08
874.83	1282.03
875.00	1331.18
875.16	1298.41
875.33	1267.69
875.50	1306.60
875.66	1265.64
875.83	1286.12
875.99	1202.16
876.16	1298.41
876.33	1261.55
876.49	1300.46
876.66	1275.88
876.83	1261.55
876.99	1312.75
877.16	1345.52
877.32	1288.17
877.49	1251.31
877.66	1290.22
877.82	1239.02
877.99	1265.64
878.15	1320.94
878.32	1247.21
878.49	1296.36
878.65	1183.73
878.82	1273.84
878.98	1193.97
879.15	1261.55
879.32	1267.69
879.48	1265.64
879.65	1228.78
879.81	1275.88
879.98	1288.17
880.15	1230.83
880.31	1234.93
880.48	1220.59
880.64	1284.08
880.81	1265.64
880.97	1279.98
881.14	1202.16
881.31	1251.31
881.47	1279.98
881.64	1251.31
881.80	1339.37
881.97	1239.02
882.13	1214.45
882.30	1337.32
882.47	1294.32
882.63	1218.54
882.80	1249.26
882.96	1273.84
883.13	1265.64
883.29	1335.28
883.46	1228.78
883.62	1191.92
883.79	1251.31
883.95	1265.64
884.12	1255.40
884.29	1296.36
884.45	1251.31
884.62	1329.13
884.78	1296.36
884.95	1220.59
885.11	1175.53
885.28	1247.21
885.44	1310.70
885.61	1306.60
885.77	1286.12
885.94	1267.69
886.10	1288.17
886.27	1284.08
886.43	1265.64
886.60	1232.88
886.76	1339.37
886.93	1245.16
887.09	1247.21
887.26	1368.04
887.42	1306.60
887.59	1306.60
887.75	1314.80
887.92	1243.12
888.08	1351.66
888.25	1368.04
888.41	1163.25
888.58	1263.60
888.74	1300.46
888.91	1277.93
>>>>>End Processed Spectral Data<<<<<
