SpectraSuite Data File
++++++++++++++++++++++++++++++++++++
Date: Sun Apr 03 19:55:50 CEST 2016
User: root
Dark Spectrum Present: No
Reference Spectrum Present: No
Number of Sampled Component Spectra: 1
Spectrometers: USB4C02835
Integration Time (usec): 10000 (USB4C02835)
Spectra Averaged: 1 (USB4C02835)
Boxcar Smoothing: 0 (USB4C02835)
Correct for Electrical Dark: No (USB4C02835)
Strobe/Lamp Enabled: No (USB4C02835)
Correct for Detector Non-linearity: No (USB4C02835)
Correct for Stray Light: No (USB4C02835)
Number of Pixels in Processed Spectrum: 3648
>>>>>Begin Processed Spectral Data<<<<<
177.47	1290.22
177.69	1290.22
177.91	1290.22
178.13	1241.07
178.36	1196.01
178.58	1288.17
178.80	1232.88
179.02	1284.08
179.24	1353.71
179.46	1271.79
179.68	1286.12
179.90	1296.36
180.13	1206.25
180.35	1333.23
180.57	1200.11
180.79	1279.98
181.01	1304.56
181.23	1191.92
181.45	1196.01
181.67	1249.26
181.90	1247.21
182.12	1275.88
182.34	1292.27
182.56	1232.88
182.78	1224.69
183.00	1271.79
183.22	1263.60
183.44	1304.56
183.66	1249.26
183.89	1261.55
184.11	1208.30
184.33	1177.58
184.55	1249.26
184.77	1288.17
184.99	1331.18
185.21	1185.77
185.43	1257.45
185.65	1335.28
185.87	1310.70
186.10	1263.60
186.32	1290.22
186.54	1251.31
186.76	1226.73
186.98	1353.71
187.20	1247.21
187.42	1245.16
187.64	1308.65
187.86	1267.69
188.08	1273.84
188.30	1236.97
188.52	1226.73
188.75	1318.89
188.97	1196.01
189.19	1292.27
189.41	1288.17
189.63	1269.74
189.85	1290.22
190.07	1288.17
190.29	1308.65
190.51	1251.31
190.73	1296.36
190.95	1236.97
191.17	1300.46
191.39	1196.01
191.61	1239.02
191.84	1263.60
192.06	1284.08
192.28	1279.98
192.50	1425.39
192.72	1224.69
192.94	1243.12
193.16	1214.45
193.38	1263.60
193.60	1212.40
193.82	1261.55
194.04	1234.93
194.26	1226.73
194.48	1218.54
194.70	1234.93
194.92	1316.84
195.14	1232.88
195.36	1200.11
195.58	1292.27
195.80	1316.84
196.02	1269.74
196.24	1222.64
196.46	1241.07
196.69	1228.78
196.91	1243.12
197.13	1243.12
197.35	1253.36
197.57	1269.74
197.79	1257.45
198.01	1249.26
198.23	1322.99
198.45	1329.13
198.67	1273.84
198.89	1239.02
199.11	1327.08
199.33	1277.93
199.55	1263.60
199.77	1263.60
199.99	1296.36
200.21	1210.35
200.43	1239.02
200.65	1220.59
200.87	1349.61
201.09	1282.03
201.31	1329.13
201.53	1298.41
201.75	1261.55
201.97	1275.88
202.19	1257.45
202.41	1247.21
202.63	1253.36
202.85	1273.84
203.07	1353.71
203.29	1298.41
203.51	1230.83
203.73	1269.74
203.95	1267.69
204.17	1279.98
204.39	1329.13
204.61	1249.26
204.83	1271.79
205.05	1277.93
205.27	1271.79
205.49	1327.08
205.71	1298.41
205.93	1253.36
206.15	1277.93
206.37	1290.22
206.59	1259.50
206.81	1351.66
207.03	1275.88
207.25	1163.25
207.47	1347.56
207.69	1214.45
207.91	1298.41
208.13	1288.17
208.34	1288.17
208.56	1249.26
208.78	1312.75
209.00	1290.22
209.22	1286.12
209.44	1257.45
209.66	1257.45
209.88	1200.11
210.10	1200.11
210.32	1234.93
210.54	1245.16
210.76	1220.59
210.98	1290.22
211.20	1269.74
211.42	1255.40
211.64	1224.69
211.86	1306.60
212.08	1261.55
212.30	1169.39
212.52	1292.27
212.74	1355.76
212.96	1220.59
213.17	1296.36
213.39	1298.41
213.61	1302.51
213.83	1304.56
214.05	1288.17
214.27	1335.28
214.49	1253.36
214.71	1304.56
214.93	1292.27
215.15	1257.45
215.37	1304.56
215.59	1249.26
215.81	1206.25
216.03	1267.69
216.24	1282.03
216.46	1216.49
216.68	1279.98
216.90	1384.43
217.12	1271.79
217.34	1255.40
217.56	1273.84
217.78	1212.40
218.00	1224.69
218.22	1236.97
218.44	1187.82
218.66	1269.74
218.87	1263.60
219.09	1261.55
219.31	1308.65
219.53	1241.07
219.75	1218.54
219.97	1302.51
220.19	1273.84
220.41	1224.69
220.63	1288.17
220.85	1263.60
221.06	1157.10
221.28	1206.25
221.50	1263.60
221.72	1247.21
221.94	1290.22
222.16	1263.60
222.38	1284.08
222.60	1265.64
222.82	1296.36
223.03	1239.02
223.25	1269.74
223.47	1298.41
223.69	1249.26
223.91	1296.36
224.13	1277.93
224.35	1261.55
224.57	1306.60
224.78	1282.03
225.00	1288.17
225.22	1345.52
225.44	1263.60
225.66	1273.84
225.88	1288.17
226.10	1286.12
226.32	1327.08
226.53	1228.78
226.75	1302.51
226.97	1298.41
227.19	1279.98
227.41	1331.18
227.63	1392.62
227.85	1230.83
228.06	1294.32
228.28	1251.31
228.50	1239.02
228.72	1241.07
228.94	1265.64
229.16	1263.60
229.37	1263.60
229.59	1259.50
229.81	1257.45
230.03	1275.88
230.25	1259.50
230.47	1230.83
230.69	1189.87
230.90	1243.12
231.12	1249.26
231.34	1294.32
231.56	1318.89
231.78	1243.12
232.00	1259.50
232.21	1269.74
232.43	1337.32
232.65	1257.45
232.87	1284.08
233.09	1239.02
233.30	1269.74
233.52	1275.88
233.74	1259.50
233.96	1306.60
234.18	1222.64
234.40	1208.30
234.61	1210.35
234.83	1316.84
235.05	1257.45
235.27	1236.97
235.49	1277.93
235.70	1251.31
235.92	1294.32
236.14	1296.36
236.36	1284.08
236.58	1185.77
236.79	1290.22
237.01	1286.12
237.23	1316.84
237.45	1257.45
237.67	1302.51
237.88	1310.70
238.10	1282.03
238.32	1167.34
238.54	1263.60
238.76	1265.64
238.97	1247.21
239.19	1288.17
239.41	1282.03
239.63	1288.17
239.85	1370.09
240.06	1282.03
240.28	1286.12
240.50	1210.35
240.72	1308.65
240.93	1290.22
241.15	1296.36
241.37	1257.45
241.59	1322.99
241.81	1314.80
242.02	1257.45
242.24	1271.79
242.46	1304.56
242.68	1261.55
242.89	1304.56
243.11	1298.41
243.33	1288.17
243.55	1247.21
243.76	1265.64
243.98	1263.60
244.20	1232.88
244.42	1306.60
244.64	1327.08
244.85	1263.60
245.07	1300.46
245.29	1265.64
245.51	1300.46
245.72	1300.46
245.94	1228.78
246.16	1286.12
246.38	1273.84
246.59	1228.78
246.81	1198.06
247.03	1220.59
247.24	1247.21
247.46	1236.97
247.68	1331.18
247.90	1310.70
248.11	1282.03
248.33	1267.69
248.55	1282.03
248.77	1208.30
248.98	1255.40
249.20	1341.42
249.42	1314.80
249.64	1249.26
249.85	1247.21
250.07	1261.55
250.29	1206.25
250.50	1286.12
250.72	1273.84
250.94	1304.56
251.16	1265.64
251.37	1308.65
251.59	1255.40
251.81	1212.40
252.02	1226.73
252.24	1253.36
252.46	1318.89
252.68	1198.06
252.89	1306.60
253.11	1253.36
253.33	1308.65
253.54	1308.65
253.76	1255.40
253.98	1269.74
254.20	1226.73
254.41	1275.88
254.63	1224.69
254.85	1273.84
255.06	1230.83
255.28	1259.50
255.50	1275.88
255.71	1191.92
255.93	1245.16
256.15	1312.75
256.36	1247.21
256.58	1273.84
256.80	1312.75
257.02	1239.02
257.23	1257.45
257.45	1314.80
257.67	1296.36
257.88	1263.60
258.10	1304.56
258.32	1290.22
258.53	1271.79
258.75	1269.74
258.97	1243.12
259.18	1269.74
259.40	1241.07
259.62	1279.98
259.83	1200.11
260.05	1163.25
260.27	1251.31
260.48	1253.36
260.70	1243.12
260.92	1202.16
261.13	1273.84
261.35	1239.02
261.57	1331.18
261.78	1298.41
262.00	1286.12
262.22	1292.27
262.43	1253.36
262.65	1322.99
262.86	1232.88
263.08	1259.50
263.30	1232.88
263.51	1265.64
263.73	1286.12
263.95	1236.97
264.16	1306.60
264.38	1216.49
264.60	1290.22
264.81	1269.74
265.03	1290.22
265.25	1267.69
265.46	1273.84
265.68	1247.21
265.89	1331.18
266.11	1234.93
266.33	1282.03
266.54	1234.93
266.76	1181.68
266.98	1181.68
267.19	1257.45
267.41	1277.93
267.62	1288.17
267.84	1253.36
268.06	1247.21
268.27	1273.84
268.49	1320.94
268.70	1253.36
268.92	1249.26
269.14	1259.50
269.35	1222.64
269.57	1220.59
269.79	1329.13
270.00	1267.69
270.22	1288.17
270.43	1296.36
270.65	1290.22
270.87	1286.12
271.08	1255.40
271.30	1251.31
271.51	1322.99
271.73	1253.36
271.95	1339.37
272.16	1275.88
272.38	1247.21
272.59	1294.32
272.81	1267.69
273.02	1263.60
273.24	1271.79
273.46	1224.69
273.67	1284.08
273.89	1269.74
274.10	1234.93
274.32	1255.40
274.54	1296.36
274.75	1273.84
274.97	1329.13
275.18	1308.65
275.40	1363.95
275.61	1347.56
275.83	1239.02
276.05	1253.36
276.26	1230.83
276.48	1216.49
276.69	1224.69
276.91	1271.79
277.12	1300.46
277.34	1265.64
277.55	1343.47
277.77	1318.89
277.99	1251.31
278.20	1269.74
278.42	1390.57
278.63	1286.12
278.85	1234.93
279.06	1265.64
279.28	1363.95
279.49	1267.69
279.71	1290.22
279.93	1234.93
280.14	1245.16
280.36	1200.11
280.57	1294.32
280.79	1331.18
281.00	1241.07
281.22	1261.55
281.43	1337.32
281.65	1204.21
281.86	1236.97
282.08	1320.94
282.29	1288.17
282.51	1339.37
282.73	1257.45
282.94	1271.79
283.16	1214.45
283.37	1361.90
283.59	1294.32
283.80	1290.22
284.02	1277.93
284.23	1253.36
284.45	1271.79
284.66	1218.54
284.88	1259.50
285.09	1206.25
285.31	1255.40
285.52	1239.02
285.74	1339.37
285.95	1247.21
286.17	1232.88
286.38	1261.55
286.60	1331.18
286.81	1253.36
287.03	1273.84
287.24	1286.12
287.46	1255.40
287.67	1277.93
287.89	1247.21
288.10	1257.45
288.32	1329.13
288.53	1228.78
288.75	1300.46
288.96	1296.36
289.18	1191.92
289.39	1249.26
289.61	1216.49
289.82	1224.69
290.04	1296.36
290.25	1253.36
290.47	1249.26
290.68	1200.11
290.90	1325.04
291.11	1308.65
291.33	1267.69
291.54	1286.12
291.76	1255.40
291.97	1257.45
292.18	1288.17
292.40	1214.45
292.61	1267.69
292.83	1251.31
293.04	1331.18
293.26	1312.75
293.47	1302.51
293.69	1212.40
293.90	1269.74
294.12	1292.27
294.33	1329.13
294.55	1239.02
294.76	1257.45
294.97	1236.97
295.19	1255.40
295.40	1308.65
295.62	1210.35
295.83	1314.80
296.05	1286.12
296.26	1273.84
296.48	1273.84
296.69	1218.54
296.90	1277.93
297.12	1320.94
297.33	1292.27
297.55	1304.56
297.76	1282.03
297.98	1314.80
298.19	1259.50
298.41	1275.88
298.62	1247.21
298.83	1263.60
299.05	1253.36
299.26	1294.32
299.48	1306.60
299.69	1230.83
299.90	1157.10
300.12	1259.50
300.33	1279.98
300.55	1251.31
300.76	1279.98
300.98	1200.11
301.19	1302.51
301.40	1294.32
301.62	1269.74
301.83	1230.83
302.05	1269.74
302.26	1241.07
302.47	1290.22
302.69	1290.22
302.90	1222.64
303.12	1208.30
303.33	1308.65
303.54	1269.74
303.76	1236.97
303.97	1218.54
304.19	1298.41
304.40	1212.40
304.61	1245.16
304.83	1269.74
305.04	1267.69
305.26	1251.31
305.47	1241.07
305.68	1239.02
305.90	1325.04
306.11	1222.64
306.33	1267.69
306.54	1343.47
306.75	1275.88
306.97	1265.64
307.18	1214.45
307.39	1279.98
307.61	1265.64
307.82	1220.59
308.04	1249.26
308.25	1261.55
308.46	1302.51
308.68	1241.07
308.89	1259.50
309.10	1245.16
309.32	1210.35
309.53	1335.28
309.74	1294.32
309.96	1239.02
310.17	1259.50
310.39	1255.40
310.60	1249.26
310.81	1212.40
311.03	1286.12
311.24	1298.41
311.45	1263.60
311.67	1335.28
311.88	1193.97
312.09	1343.47
312.31	1214.45
312.52	1273.84
312.73	1226.73
312.95	1263.60
313.16	1292.27
313.37	1257.45
313.59	1228.78
313.80	1214.45
314.01	1236.97
314.23	1232.88
314.44	1206.25
314.65	1269.74
314.87	1318.89
315.08	1259.50
315.29	1253.36
315.51	1261.55
315.72	1267.69
315.93	1335.28
316.15	1314.80
316.36	1265.64
316.57	1253.36
316.79	1257.45
317.00	1245.16
317.21	1200.11
317.43	1273.84
317.64	1300.46
317.85	1241.07
318.07	1214.45
318.28	1296.36
318.49	1302.51
318.70	1320.94
318.92	1259.50
319.13	1265.64
319.34	1304.56
319.56	1331.18
319.77	1220.59
319.98	1271.79
320.20	1304.56
320.41	1318.89
320.62	1284.08
320.83	1312.75
321.05	1300.46
321.26	1204.21
321.47	1275.88
321.69	1294.32
321.90	1263.60
322.11	1300.46
322.32	1294.32
322.54	1234.93
322.75	1232.88
322.96	1232.88
323.18	1296.36
323.39	1292.27
323.60	1294.32
323.81	1245.16
324.03	1279.98
324.24	1275.88
324.45	1279.98
324.66	1282.03
324.88	1228.78
325.09	1220.59
325.30	1282.03
325.52	1257.45
325.73	1302.51
325.94	1224.69
326.15	1273.84
326.37	1265.64
326.58	1271.79
326.79	1320.94
327.00	1239.02
327.22	1294.32
327.43	1316.84
327.64	1239.02
327.85	1222.64
328.07	1265.64
328.28	1245.16
328.49	1292.27
328.70	1261.55
328.92	1306.60
329.13	1230.83
329.34	1241.07
329.55	1349.61
329.76	1355.76
329.98	1286.12
330.19	1271.79
330.40	1263.60
330.61	1241.07
330.83	1288.17
331.04	1279.98
331.25	1275.88
331.46	1181.68
331.68	1269.74
331.89	1204.21
332.10	1243.12
332.31	1253.36
332.52	1306.60
332.74	1300.46
332.95	1257.45
333.16	1284.08
333.37	1253.36
333.58	1198.06
333.80	1236.97
334.01	1265.64
334.22	1296.36
334.43	1220.59
334.64	1202.16
334.86	1296.36
335.07	1355.76
335.28	1255.40
335.49	1249.26
335.70	1273.84
335.92	1298.41
336.13	1261.55
336.34	1239.02
336.55	1208.30
336.76	1316.84
336.98	1271.79
337.19	1239.02
337.40	1335.28
337.61	1355.76
337.82	1325.04
338.04	1341.42
338.25	1224.69
338.46	1308.65
338.67	1249.26
338.88	1220.59
339.09	1302.51
339.31	1257.45
339.52	1282.03
339.73	1302.51
339.94	1306.60
340.15	1292.27
340.36	1241.07
340.58	1282.03
340.79	1282.03
341.00	1294.32
341.21	1241.07
341.42	1300.46
341.63	1247.21
341.85	1314.80
342.06	1243.12
342.27	1257.45
342.48	1296.36
342.69	1265.64
342.90	1232.88
343.12	1296.36
343.33	1306.60
343.54	1282.03
343.75	1251.31
343.96	1222.64
344.17	1273.84
344.38	1245.16
344.60	1279.98
344.81	1341.42
345.02	1277.93
345.23	1224.69
345.44	1306.60
345.65	1308.65
345.86	1245.16
346.07	1396.71
346.29	1347.56
346.50	1214.45
346.71	1273.84
346.92	1294.32
347.13	1294.32
347.34	1210.35
347.55	1343.47
347.76	1232.88
347.98	1202.16
348.19	1202.16
348.40	1304.56
348.61	1279.98
348.82	1249.26
349.03	1296.36
349.24	1181.68
349.45	1292.27
349.66	1218.54
349.88	1284.08
350.09	1269.74
350.30	1322.99
350.51	1220.59
350.72	1245.16
350.93	1273.84
351.14	1216.49
351.35	1312.75
351.56	1302.51
351.77	1331.18
351.99	1277.93
352.20	1218.54
352.41	1267.69
352.62	1267.69
352.83	1271.79
353.04	1267.69
353.25	1171.44
353.46	1265.64
353.67	1290.22
353.88	1275.88
354.09	1224.69
354.30	1243.12
354.52	1220.59
354.73	1247.21
354.94	1275.88
355.15	1224.69
355.36	1298.41
355.57	1265.64
355.78	1279.98
355.99	1327.08
356.20	1322.99
356.41	1314.80
356.62	1214.45
356.83	1191.92
357.04	1284.08
357.25	1306.60
357.46	1255.40
357.68	1204.21
357.89	1310.70
358.10	1257.45
358.31	1273.84
358.52	1267.69
358.73	1353.71
358.94	1306.60
359.15	1251.31
359.36	1294.32
359.57	1249.26
359.78	1306.60
359.99	1310.70
360.20	1222.64
360.41	1296.36
360.62	1230.83
360.83	1202.16
361.04	1320.94
361.25	1308.65
361.46	1372.14
361.67	1261.55
361.88	1245.16
362.09	1243.12
362.30	1261.55
362.51	1290.22
362.72	1279.98
362.93	1245.16
363.14	1279.98
363.35	1286.12
363.56	1206.25
363.78	1261.55
363.99	1286.12
364.20	1224.69
364.41	1261.55
364.62	1290.22
364.83	1298.41
365.04	1216.49
365.25	1296.36
365.46	1329.13
365.67	1255.40
365.88	1249.26
366.09	1255.40
366.30	1261.55
366.51	1320.94
366.72	1261.55
366.93	1306.60
367.14	1318.89
367.35	1241.07
367.56	1312.75
367.77	1214.45
367.98	1222.64
368.18	1288.17
368.39	1241.07
368.60	1245.16
368.81	1298.41
369.02	1304.56
369.23	1318.89
369.44	1251.31
369.65	1208.30
369.86	1273.84
370.07	1275.88
370.28	1322.99
370.49	1247.21
370.70	1265.64
370.91	1296.36
371.12	1226.73
371.33	1288.17
371.54	1337.32
371.75	1316.84
371.96	1234.93
372.17	1232.88
372.38	1298.41
372.59	1261.55
372.80	1282.03
373.01	1298.41
373.22	1204.21
373.43	1290.22
373.64	1331.18
373.85	1337.32
374.06	1294.32
374.26	1263.60
374.47	1261.55
374.68	1282.03
374.89	1314.80
375.10	1245.16
375.31	1411.05
375.52	1267.69
375.73	1302.51
375.94	1261.55
376.15	1314.80
376.36	1265.64
376.57	1284.08
376.78	1265.64
376.99	1277.93
377.20	1257.45
377.40	1247.21
377.61	1288.17
377.82	1300.46
378.03	1247.21
378.24	1232.88
378.45	1343.47
378.66	1257.45
378.87	1271.79
379.08	1232.88
379.29	1263.60
379.50	1263.60
379.71	1265.64
379.91	1296.36
380.12	1282.03
380.33	1249.26
380.54	1255.40
380.75	1216.49
380.96	1329.13
381.17	1353.71
381.38	1247.21
381.59	1282.03
381.80	1275.88
382.00	1331.18
382.21	1314.80
382.42	1325.04
382.63	1224.69
382.84	1249.26
383.05	1314.80
383.26	1269.74
383.47	1232.88
383.68	1282.03
383.88	1255.40
384.09	1232.88
384.30	1253.36
384.51	1312.75
384.72	1288.17
384.93	1236.97
385.14	1218.54
385.35	1232.88
385.55	1314.80
385.76	1275.88
385.97	1245.16
386.18	1208.30
386.39	1327.08
386.60	1325.04
386.81	1277.93
387.02	1230.83
387.22	1239.02
387.43	1288.17
387.64	1265.64
387.85	1304.56
388.06	1259.50
388.27	1335.28
388.48	1304.56
388.68	1292.27
388.89	1265.64
389.10	1288.17
389.31	1259.50
389.52	1290.22
389.73	1267.69
389.93	1228.78
390.14	1214.45
390.35	1193.97
390.56	1331.18
390.77	1351.66
390.98	1277.93
391.18	1318.89
391.39	1234.93
391.60	1308.65
391.81	1294.32
392.02	1232.88
392.23	1308.65
392.43	1279.98
392.64	1265.64
392.85	1265.64
393.06	1282.03
393.27	1216.49
393.47	1239.02
393.68	1314.80
393.89	1263.60
394.10	1263.60
394.31	1206.25
394.52	1216.49
394.72	1257.45
394.93	1284.08
395.14	1206.25
395.35	1282.03
395.56	1249.26
395.76	1269.74
395.97	1222.64
396.18	1257.45
396.39	1247.21
396.60	1339.37
396.80	1286.12
397.01	1298.41
397.22	1279.98
397.43	1253.36
397.64	1263.60
397.84	1263.60
398.05	1271.79
398.26	1279.98
398.47	1181.68
398.67	1284.08
398.88	1290.22
399.09	1183.73
399.30	1228.78
399.51	1243.12
399.71	1322.99
399.92	1325.04
400.13	1171.44
400.34	1327.08
400.54	1232.88
400.75	1212.40
400.96	1273.84
401.17	1245.16
401.37	1249.26
401.58	1284.08
401.79	1228.78
402.00	1302.51
402.21	1300.46
402.41	1216.49
402.62	1261.55
402.83	1314.80
403.04	1318.89
403.24	1239.02
403.45	1247.21
403.66	1378.28
403.87	1210.35
404.07	1316.84
404.28	1236.97
404.49	1310.70
404.70	1265.64
404.90	1286.12
405.11	1206.25
405.32	1222.64
405.52	1183.73
405.73	1222.64
405.94	1273.84
406.15	1245.16
406.35	1296.36
406.56	1263.60
406.77	1208.30
406.98	1294.32
407.18	1230.83
407.39	1267.69
407.60	1288.17
407.80	1306.60
408.01	1230.83
408.22	1265.64
408.43	1279.98
408.63	1277.93
408.84	1253.36
409.05	1267.69
409.25	1273.84
409.46	1267.69
409.67	1263.60
409.88	1314.80
410.08	1245.16
410.29	1255.40
410.50	1230.83
410.70	1286.12
410.91	1267.69
411.12	1247.21
411.32	1269.74
411.53	1302.51
411.74	1327.08
411.95	1226.73
412.15	1277.93
412.36	1292.27
412.57	1200.11
412.77	1302.51
412.98	1290.22
413.19	1239.02
413.39	1304.56
413.60	1288.17
413.81	1253.36
414.01	1298.41
414.22	1339.37
414.43	1275.88
414.63	1206.25
414.84	1263.60
415.05	1298.41
415.25	1279.98
415.46	1220.59
415.67	1304.56
415.87	1249.26
416.08	1263.60
416.29	1257.45
416.49	1306.60
416.70	1290.22
416.91	1257.45
417.11	1261.55
417.32	1239.02
417.53	1222.64
417.73	1263.60
417.94	1347.56
418.15	1239.02
418.35	1216.49
418.56	1290.22
418.77	1314.80
418.97	1331.18
419.18	1318.89
419.38	1273.84
419.59	1253.36
419.80	1269.74
420.00	1224.69
420.21	1247.21
420.42	1251.31
420.62	1353.71
420.83	1226.73
421.04	1300.46
421.24	1267.69
421.45	1279.98
421.65	1267.69
421.86	1241.07
422.07	1206.25
422.27	1253.36
422.48	1206.25
422.69	1265.64
422.89	1247.21
423.10	1282.03
423.30	1232.88
423.51	1245.16
423.72	1232.88
423.92	1351.66
424.13	1228.78
424.33	1292.27
424.54	1277.93
424.75	1304.56
424.95	1204.21
425.16	1331.18
425.36	1257.45
425.57	1349.61
425.78	1269.74
425.98	1216.49
426.19	1265.64
426.39	1230.83
426.60	1290.22
426.81	1314.80
427.01	1269.74
427.22	1284.08
427.42	1273.84
427.63	1228.78
427.83	1228.78
428.04	1347.56
428.25	1359.85
428.45	1320.94
428.66	1261.55
428.86	1247.21
429.07	1220.59
429.28	1298.41
429.48	1304.56
429.69	1288.17
429.89	1298.41
430.10	1263.60
430.30	1241.07
430.51	1259.50
430.71	1265.64
430.92	1325.04
431.13	1232.88
431.33	1282.03
431.54	1306.60
431.74	1251.31
431.95	1302.51
432.15	1202.16
432.36	1224.69
432.56	1290.22
432.77	1259.50
432.98	1245.16
433.18	1255.40
433.39	1261.55
433.59	1200.11
433.80	1368.04
434.00	1296.36
434.21	1267.69
434.41	1275.88
434.62	1263.60
434.82	1222.64
435.03	1279.98
435.23	1292.27
435.44	1282.03
435.64	1202.16
435.85	1308.65
436.06	1245.16
436.26	1241.07
436.47	1273.84
436.67	1232.88
436.88	1308.65
437.08	1275.88
437.29	1261.55
437.49	1298.41
437.70	1239.02
437.90	1191.92
438.11	1314.80
438.31	1363.95
438.52	1243.12
438.72	1279.98
438.93	1296.36
439.13	1249.26
439.34	1255.40
439.54	1263.60
439.75	1267.69
439.95	1277.93
440.16	1255.40
440.36	1329.13
440.57	1279.98
440.77	1267.69
440.98	1263.60
441.18	1296.36
441.39	1257.45
441.59	1345.52
441.80	1366.00
442.00	1347.56
442.21	1302.51
442.41	1265.64
442.62	1275.88
442.82	1241.07
443.02	1226.73
443.23	1249.26
443.43	1290.22
443.64	1271.79
443.84	1279.98
444.05	1310.70
444.25	1267.69
444.46	1282.03
444.66	1265.64
444.87	1312.75
445.07	1290.22
445.28	1329.13
445.48	1286.12
445.69	1175.53
445.89	1261.55
446.09	1239.02
446.30	1288.17
446.50	1312.75
446.71	1271.79
446.91	1212.40
447.12	1277.93
447.32	1249.26
447.53	1271.79
447.73	1261.55
447.93	1284.08
448.14	1308.65
448.34	1241.07
448.55	1259.50
448.75	1259.50
448.96	1241.07
449.16	1273.84
449.36	1333.23
449.57	1263.60
449.77	1300.46
449.98	1286.12
450.18	1255.40
450.39	1347.56
450.59	1298.41
450.79	1329.13
451.00	1308.65
451.20	1327.08
451.41	1247.21
451.61	1290.22
451.81	1249.26
452.02	1277.93
452.22	1263.60
452.43	1220.59
452.63	1294.32
452.84	1261.55
453.04	1253.36
453.24	1339.37
453.45	1222.64
453.65	1228.78
453.86	1284.08
454.06	1296.36
454.26	1353.71
454.47	1288.17
454.67	1282.03
454.87	1259.50
455.08	1368.04
455.28	1204.21
455.49	1249.26
455.69	1247.21
455.89	1298.41
456.10	1267.69
456.30	1306.60
456.51	1294.32
456.71	1257.45
456.91	1318.89
457.12	1304.56
457.32	1292.27
457.52	1316.84
457.73	1241.07
457.93	1290.22
458.14	1261.55
458.34	1191.92
458.54	1286.12
458.75	1243.12
458.95	1259.50
459.15	1292.27
459.36	1290.22
459.56	1249.26
459.76	1284.08
459.97	1257.45
460.17	1282.03
460.37	1265.64
460.58	1273.84
460.78	1306.60
460.99	1298.41
461.19	1316.84
461.39	1304.56
461.60	1267.69
461.80	1222.64
462.00	1263.60
462.21	1335.28
462.41	1296.36
462.61	1277.93
462.82	1294.32
463.02	1298.41
463.22	1234.93
463.43	1325.04
463.63	1202.16
463.83	1296.36
464.04	1208.30
464.24	1265.64
464.44	1243.12
464.64	1345.52
464.85	1243.12
465.05	1257.45
465.25	1314.80
465.46	1267.69
465.66	1296.36
465.86	1269.74
466.07	1267.69
466.27	1298.41
466.47	1257.45
466.68	1261.55
466.88	1331.18
467.08	1304.56
467.29	1308.65
467.49	1228.78
467.69	1335.28
467.89	1265.64
468.10	1279.98
468.30	1277.93
468.50	1243.12
468.71	1300.46
468.91	1320.94
469.11	1236.97
469.31	1255.40
469.52	1304.56
469.72	1208.30
469.92	1273.84
470.13	1318.89
470.33	1214.45
470.53	1304.56
470.73	1339.37
470.94	1304.56
471.14	1314.80
471.34	1284.08
471.54	1241.07
471.75	1314.80
471.95	1257.45
472.15	1304.56
472.36	1187.82
472.56	1206.25
472.76	1300.46
472.96	1241.07
473.17	1228.78
473.37	1257.45
473.57	1255.40
473.77	1314.80
473.98	1185.77
474.18	1318.89
474.38	1300.46
474.58	1273.84
474.79	1255.40
474.99	1298.41
475.19	1185.77
475.39	1249.26
475.60	1327.08
475.80	1236.97
476.00	1314.80
476.20	1249.26
476.41	1314.80
476.61	1251.31
476.81	1263.60
477.01	1320.94
477.21	1259.50
477.42	1374.19
477.62	1243.12
477.82	1282.03
478.02	1300.46
478.23	1331.18
478.43	1191.92
478.63	1245.16
478.83	1206.25
479.03	1261.55
479.24	1222.64
479.44	1275.88
479.64	1273.84
479.84	1259.50
480.04	1257.45
480.25	1226.73
480.45	1245.16
480.65	1255.40
480.85	1275.88
481.06	1282.03
481.26	1273.84
481.46	1284.08
481.66	1345.52
481.86	1261.55
482.06	1202.16
482.27	1261.55
482.47	1302.51
482.67	1288.17
482.87	1185.77
483.07	1224.69
483.28	1222.64
483.48	1296.36
483.68	1296.36
483.88	1263.60
484.08	1284.08
484.29	1255.40
484.49	1247.21
484.69	1230.83
484.89	1230.83
485.09	1318.89
485.29	1275.88
485.50	1273.84
485.70	1279.98
485.90	1273.84
486.10	1243.12
486.30	1286.12
486.50	1275.88
486.71	1228.78
486.91	1253.36
487.11	1282.03
487.31	1292.27
487.51	1359.85
487.71	1363.95
487.91	1337.32
488.12	1257.45
488.32	1247.21
488.52	1251.31
488.72	1245.16
488.92	1284.08
489.12	1322.99
489.32	1296.36
489.53	1279.98
489.73	1263.60
489.93	1294.32
490.13	1353.71
490.33	1296.36
490.53	1230.83
490.73	1292.27
490.94	1263.60
491.14	1304.56
491.34	1210.35
491.54	1210.35
491.74	1243.12
491.94	1282.03
492.14	1275.88
492.34	1300.46
492.54	1245.16
492.75	1304.56
492.95	1267.69
493.15	1294.32
493.35	1167.34
493.55	1263.60
493.75	1253.36
493.95	1290.22
494.15	1239.02
494.35	1232.88
494.56	1302.51
494.76	1292.27
494.96	1284.08
495.16	1318.89
495.36	1290.22
495.56	1302.51
495.76	1333.23
495.96	1269.74
496.16	1302.51
496.36	1288.17
496.56	1247.21
496.77	1304.56
496.97	1288.17
497.17	1216.49
497.37	1296.36
497.57	1234.93
497.77	1273.84
497.97	1290.22
498.17	1234.93
498.37	1253.36
498.57	1269.74
498.77	1282.03
498.97	1298.41
499.17	1191.92
499.38	1193.97
499.58	1327.08
499.78	1277.93
499.98	1282.03
500.18	1222.64
500.38	1292.27
500.58	1249.26
500.78	1275.88
500.98	1255.40
501.18	1249.26
501.38	1216.49
501.58	1261.55
501.78	1284.08
501.98	1359.85
502.18	1318.89
502.38	1277.93
502.58	1259.50
502.78	1325.04
502.98	1327.08
503.18	1304.56
503.38	1243.12
503.59	1325.04
503.79	1222.64
503.99	1314.80
504.19	1224.69
504.39	1226.73
504.59	1294.32
504.79	1282.03
504.99	1230.83
505.19	1302.51
505.39	1273.84
505.59	1226.73
505.79	1239.02
505.99	1224.69
506.19	1247.21
506.39	1239.02
506.59	1245.16
506.79	1218.54
506.99	1230.83
507.19	1312.75
507.39	1255.40
507.59	1251.31
507.79	1318.89
507.99	1234.93
508.19	1226.73
508.39	1212.40
508.59	1249.26
508.79	1290.22
508.99	1257.45
509.19	1290.22
509.39	1363.95
509.59	1239.02
509.79	1208.30
509.99	1253.36
510.19	1269.74
510.39	1247.21
510.59	1279.98
510.79	1327.08
510.99	1314.80
511.19	1304.56
511.39	1261.55
511.59	1247.21
511.79	1302.51
511.99	1257.45
512.19	1265.64
512.38	1284.08
512.58	1275.88
512.78	1269.74
512.98	1286.12
513.18	1288.17
513.38	1304.56
513.58	1273.84
513.78	1273.84
513.98	1327.08
514.18	1265.64
514.38	1243.12
514.58	1222.64
514.78	1331.18
514.98	1275.88
515.18	1288.17
515.38	1275.88
515.58	1339.37
515.78	1279.98
515.98	1339.37
516.18	1282.03
516.38	1320.94
516.57	1320.94
516.77	1312.75
516.97	1249.26
517.17	1325.04
517.37	1263.60
517.57	1277.93
517.77	1218.54
517.97	1292.27
518.17	1316.84
518.37	1253.36
518.57	1316.84
518.77	1288.17
518.97	1241.07
519.16	1361.90
519.36	1263.60
519.56	1300.46
519.76	1273.84
519.96	1300.46
520.16	1273.84
520.36	1273.84
520.56	1236.97
520.76	1218.54
520.96	1181.68
521.16	1353.71
521.35	1241.07
521.55	1220.59
521.75	1298.41
521.95	1279.98
522.15	1212.40
522.35	1255.40
522.55	1339.37
522.75	1339.37
522.95	1318.89
523.14	1251.31
523.34	1243.12
523.54	1216.49
523.74	1247.21
523.94	1259.50
524.14	1265.64
524.34	1273.84
524.54	1275.88
524.73	1347.56
524.93	1265.64
525.13	1312.75
525.33	1314.80
525.53	1224.69
525.73	1261.55
525.93	1271.79
526.13	1275.88
526.32	1255.40
526.52	1277.93
526.72	1312.75
526.92	1265.64
527.12	1355.76
527.32	1183.73
527.52	1320.94
527.71	1220.59
527.91	1292.27
528.11	1308.65
528.31	1296.36
528.51	1265.64
528.71	1302.51
528.90	1308.65
529.10	1306.60
529.30	1271.79
529.50	1355.76
529.70	1226.73
529.90	1306.60
530.09	1234.93
530.29	1273.84
530.49	1308.65
530.69	1318.89
530.89	1269.74
531.09	1251.31
531.28	1327.08
531.48	1304.56
531.68	1279.98
531.88	1343.47
532.08	1245.16
532.28	1249.26
532.47	1294.32
532.67	1288.17
532.87	1273.84
533.07	1218.54
533.27	1290.22
533.46	1298.41
533.66	1282.03
533.86	1298.41
534.06	1271.79
534.26	1282.03
534.45	1300.46
534.65	1263.60
534.85	1277.93
535.05	1226.73
535.25	1312.75
535.44	1253.36
535.64	1304.56
535.84	1236.97
536.04	1277.93
536.24	1288.17
536.43	1292.27
536.63	1292.27
536.83	1255.40
537.03	1286.12
537.22	1257.45
537.42	1337.32
537.62	1241.07
537.82	1261.55
538.02	1312.75
538.21	1245.16
538.41	1275.88
538.61	1216.49
538.81	1351.66
539.00	1279.98
539.20	1228.78
539.40	1322.99
539.60	1312.75
539.79	1263.60
539.99	1320.94
540.19	1224.69
540.39	1337.32
540.58	1286.12
540.78	1251.31
540.98	1368.04
541.18	1322.99
541.37	1298.41
541.57	1298.41
541.77	1269.74
541.97	1273.84
542.16	1271.79
542.36	1241.07
542.56	1298.41
542.76	1304.56
542.95	1327.08
543.15	1296.36
543.35	1331.18
543.54	1370.09
543.74	1245.16
543.94	1236.97
544.14	1249.26
544.33	1271.79
544.53	1347.56
544.73	1349.61
544.93	1271.79
545.12	1230.83
545.32	1292.27
545.52	1251.31
545.71	1329.13
545.91	1318.89
546.11	1257.45
546.30	1282.03
546.50	1271.79
546.70	1341.42
546.90	1325.04
547.09	1288.17
547.29	1271.79
547.49	1294.32
547.68	1269.74
547.88	1232.88
548.08	1277.93
548.27	1320.94
548.47	1341.42
548.67	1269.74
548.87	1239.02
549.06	1261.55
549.26	1255.40
549.46	1288.17
549.65	1263.60
549.85	1167.34
550.05	1288.17
550.24	1286.12
550.44	1271.79
550.64	1271.79
550.83	1279.98
551.03	1308.65
551.23	1279.98
551.42	1257.45
551.62	1230.83
551.82	1234.93
552.01	1333.23
552.21	1279.98
552.41	1304.56
552.60	1228.78
552.80	1300.46
553.00	1286.12
553.19	1255.40
553.39	1241.07
553.59	1261.55
553.78	1232.88
553.98	1282.03
554.17	1363.95
554.37	1234.93
554.57	1314.80
554.76	1279.98
554.96	1316.84
555.16	1273.84
555.35	1273.84
555.55	1288.17
555.75	1259.50
555.94	1290.22
556.14	1255.40
556.33	1337.32
556.53	1304.56
556.73	1355.76
556.92	1279.98
557.12	1277.93
557.32	1302.51
557.51	1312.75
557.71	1294.32
557.90	1345.52
558.10	1288.17
558.30	1294.32
558.49	1288.17
558.69	1292.27
558.88	1345.52
559.08	1290.22
559.28	1310.70
559.47	1284.08
559.67	1296.36
559.86	1318.89
560.06	1372.14
560.26	1318.89
560.45	1269.74
560.65	1312.75
560.84	1304.56
561.04	1267.69
561.24	1261.55
561.43	1314.80
561.63	1331.18
561.82	1273.84
562.02	1277.93
562.22	1212.40
562.41	1288.17
562.61	1232.88
562.80	1347.56
563.00	1230.83
563.19	1232.88
563.39	1230.83
563.59	1300.46
563.78	1236.97
563.98	1249.26
564.17	1230.83
564.37	1241.07
564.56	1296.36
564.76	1300.46
564.96	1322.99
565.15	1255.40
565.35	1282.03
565.54	1302.51
565.74	1312.75
565.93	1214.45
566.13	1251.31
566.32	1345.52
566.52	1296.36
566.71	1202.16
566.91	1294.32
567.11	1296.36
567.30	1331.18
567.50	1269.74
567.69	1263.60
567.89	1306.60
568.08	1261.55
568.28	1320.94
568.47	1253.36
568.67	1300.46
568.86	1222.64
569.06	1273.84
569.25	1265.64
569.45	1286.12
569.64	1320.94
569.84	1259.50
570.04	1282.03
570.23	1249.26
570.43	1226.73
570.62	1273.84
570.82	1284.08
571.01	1294.32
571.21	1345.52
571.40	1355.76
571.60	1275.88
571.79	1247.21
571.99	1304.56
572.18	1300.46
572.38	1282.03
572.57	1228.78
572.77	1292.27
572.96	1366.00
573.16	1318.89
573.35	1257.45
573.55	1320.94
573.74	1300.46
573.94	1333.23
574.13	1261.55
574.33	1302.51
574.52	1273.84
574.71	1308.65
574.91	1236.97
575.10	1288.17
575.30	1308.65
575.49	1308.65
575.69	1275.88
575.88	1286.12
576.08	1255.40
576.27	1361.90
576.47	1198.06
576.66	1279.98
576.86	1271.79
577.05	1298.41
577.25	1218.54
577.44	1142.77
577.64	1341.42
577.83	1284.08
578.02	1271.79
578.22	1331.18
578.41	1296.36
578.61	1304.56
578.80	1292.27
579.00	1318.89
579.19	1286.12
579.39	1263.60
579.58	1210.35
579.77	1294.32
579.97	1343.47
580.16	1339.37
580.36	1243.12
580.55	1253.36
580.75	1263.60
580.94	1282.03
581.13	1275.88
581.33	1288.17
581.52	1271.79
581.72	1288.17
581.91	1302.51
582.11	1224.69
582.30	1327.08
582.49	1296.36
582.69	1220.59
582.88	1284.08
583.08	1296.36
583.27	1308.65
583.47	1259.50
583.66	1290.22
583.85	1343.47
584.05	1236.97
584.24	1269.74
584.44	1269.74
584.63	1282.03
584.82	1282.03
585.02	1320.94
585.21	1228.78
585.41	1277.93
585.60	1392.62
585.79	1234.93
585.99	1335.28
586.18	1343.47
586.37	1337.32
586.57	1255.40
586.76	1279.98
586.96	1255.40
587.15	1331.18
587.34	1288.17
587.54	1241.07
587.73	1282.03
587.93	1298.41
588.12	1327.08
588.31	1370.09
588.51	1187.82
588.70	1224.69
588.89	1347.56
589.09	1316.84
589.28	1294.32
589.47	1322.99
589.67	1298.41
589.86	1259.50
590.06	1322.99
590.25	1265.64
590.44	1300.46
590.64	1312.75
590.83	1318.89
591.02	1271.79
591.22	1300.46
591.41	1267.69
591.60	1296.36
591.80	1288.17
591.99	1239.02
592.18	1267.69
592.38	1220.59
592.57	1236.97
592.76	1310.70
592.96	1282.03
593.15	1267.69
593.34	1284.08
593.54	1255.40
593.73	1279.98
593.92	1325.04
594.12	1257.45
594.31	1310.70
594.50	1329.13
594.70	1196.01
594.89	1302.51
595.08	1239.02
595.28	1333.23
595.47	1302.51
595.66	1265.64
595.86	1239.02
596.05	1314.80
596.24	1257.45
596.43	1304.56
596.63	1368.04
596.82	1273.84
597.01	1286.12
597.21	1361.90
597.40	1220.59
597.59	1357.80
597.79	1351.66
597.98	1372.14
598.17	1320.94
598.36	1288.17
598.56	1218.54
598.75	1228.78
598.94	1308.65
599.14	1359.85
599.33	1288.17
599.52	1282.03
599.71	1257.45
599.91	1294.32
600.10	1273.84
600.29	1337.32
600.48	1335.28
600.68	1298.41
600.87	1312.75
601.06	1322.99
601.26	1318.89
601.45	1277.93
601.64	1343.47
601.83	1222.64
602.03	1267.69
602.22	1265.64
602.41	1255.40
602.60	1304.56
602.80	1288.17
602.99	1259.50
603.18	1316.84
603.37	1255.40
603.57	1220.59
603.76	1271.79
603.95	1273.84
604.14	1249.26
604.34	1325.04
604.53	1255.40
604.72	1253.36
604.91	1298.41
605.10	1279.98
605.30	1273.84
605.49	1304.56
605.68	1275.88
605.87	1232.88
606.07	1286.12
606.26	1253.36
606.45	1322.99
606.64	1277.93
606.84	1261.55
607.03	1337.32
607.22	1275.88
607.41	1269.74
607.60	1267.69
607.80	1216.49
607.99	1267.69
608.18	1249.26
608.37	1322.99
608.56	1214.45
608.76	1269.74
608.95	1290.22
609.14	1325.04
609.33	1322.99
609.52	1322.99
609.72	1255.40
609.91	1296.36
610.10	1212.40
610.29	1236.97
610.48	1261.55
610.68	1318.89
610.87	1327.08
611.06	1234.93
611.25	1271.79
611.44	1329.13
611.63	1216.49
611.83	1232.88
612.02	1271.79
612.21	1327.08
612.40	1325.04
612.59	1282.03
612.79	1296.36
612.98	1273.84
613.17	1277.93
613.36	1236.97
613.55	1267.69
613.74	1253.36
613.93	1230.83
614.13	1304.56
614.32	1282.03
614.51	1247.21
614.70	1304.56
614.89	1247.21
615.08	1261.55
615.28	1271.79
615.47	1345.52
615.66	1292.27
615.85	1333.23
616.04	1263.60
616.23	1294.32
616.42	1306.60
616.62	1234.93
616.81	1294.32
617.00	1230.83
617.19	1386.47
617.38	1224.69
617.57	1351.66
617.76	1275.88
617.95	1247.21
618.15	1349.61
618.34	1288.17
618.53	1239.02
618.72	1339.37
618.91	1322.99
619.10	1275.88
619.29	1370.09
619.48	1265.64
619.68	1216.49
619.87	1390.57
620.06	1257.45
620.25	1261.55
620.44	1279.98
620.63	1325.04
620.82	1327.08
621.01	1290.22
621.20	1308.65
621.39	1284.08
621.59	1273.84
621.78	1249.26
621.97	1267.69
622.16	1335.28
622.35	1249.26
622.54	1288.17
622.73	1322.99
622.92	1261.55
623.11	1167.34
623.30	1355.76
623.49	1234.93
623.68	1249.26
623.88	1249.26
624.07	1249.26
624.26	1318.89
624.45	1245.16
624.64	1267.69
624.83	1312.75
625.02	1288.17
625.21	1292.27
625.40	1353.71
625.59	1306.60
625.78	1275.88
625.97	1314.80
626.16	1230.83
626.35	1239.02
626.54	1359.85
626.74	1339.37
626.93	1271.79
627.12	1372.14
627.31	1284.08
627.50	1249.26
627.69	1218.54
627.88	1306.60
628.07	1292.27
628.26	1271.79
628.45	1298.41
628.64	1320.94
628.83	1279.98
629.02	1306.60
629.21	1325.04
629.40	1304.56
629.59	1304.56
629.78	1337.32
629.97	1366.00
630.16	1335.28
630.35	1228.78
630.54	1322.99
630.73	1271.79
630.92	1320.94
631.11	1308.65
631.30	1370.09
631.49	1322.99
631.68	1439.72
631.87	1394.67
632.06	1398.76
632.25	1396.71
632.44	1466.35
632.63	1460.20
632.82	1474.54
633.01	1431.53
633.20	1409.00
633.39	1431.53
633.58	1456.11
633.77	1427.43
633.96	1435.63
634.15	1413.10
634.34	1431.53
634.53	1396.71
634.72	1443.82
634.91	1417.19
635.10	1372.14
635.29	1468.39
635.48	1529.83
635.67	1458.15
635.86	1458.15
636.05	1388.52
636.24	1409.00
636.43	1470.44
636.62	1347.56
636.81	1361.90
637.00	1359.85
637.19	1429.48
637.38	1370.09
637.57	1310.70
637.76	1419.24
637.95	1331.18
638.14	1357.80
638.33	1343.47
638.52	1327.08
638.71	1304.56
638.89	1298.41
639.08	1355.76
639.27	1265.64
639.46	1271.79
639.65	1275.88
639.84	1257.45
640.03	1306.60
640.22	1302.51
640.41	1275.88
640.60	1288.17
640.79	1329.13
640.98	1316.84
641.17	1275.88
641.36	1314.80
641.55	1322.99
641.74	1243.12
641.92	1353.71
642.11	1302.51
642.30	1210.35
642.49	1265.64
642.68	1372.14
642.87	1294.32
643.06	1279.98
643.25	1255.40
643.44	1322.99
643.63	1298.41
643.82	1290.22
644.00	1325.04
644.19	1232.88
644.38	1310.70
644.57	1296.36
644.76	1339.37
644.95	1257.45
645.14	1406.95
645.33	1279.98
645.52	1327.08
645.71	1325.04
645.89	1204.21
646.08	1284.08
646.27	1214.45
646.46	1306.60
646.65	1208.30
646.84	1234.93
647.03	1349.61
647.22	1304.56
647.40	1284.08
647.59	1345.52
647.78	1222.64
647.97	1263.60
648.16	1271.79
648.35	1322.99
648.54	1284.08
648.73	1261.55
648.91	1265.64
649.10	1279.98
649.29	1339.37
649.48	1337.32
649.67	1327.08
649.86	1284.08
650.05	1292.27
650.23	1241.07
650.42	1277.93
650.61	1271.79
650.80	1331.18
650.99	1337.32
651.18	1269.74
651.36	1236.97
651.55	1265.64
651.74	1255.40
651.93	1214.45
652.12	1312.75
652.31	1214.45
652.49	1273.84
652.68	1320.94
652.87	1300.46
653.06	1292.27
653.25	1226.73
653.44	1263.60
653.62	1198.06
653.81	1204.21
654.00	1226.73
654.19	1269.74
654.38	1222.64
654.56	1322.99
654.75	1302.51
654.94	1275.88
655.13	1216.49
655.32	1218.54
655.51	1273.84
655.69	1288.17
655.88	1243.12
656.07	1239.02
656.26	1286.12
656.45	1302.51
656.63	1243.12
656.82	1286.12
657.01	1247.21
657.20	1318.89
657.38	1191.92
657.57	1296.36
657.76	1366.00
657.95	1257.45
658.14	1224.69
658.32	1220.59
658.51	1226.73
658.70	1279.98
658.89	1265.64
659.08	1310.70
659.26	1316.84
659.45	1263.60
659.64	1259.50
659.83	1314.80
660.01	1413.10
660.20	1239.02
660.39	1304.56
660.58	1308.65
660.76	1267.69
660.95	1269.74
661.14	1243.12
661.33	1341.42
661.51	1263.60
661.70	1284.08
661.89	1304.56
662.08	1247.21
662.26	1259.50
662.45	1269.74
662.64	1347.56
662.83	1269.74
663.01	1286.12
663.20	1202.16
663.39	1257.45
663.58	1286.12
663.76	1247.21
663.95	1273.84
664.14	1294.32
664.32	1273.84
664.51	1269.74
664.70	1255.40
664.89	1214.45
665.07	1282.03
665.26	1329.13
665.45	1273.84
665.64	1298.41
665.82	1234.93
666.01	1290.22
666.20	1269.74
666.38	1298.41
666.57	1267.69
666.76	1290.22
666.95	1294.32
667.13	1312.75
667.32	1286.12
667.51	1282.03
667.69	1388.52
667.88	1193.97
668.07	1302.51
668.25	1265.64
668.44	1257.45
668.63	1290.22
668.81	1320.94
669.00	1279.98
669.19	1302.51
669.38	1267.69
669.56	1320.94
669.75	1214.45
669.94	1296.36
670.12	1298.41
670.31	1302.51
670.50	1363.95
670.68	1232.88
670.87	1247.21
671.06	1253.36
671.24	1204.21
671.43	1329.13
671.62	1294.32
671.80	1249.26
671.99	1370.09
672.18	1202.16
672.36	1226.73
672.55	1286.12
672.74	1273.84
672.92	1265.64
673.11	1255.40
673.29	1243.12
673.48	1239.02
673.67	1257.45
673.85	1222.64
674.04	1286.12
674.23	1277.93
674.41	1333.23
674.60	1261.55
674.79	1228.78
674.97	1282.03
675.16	1288.17
675.34	1312.75
675.53	1275.88
675.72	1220.59
675.90	1271.79
676.09	1273.84
676.28	1230.83
676.46	1183.73
676.65	1226.73
676.83	1230.83
677.02	1308.65
677.21	1253.36
677.39	1314.80
677.58	1230.83
677.77	1230.83
677.95	1232.88
678.14	1286.12
678.32	1273.84
678.51	1320.94
678.70	1265.64
678.88	1265.64
679.07	1239.02
679.25	1234.93
679.44	1273.84
679.63	1372.14
679.81	1247.21
680.00	1341.42
680.18	1314.80
680.37	1267.69
680.55	1284.08
680.74	1290.22
680.93	1298.41
681.11	1267.69
681.30	1263.60
681.48	1259.50
681.67	1243.12
681.85	1273.84
682.04	1216.49
682.23	1304.56
682.41	1368.04
682.60	1298.41
682.78	1255.40
682.97	1261.55
683.15	1366.00
683.34	1282.03
683.53	1253.36
683.71	1316.84
683.90	1265.64
684.08	1296.36
684.27	1314.80
684.45	1224.69
684.64	1243.12
684.82	1216.49
685.01	1271.79
685.19	1261.55
685.38	1290.22
685.57	1222.64
685.75	1249.26
685.94	1214.45
686.12	1286.12
686.31	1302.51
686.49	1320.94
686.68	1257.45
686.86	1273.84
687.05	1320.94
687.23	1304.56
687.42	1241.07
687.60	1290.22
687.79	1220.59
687.97	1267.69
688.16	1232.88
688.34	1298.41
688.53	1294.32
688.71	1255.40
688.90	1253.36
689.08	1249.26
689.27	1228.78
689.45	1286.12
689.64	1216.49
689.82	1286.12
690.01	1247.21
690.19	1306.60
690.38	1239.02
690.56	1294.32
690.75	1239.02
690.93	1193.97
691.12	1269.74
691.30	1265.64
691.49	1275.88
691.67	1257.45
691.86	1265.64
692.04	1257.45
692.23	1265.64
692.41	1257.45
692.60	1263.60
692.78	1277.93
692.97	1241.07
693.15	1269.74
693.34	1286.12
693.52	1310.70
693.71	1312.75
693.89	1310.70
694.08	1302.51
694.26	1222.64
694.44	1290.22
694.63	1232.88
694.81	1257.45
695.00	1331.18
695.18	1284.08
695.37	1306.60
695.55	1288.17
695.74	1316.84
695.92	1269.74
696.10	1304.56
696.29	1261.55
696.47	1241.07
696.66	1290.22
696.84	1322.99
697.03	1290.22
697.21	1208.30
697.40	1339.37
697.58	1284.08
697.76	1216.49
697.95	1282.03
698.13	1253.36
698.32	1249.26
698.50	1269.74
698.68	1202.16
698.87	1234.93
699.05	1316.84
699.24	1193.97
699.42	1249.26
699.61	1304.56
699.79	1331.18
699.97	1265.64
700.16	1218.54
700.34	1296.36
700.53	1239.02
700.71	1251.31
700.89	1271.79
701.08	1288.17
701.26	1300.46
701.45	1298.41
701.63	1216.49
701.81	1286.12
702.00	1255.40
702.18	1292.27
702.37	1273.84
702.55	1300.46
702.73	1314.80
702.92	1263.60
703.10	1286.12
703.28	1308.65
703.47	1263.60
703.65	1290.22
703.84	1304.56
704.02	1257.45
704.20	1304.56
704.39	1300.46
704.57	1232.88
704.75	1310.70
704.94	1265.64
705.12	1267.69
705.30	1296.36
705.49	1286.12
705.67	1247.21
705.86	1327.08
706.04	1236.97
706.22	1306.60
706.41	1282.03
706.59	1263.60
706.77	1318.89
706.96	1239.02
707.14	1296.36
707.32	1277.93
707.51	1298.41
707.69	1279.98
707.87	1253.36
708.06	1306.60
708.24	1261.55
708.42	1269.74
708.61	1339.37
708.79	1175.53
708.97	1245.16
709.16	1275.88
709.34	1327.08
709.52	1200.11
709.71	1322.99
709.89	1312.75
710.07	1212.40
710.26	1269.74
710.44	1212.40
710.62	1310.70
710.80	1261.55
710.99	1257.45
711.17	1265.64
711.35	1214.45
711.54	1232.88
711.72	1300.46
711.90	1308.65
712.09	1320.94
712.27	1224.69
712.45	1251.31
712.63	1243.12
712.82	1247.21
713.00	1310.70
713.18	1320.94
713.37	1265.64
713.55	1173.49
713.73	1300.46
713.91	1267.69
714.10	1294.32
714.28	1202.16
714.46	1243.12
714.65	1290.22
714.83	1284.08
715.01	1279.98
715.19	1232.88
715.38	1327.08
715.56	1273.84
715.74	1329.13
715.92	1306.60
716.11	1234.93
716.29	1255.40
716.47	1290.22
716.65	1249.26
716.84	1259.50
717.02	1220.59
717.20	1212.40
717.38	1325.04
717.57	1308.65
717.75	1302.51
717.93	1331.18
718.11	1279.98
718.30	1322.99
718.48	1296.36
718.66	1304.56
718.84	1298.41
719.03	1234.93
719.21	1277.93
719.39	1304.56
719.57	1251.31
719.75	1341.42
719.94	1212.40
720.12	1296.36
720.30	1302.51
720.48	1265.64
720.67	1263.60
720.85	1228.78
721.03	1257.45
721.21	1167.34
721.39	1310.70
721.58	1271.79
721.76	1333.23
721.94	1261.55
722.12	1312.75
722.30	1290.22
722.49	1277.93
722.67	1241.07
722.85	1302.51
723.03	1282.03
723.21	1198.06
723.40	1279.98
723.58	1306.60
723.76	1265.64
723.94	1247.21
724.12	1208.30
724.30	1261.55
724.49	1220.59
724.67	1279.98
724.85	1294.32
725.03	1251.31
725.21	1314.80
725.40	1277.93
725.58	1216.49
725.76	1316.84
725.94	1247.21
726.12	1329.13
726.30	1327.08
726.49	1282.03
726.67	1253.36
726.85	1253.36
727.03	1232.88
727.21	1310.70
727.39	1241.07
727.57	1251.31
727.76	1257.45
727.94	1241.07
728.12	1255.40
728.30	1257.45
728.48	1239.02
728.66	1335.28
728.84	1306.60
729.03	1275.88
729.21	1292.27
729.39	1277.93
729.57	1296.36
729.75	1273.84
729.93	1290.22
730.11	1193.97
730.30	1267.69
730.48	1273.84
730.66	1239.02
730.84	1282.03
731.02	1265.64
731.20	1253.36
731.38	1288.17
731.56	1296.36
731.74	1271.79
731.93	1277.93
732.11	1290.22
732.29	1271.79
732.47	1333.23
732.65	1296.36
732.83	1265.64
733.01	1265.64
733.19	1232.88
733.37	1208.30
733.56	1341.42
733.74	1210.35
733.92	1312.75
734.10	1232.88
734.28	1273.84
734.46	1247.21
734.64	1249.26
734.82	1220.59
735.00	1290.22
735.18	1347.56
735.36	1255.40
735.54	1306.60
735.73	1249.26
735.91	1290.22
736.09	1290.22
736.27	1279.98
736.45	1343.47
736.63	1218.54
736.81	1331.18
736.99	1337.32
737.17	1296.36
737.35	1245.16
737.53	1253.36
737.71	1277.93
737.89	1224.69
738.07	1304.56
738.25	1298.41
738.43	1218.54
738.61	1314.80
738.80	1267.69
738.98	1316.84
739.16	1204.21
739.34	1286.12
739.52	1353.71
739.70	1357.80
739.88	1239.02
740.06	1255.40
740.24	1284.08
740.42	1257.45
740.60	1253.36
740.78	1306.60
740.96	1269.74
741.14	1282.03
741.32	1263.60
741.50	1329.13
741.68	1212.40
741.86	1282.03
742.04	1234.93
742.22	1216.49
742.40	1288.17
742.58	1279.98
742.76	1292.27
742.94	1249.26
743.12	1282.03
743.30	1298.41
743.48	1241.07
743.66	1253.36
743.84	1265.64
744.02	1204.21
744.20	1273.84
744.38	1296.36
744.56	1214.45
744.74	1310.70
744.92	1232.88
745.10	1312.75
745.28	1284.08
745.46	1236.97
745.64	1263.60
745.82	1216.49
746.00	1337.32
746.18	1183.73
746.36	1282.03
746.54	1255.40
746.72	1247.21
746.90	1284.08
747.08	1294.32
747.26	1226.73
747.44	1241.07
747.62	1263.60
747.80	1314.80
747.98	1267.69
748.15	1257.45
748.33	1286.12
748.51	1292.27
748.69	1300.46
748.87	1198.06
749.05	1206.25
749.23	1273.84
749.41	1329.13
749.59	1232.88
749.77	1290.22
749.95	1214.45
750.13	1243.12
750.31	1210.35
750.49	1288.17
750.67	1298.41
750.85	1279.98
751.03	1261.55
751.20	1204.21
751.38	1292.27
751.56	1212.40
751.74	1339.37
751.92	1316.84
752.10	1304.56
752.28	1296.36
752.46	1308.65
752.64	1284.08
752.82	1228.78
753.00	1290.22
753.18	1259.50
753.35	1279.98
753.53	1282.03
753.71	1236.97
753.89	1333.23
754.07	1236.97
754.25	1310.70
754.43	1355.76
754.61	1214.45
754.79	1232.88
754.97	1234.93
755.14	1316.84
755.32	1296.36
755.50	1325.04
755.68	1269.74
755.86	1198.06
756.04	1265.64
756.22	1279.98
756.40	1345.52
756.57	1279.98
756.75	1198.06
756.93	1269.74
757.11	1239.02
757.29	1204.21
757.47	1263.60
757.65	1241.07
757.82	1320.94
758.00	1275.88
758.18	1314.80
758.36	1314.80
758.54	1249.26
758.72	1243.12
758.90	1298.41
759.07	1232.88
759.25	1298.41
759.43	1277.93
759.61	1204.21
759.79	1290.22
759.97	1277.93
760.15	1261.55
760.32	1243.12
760.50	1327.08
760.68	1314.80
760.86	1187.82
761.04	1296.36
761.22	1288.17
761.39	1239.02
761.57	1331.18
761.75	1261.55
761.93	1257.45
762.11	1284.08
762.28	1271.79
762.46	1320.94
762.64	1257.45
762.82	1173.49
763.00	1282.03
763.18	1296.36
763.35	1271.79
763.53	1349.61
763.71	1318.89
763.89	1269.74
764.07	1318.89
764.24	1263.60
764.42	1259.50
764.60	1275.88
764.78	1247.21
764.96	1261.55
765.13	1236.97
765.31	1284.08
765.49	1253.36
765.67	1261.55
765.84	1286.12
766.02	1263.60
766.20	1249.26
766.38	1304.56
766.56	1290.22
766.73	1304.56
766.91	1279.98
767.09	1273.84
767.27	1218.54
767.44	1255.40
767.62	1296.36
767.80	1257.45
767.98	1314.80
768.15	1302.51
768.33	1263.60
768.51	1376.24
768.69	1222.64
768.87	1337.32
769.04	1212.40
769.22	1300.46
769.40	1308.65
769.58	1306.60
769.75	1290.22
769.93	1249.26
770.11	1253.36
770.28	1230.83
770.46	1253.36
770.64	1292.27
770.82	1226.73
770.99	1288.17
771.17	1216.49
771.35	1253.36
771.53	1259.50
771.70	1198.06
771.88	1249.26
772.06	1273.84
772.23	1265.64
772.41	1349.61
772.59	1259.50
772.77	1253.36
772.94	1290.22
773.12	1245.16
773.30	1193.97
773.47	1224.69
773.65	1259.50
773.83	1277.93
774.01	1267.69
774.18	1255.40
774.36	1234.93
774.54	1198.06
774.71	1277.93
774.89	1247.21
775.07	1232.88
775.24	1320.94
775.42	1200.11
775.60	1253.36
775.78	1226.73
775.95	1265.64
776.13	1304.56
776.31	1214.45
776.48	1294.32
776.66	1247.21
776.84	1202.16
777.01	1251.31
777.19	1255.40
777.37	1239.02
777.54	1269.74
777.72	1314.80
777.90	1275.88
778.07	1296.36
778.25	1261.55
778.43	1394.67
778.60	1251.31
778.78	1220.59
778.96	1282.03
779.13	1267.69
779.31	1277.93
779.49	1298.41
779.66	1245.16
779.84	1239.02
780.01	1298.41
780.19	1249.26
780.37	1167.34
780.54	1263.60
780.72	1255.40
780.90	1296.36
781.07	1253.36
781.25	1263.60
781.43	1335.28
781.60	1312.75
781.78	1290.22
781.95	1224.69
782.13	1320.94
782.31	1267.69
782.48	1169.39
782.66	1269.74
782.83	1216.49
783.01	1279.98
783.19	1257.45
783.36	1251.31
783.54	1163.25
783.72	1218.54
783.89	1255.40
784.07	1214.45
784.24	1173.49
784.42	1298.41
784.60	1236.97
784.77	1253.36
784.95	1288.17
785.12	1263.60
785.30	1245.16
785.47	1284.08
785.65	1288.17
785.83	1357.80
786.00	1267.69
786.18	1271.79
786.35	1200.11
786.53	1357.80
786.71	1216.49
786.88	1257.45
787.06	1277.93
787.23	1300.46
787.41	1265.64
787.58	1288.17
787.76	1234.93
787.94	1175.53
788.11	1257.45
788.29	1261.55
788.46	1232.88
788.64	1277.93
788.81	1212.40
788.99	1263.60
789.16	1255.40
789.34	1249.26
789.52	1302.51
789.69	1259.50
789.87	1288.17
790.04	1214.45
790.22	1220.59
790.39	1288.17
790.57	1236.97
790.74	1290.22
790.92	1251.31
791.09	1202.16
791.27	1267.69
791.44	1288.17
791.62	1230.83
791.79	1273.84
791.97	1249.26
792.15	1239.02
792.32	1279.98
792.50	1236.97
792.67	1251.31
792.85	1253.36
793.02	1304.56
793.20	1286.12
793.37	1273.84
793.55	1157.10
793.72	1259.50
793.90	1282.03
794.07	1259.50
794.25	1302.51
794.42	1251.31
794.60	1257.45
794.77	1292.27
794.95	1304.56
795.12	1296.36
795.30	1210.35
795.47	1284.08
795.65	1253.36
795.82	1271.79
796.00	1249.26
796.17	1257.45
796.34	1171.44
796.52	1259.50
796.69	1271.79
796.87	1294.32
797.04	1306.60
797.22	1204.21
797.39	1339.37
797.57	1282.03
797.74	1296.36
797.92	1220.59
798.09	1222.64
798.27	1286.12
798.44	1193.97
798.62	1335.28
798.79	1282.03
798.96	1200.11
799.14	1298.41
799.31	1306.60
799.49	1247.21
799.66	1206.25
799.84	1273.84
800.01	1269.74
800.19	1363.95
800.36	1284.08
800.53	1257.45
800.71	1220.59
800.88	1241.07
801.06	1290.22
801.23	1318.89
801.41	1239.02
801.58	1265.64
801.75	1222.64
801.93	1292.27
802.10	1277.93
802.28	1214.45
802.45	1255.40
802.63	1271.79
802.80	1263.60
802.97	1243.12
803.15	1275.88
803.32	1216.49
803.50	1226.73
803.67	1200.11
803.84	1312.75
804.02	1257.45
804.19	1310.70
804.37	1257.45
804.54	1306.60
804.71	1331.18
804.89	1316.84
805.06	1316.84
805.24	1314.80
805.41	1273.84
805.58	1200.11
805.76	1265.64
805.93	1294.32
806.10	1331.18
806.28	1282.03
806.45	1290.22
806.63	1263.60
806.80	1275.88
806.97	1249.26
807.15	1316.84
807.32	1249.26
807.49	1183.73
807.67	1230.83
807.84	1216.49
808.01	1265.64
808.19	1142.77
808.36	1308.65
808.54	1257.45
808.71	1290.22
808.88	1273.84
809.06	1255.40
809.23	1273.84
809.40	1243.12
809.58	1220.59
809.75	1302.51
809.92	1198.06
810.10	1284.08
810.27	1337.32
810.44	1249.26
810.62	1269.74
810.79	1271.79
810.96	1216.49
811.14	1306.60
811.31	1144.81
811.48	1265.64
811.66	1273.84
811.83	1263.60
812.00	1216.49
812.18	1214.45
812.35	1300.46
812.52	1220.59
812.69	1296.36
812.87	1255.40
813.04	1173.49
813.21	1259.50
813.39	1239.02
813.56	1322.99
813.73	1292.27
813.91	1277.93
814.08	1259.50
814.25	1275.88
814.42	1269.74
814.60	1273.84
814.77	1255.40
814.94	1261.55
815.12	1314.80
815.29	1339.37
815.46	1222.64
815.63	1263.60
815.81	1232.88
815.98	1306.60
816.15	1298.41
816.33	1208.30
816.50	1255.40
816.67	1210.35
816.84	1230.83
817.02	1271.79
817.19	1286.12
817.36	1292.27
817.53	1282.03
817.71	1198.06
817.88	1247.21
818.05	1236.97
818.22	1245.16
818.40	1234.93
818.57	1292.27
818.74	1224.69
818.91	1290.22
819.09	1288.17
819.26	1306.60
819.43	1167.34
819.60	1243.12
819.78	1306.60
819.95	1259.50
820.12	1187.82
820.29	1236.97
820.47	1255.40
820.64	1292.27
820.81	1210.35
820.98	1300.46
821.15	1269.74
821.33	1253.36
821.50	1273.84
821.67	1300.46
821.84	1214.45
822.02	1241.07
822.19	1239.02
822.36	1312.75
822.53	1222.64
822.70	1329.13
822.88	1236.97
823.05	1269.74
823.22	1247.21
823.39	1255.40
823.56	1241.07
823.74	1189.87
823.91	1288.17
824.08	1327.08
824.25	1320.94
824.42	1247.21
824.60	1277.93
824.77	1189.87
824.94	1206.25
825.11	1277.93
825.28	1316.84
825.45	1273.84
825.63	1267.69
825.80	1234.93
825.97	1196.01
826.14	1347.56
826.31	1279.98
826.48	1318.89
826.66	1275.88
826.83	1304.56
827.00	1288.17
827.17	1245.16
827.34	1267.69
827.51	1206.25
827.69	1310.70
827.86	1220.59
828.03	1243.12
828.20	1179.63
828.37	1292.27
828.54	1214.45
828.71	1144.81
828.89	1306.60
829.06	1261.55
829.23	1222.64
829.40	1290.22
829.57	1232.88
829.74	1302.51
829.91	1259.50
830.09	1249.26
830.26	1241.07
830.43	1261.55
830.60	1296.36
830.77	1259.50
830.94	1355.76
831.11	1308.65
831.28	1288.17
831.46	1265.64
831.63	1269.74
831.80	1187.82
831.97	1216.49
832.14	1243.12
832.31	1284.08
832.48	1247.21
832.65	1302.51
832.82	1249.26
832.99	1308.65
833.17	1320.94
833.34	1273.84
833.51	1296.36
833.68	1222.64
833.85	1312.75
834.02	1222.64
834.19	1210.35
834.36	1241.07
834.53	1222.64
834.70	1337.32
834.87	1271.79
835.04	1298.41
835.22	1228.78
835.39	1226.73
835.56	1161.20
835.73	1236.97
835.90	1327.08
836.07	1263.60
836.24	1298.41
836.41	1245.16
836.58	1255.40
836.75	1282.03
836.92	1222.64
837.09	1400.81
837.26	1282.03
837.43	1198.06
837.60	1243.12
837.77	1288.17
837.94	1316.84
838.12	1275.88
838.29	1257.45
838.46	1290.22
838.63	1290.22
838.80	1265.64
838.97	1263.60
839.14	1286.12
839.31	1284.08
839.48	1294.32
839.65	1226.73
839.82	1230.83
839.99	1316.84
840.16	1255.40
840.33	1253.36
840.50	1218.54
840.67	1290.22
840.84	1312.75
841.01	1241.07
841.18	1331.18
841.35	1267.69
841.52	1271.79
841.69	1322.99
841.86	1275.88
842.03	1269.74
842.20	1251.31
842.37	1243.12
842.54	1193.97
842.71	1259.50
842.88	1294.32
843.05	1236.97
843.22	1200.11
843.39	1300.46
843.56	1259.50
843.73	1288.17
843.90	1208.30
844.07	1310.70
844.24	1292.27
844.41	1279.98
844.58	1314.80
844.75	1206.25
844.92	1343.47
845.09	1288.17
845.26	1216.49
845.43	1286.12
845.60	1265.64
845.77	1249.26
845.94	1255.40
846.10	1247.21
846.27	1290.22
846.44	1245.16
846.61	1173.49
846.78	1306.60
846.95	1255.40
847.12	1204.21
847.29	1216.49
847.46	1245.16
847.63	1279.98
847.80	1249.26
847.97	1312.75
848.14	1253.36
848.31	1331.18
848.48	1304.56
848.65	1273.84
848.82	1224.69
848.98	1312.75
849.15	1239.02
849.32	1241.07
849.49	1312.75
849.66	1329.13
849.83	1308.65
850.00	1236.97
850.17	1316.84
850.34	1329.13
850.51	1212.40
850.68	1224.69
850.85	1273.84
851.01	1239.02
851.18	1325.04
851.35	1310.70
851.52	1282.03
851.69	1325.04
851.86	1279.98
852.03	1187.82
852.20	1216.49
852.37	1359.85
852.53	1282.03
852.70	1267.69
852.87	1331.18
853.04	1267.69
853.21	1296.36
853.38	1247.21
853.55	1257.45
853.72	1279.98
853.89	1206.25
854.05	1167.34
854.22	1269.74
854.39	1292.27
854.56	1363.95
854.73	1273.84
854.90	1243.12
855.07	1222.64
855.23	1288.17
855.40	1304.56
855.57	1296.36
855.74	1216.49
855.91	1294.32
856.08	1296.36
856.25	1294.32
856.41	1206.25
856.58	1310.70
856.75	1247.21
856.92	1329.13
857.09	1290.22
857.26	1214.45
857.42	1308.65
857.59	1226.73
857.76	1294.32
857.93	1247.21
858.10	1286.12
858.27	1226.73
858.43	1290.22
858.60	1208.30
858.77	1185.77
858.94	1228.78
859.11	1302.51
859.27	1306.60
859.44	1273.84
859.61	1232.88
859.78	1343.47
859.95	1314.80
860.12	1292.27
860.28	1245.16
860.45	1339.37
860.62	1302.51
860.79	1277.93
860.95	1249.26
861.12	1294.32
861.29	1279.98
861.46	1282.03
861.63	1198.06
861.79	1288.17
861.96	1282.03
862.13	1255.40
862.30	1306.60
862.47	1271.79
862.63	1306.60
862.80	1247.21
862.97	1255.40
863.14	1290.22
863.30	1277.93
863.47	1298.41
863.64	1239.02
863.81	1275.88
863.97	1249.26
864.14	1322.99
864.31	1193.97
864.48	1312.75
864.65	1282.03
864.81	1206.25
864.98	1316.84
865.15	1290.22
865.32	1216.49
865.48	1247.21
865.65	1228.78
865.82	1339.37
865.98	1232.88
866.15	1361.90
866.32	1241.07
866.49	1230.83
866.65	1304.56
866.82	1322.99
866.99	1257.45
867.16	1245.16
867.32	1206.25
867.49	1298.41
867.66	1284.08
867.83	1308.65
867.99	1294.32
868.16	1327.08
868.33	1273.84
868.49	1247.21
868.66	1269.74
868.83	1259.50
868.99	1316.84
869.16	1335.28
869.33	1306.60
869.50	1245.16
869.66	1236.97
869.83	1308.65
870.00	1230.83
870.16	1220.59
870.33	1310.70
870.50	1249.26
870.66	1302.51
870.83	1189.87
871.00	1261.55
871.17	1290.22
871.33	1316.84
871.50	1255.40
871.67	1343.47
871.83	1316.84
872.00	1331.18
872.17	1241.07
872.33	1282.03
872.50	1257.45
872.67	1249.26
872.83	1226.73
873.00	1347.56
873.17	1204.21
873.33	1290.22
873.50	1296.36
873.67	1288.17
873.83	1230.83
874.00	1304.56
874.16	1290.22
874.33	1298.41
874.50	1265.64
874.66	1243.12
874.83	1247.21
875.00	1249.26
875.16	1224.69
875.33	1247.21
875.50	1273.84
875.66	1306.60
875.83	1327.08
875.99	1314.80
876.16	1284.08
876.33	1243.12
876.49	1310.70
876.66	1247.21
876.83	1279.98
876.99	1263.60
877.16	1286.12
877.32	1286.12
877.49	1284.08
877.66	1308.65
877.82	1191.92
877.99	1255.40
878.15	1255.40
878.32	1189.87
878.49	1220.59
878.65	1247.21
878.82	1273.84
878.98	1263.60
879.15	1282.03
879.32	1222.64
879.48	1241.07
879.65	1232.88
879.81	1216.49
879.98	1259.50
880.15	1212.40
880.31	1245.16
880.48	1300.46
880.64	1277.93
880.81	1241.07
880.97	1296.36
881.14	1304.56
881.31	1259.50
881.47	1271.79
881.64	1314.80
881.80	1239.02
881.97	1284.08
882.13	1255.40
882.30	1257.45
882.47	1284.08
882.63	1224.69
882.80	1296.36
882.96	1296.36
883.13	1249.26
883.29	1290.22
883.46	1296.36
883.62	1320.94
883.79	1257.45
883.95	1259.50
884.12	1228.78
884.29	1228.78
884.45	1284.08
884.62	1251.31
884.78	1255.40
884.95	1245.16
885.11	1292.27
885.28	1265.64
885.44	1290.22
885.61	1267.69
885.77	1269.74
885.94	1247.21
886.10	1271.79
886.27	1271.79
886.43	1267.69
886.60	1269.74
886.76	1290.22
886.93	1247.21
887.09	1241.07
887.26	1259.50
887.42	1202.16
887.59	1316.84
887.75	1222.64
887.92	1308.65
888.08	1279.98
888.25	1290.22
888.41	1292.27
888.58	1273.84
888.74	1259.50
888.91	1322.99
>>>>>End Processed Spectral Data<<<<<
