SpectraSuite Data File
++++++++++++++++++++++++++++++++++++
Date: Sun Apr 03 19:55:30 CEST 2016
User: root
Dark Spectrum Present: No
Reference Spectrum Present: No
Number of Sampled Component Spectra: 1
Spectrometers: USB4C02835
Integration Time (usec): 10000 (USB4C02835)
Spectra Averaged: 1 (USB4C02835)
Boxcar Smoothing: 0 (USB4C02835)
Correct for Electrical Dark: No (USB4C02835)
Strobe/Lamp Enabled: No (USB4C02835)
Correct for Detector Non-linearity: No (USB4C02835)
Correct for Stray Light: No (USB4C02835)
Number of Pixels in Processed Spectrum: 3648
>>>>>Begin Processed Spectral Data<<<<<
177.47	1282.03
177.69	1282.03
177.91	1282.03
178.13	1196.01
178.36	1261.55
178.58	1320.94
178.80	1304.56
179.02	1150.96
179.24	1226.73
179.46	1228.78
179.68	1243.12
179.90	1243.12
180.13	1230.83
180.35	1312.75
180.57	1308.65
180.79	1208.30
181.01	1302.51
181.23	1218.54
181.45	1245.16
181.67	1239.02
181.90	1282.03
182.12	1222.64
182.34	1243.12
182.56	1253.36
182.78	1327.08
183.00	1228.78
183.22	1339.37
183.44	1232.88
183.66	1265.64
183.89	1284.08
184.11	1277.93
184.33	1265.64
184.55	1255.40
184.77	1247.21
184.99	1249.26
185.21	1273.84
185.43	1265.64
185.65	1331.18
185.87	1275.88
186.10	1279.98
186.32	1214.45
186.54	1228.78
186.76	1269.74
186.98	1329.13
187.20	1208.30
187.42	1265.64
187.64	1210.35
187.86	1331.18
188.08	1292.27
188.30	1232.88
188.52	1175.53
188.75	1236.97
188.97	1298.41
189.19	1255.40
189.41	1335.28
189.63	1200.11
189.85	1327.08
190.07	1243.12
190.29	1220.59
190.51	1202.16
190.73	1316.84
190.95	1259.50
191.17	1265.64
191.39	1185.77
191.61	1298.41
191.84	1273.84
192.06	1273.84
192.28	1275.88
192.50	1300.46
192.72	1273.84
192.94	1224.69
193.16	1251.31
193.38	1255.40
193.60	1222.64
193.82	1302.51
194.04	1271.79
194.26	1325.04
194.48	1331.18
194.70	1288.17
194.92	1282.03
195.14	1298.41
195.36	1173.49
195.58	1214.45
195.80	1296.36
196.02	1218.54
196.24	1243.12
196.46	1282.03
196.69	1335.28
196.91	1224.69
197.13	1282.03
197.35	1273.84
197.57	1320.94
197.79	1273.84
198.01	1232.88
198.23	1335.28
198.45	1282.03
198.67	1216.49
198.89	1296.36
199.11	1286.12
199.33	1290.22
199.55	1271.79
199.77	1255.40
199.99	1247.21
200.21	1277.93
200.43	1214.45
200.65	1292.27
200.87	1298.41
201.09	1257.45
201.31	1167.34
201.53	1284.08
201.75	1282.03
201.97	1273.84
202.19	1277.93
202.41	1236.97
202.63	1269.74
202.85	1253.36
203.07	1306.60
203.29	1322.99
203.51	1257.45
203.73	1171.44
203.95	1234.93
204.17	1245.16
204.39	1271.79
204.61	1325.04
204.83	1257.45
205.05	1314.80
205.27	1249.26
205.49	1206.25
205.71	1312.75
205.93	1351.66
206.15	1302.51
206.37	1230.83
206.59	1267.69
206.81	1265.64
207.03	1255.40
207.25	1290.22
207.47	1249.26
207.69	1200.11
207.91	1286.12
208.13	1257.45
208.34	1220.59
208.56	1312.75
208.78	1300.46
209.00	1378.28
209.22	1239.02
209.44	1277.93
209.66	1249.26
209.88	1302.51
210.10	1269.74
210.32	1265.64
210.54	1294.32
210.76	1302.51
210.98	1257.45
211.20	1337.32
211.42	1282.03
211.64	1275.88
211.86	1198.06
212.08	1277.93
212.30	1222.64
212.52	1320.94
212.74	1310.70
212.96	1286.12
213.17	1304.56
213.39	1259.50
213.61	1302.51
213.83	1245.16
214.05	1308.65
214.27	1247.21
214.49	1267.69
214.71	1325.04
214.93	1292.27
215.15	1306.60
215.37	1298.41
215.59	1343.47
215.81	1279.98
216.03	1251.31
216.24	1171.44
216.46	1286.12
216.68	1312.75
216.90	1316.84
217.12	1288.17
217.34	1355.76
217.56	1259.50
217.78	1236.97
218.00	1349.61
218.22	1267.69
218.44	1282.03
218.66	1232.88
218.87	1296.36
219.09	1277.93
219.31	1284.08
219.53	1163.25
219.75	1224.69
219.97	1187.82
220.19	1286.12
220.41	1286.12
220.63	1300.46
220.85	1271.79
221.06	1228.78
221.28	1318.89
221.50	1286.12
221.72	1318.89
221.94	1286.12
222.16	1253.36
222.38	1282.03
222.60	1310.70
222.82	1308.65
223.03	1263.60
223.25	1273.84
223.47	1302.51
223.69	1277.93
223.91	1216.49
224.13	1212.40
224.35	1292.27
224.57	1275.88
224.78	1320.94
225.00	1333.23
225.22	1273.84
225.44	1327.08
225.66	1232.88
225.88	1298.41
226.10	1288.17
226.32	1245.16
226.53	1257.45
226.75	1271.79
226.97	1200.11
227.19	1277.93
227.41	1279.98
227.63	1357.80
227.85	1216.49
228.06	1286.12
228.28	1245.16
228.50	1265.64
228.72	1214.45
228.94	1288.17
229.16	1247.21
229.37	1224.69
229.59	1253.36
229.81	1294.32
230.03	1279.98
230.25	1275.88
230.47	1273.84
230.69	1247.21
230.90	1327.08
231.12	1353.71
231.34	1277.93
231.56	1345.52
231.78	1257.45
232.00	1247.21
232.21	1245.16
232.43	1232.88
232.65	1286.12
232.87	1273.84
233.09	1290.22
233.30	1271.79
233.52	1257.45
233.74	1279.98
233.96	1202.16
234.18	1253.36
234.40	1294.32
234.61	1298.41
234.83	1331.18
235.05	1298.41
235.27	1232.88
235.49	1232.88
235.70	1292.27
235.92	1312.75
236.14	1282.03
236.36	1302.51
236.58	1255.40
236.79	1304.56
237.01	1275.88
237.23	1304.56
237.45	1234.93
237.67	1306.60
237.88	1232.88
238.10	1245.16
238.32	1243.12
238.54	1251.31
238.76	1239.02
238.97	1255.40
239.19	1269.74
239.41	1253.36
239.63	1267.69
239.85	1230.83
240.06	1267.69
240.28	1331.18
240.50	1275.88
240.72	1255.40
240.93	1310.70
241.15	1277.93
241.37	1187.82
241.59	1292.27
241.81	1333.23
242.02	1322.99
242.24	1173.49
242.46	1265.64
242.68	1263.60
242.89	1181.68
243.11	1269.74
243.33	1292.27
243.55	1239.02
243.76	1284.08
243.98	1296.36
244.20	1216.49
244.42	1255.40
244.64	1298.41
244.85	1277.93
245.07	1249.26
245.29	1279.98
245.51	1322.99
245.72	1232.88
245.94	1282.03
246.16	1290.22
246.38	1263.60
246.59	1263.60
246.81	1157.10
247.03	1316.84
247.24	1236.97
247.46	1314.80
247.68	1298.41
247.90	1263.60
248.11	1282.03
248.33	1232.88
248.55	1347.56
248.77	1284.08
248.98	1218.54
249.20	1265.64
249.42	1216.49
249.64	1261.55
249.85	1230.83
250.07	1234.93
250.29	1236.97
250.50	1263.60
250.72	1265.64
250.94	1288.17
251.16	1284.08
251.37	1294.32
251.59	1296.36
251.81	1245.16
252.02	1277.93
252.24	1249.26
252.46	1236.97
252.68	1255.40
252.89	1253.36
253.11	1294.32
253.33	1251.31
253.54	1249.26
253.76	1243.12
253.98	1302.51
254.20	1243.12
254.41	1290.22
254.63	1355.76
254.85	1310.70
255.06	1273.84
255.28	1243.12
255.50	1249.26
255.71	1253.36
255.93	1208.30
256.15	1259.50
256.36	1312.75
256.58	1279.98
256.80	1259.50
257.02	1294.32
257.23	1267.69
257.45	1286.12
257.67	1243.12
257.88	1210.35
258.10	1312.75
258.32	1288.17
258.53	1251.31
258.75	1267.69
258.97	1259.50
259.18	1382.38
259.40	1277.93
259.62	1318.89
259.83	1284.08
260.05	1257.45
260.27	1247.21
260.48	1335.28
260.70	1267.69
260.92	1282.03
261.13	1208.30
261.35	1230.83
261.57	1273.84
261.78	1249.26
262.00	1198.06
262.22	1255.40
262.43	1292.27
262.65	1296.36
262.86	1288.17
263.08	1304.56
263.30	1265.64
263.51	1245.16
263.73	1337.32
263.95	1290.22
264.16	1261.55
264.38	1247.21
264.60	1241.07
264.81	1200.11
265.03	1263.60
265.25	1271.79
265.46	1286.12
265.68	1218.54
265.89	1312.75
266.11	1228.78
266.33	1255.40
266.54	1245.16
266.76	1249.26
266.98	1247.21
267.19	1286.12
267.41	1282.03
267.62	1216.49
267.84	1380.33
268.06	1320.94
268.27	1263.60
268.49	1245.16
268.70	1296.36
268.92	1290.22
269.14	1202.16
269.35	1255.40
269.57	1236.97
269.79	1296.36
270.00	1286.12
270.22	1290.22
270.43	1232.88
270.65	1318.89
270.87	1263.60
271.08	1277.93
271.30	1290.22
271.51	1322.99
271.73	1255.40
271.95	1306.60
272.16	1275.88
272.38	1282.03
272.59	1228.78
272.81	1269.74
273.02	1273.84
273.24	1273.84
273.46	1185.77
273.67	1204.21
273.89	1236.97
274.10	1263.60
274.32	1290.22
274.54	1329.13
274.75	1259.50
274.97	1249.26
275.18	1269.74
275.40	1273.84
275.61	1224.69
275.83	1322.99
276.05	1318.89
276.26	1253.36
276.48	1279.98
276.69	1249.26
276.91	1318.89
277.12	1290.22
277.34	1255.40
277.55	1241.07
277.77	1286.12
277.99	1173.49
278.20	1282.03
278.42	1259.50
278.63	1308.65
278.85	1210.35
279.06	1183.73
279.28	1288.17
279.49	1214.45
279.71	1277.93
279.93	1234.93
280.14	1267.69
280.36	1210.35
280.57	1314.80
280.79	1230.83
281.00	1224.69
281.22	1243.12
281.43	1296.36
281.65	1261.55
281.86	1216.49
282.08	1331.18
282.29	1236.97
282.51	1322.99
282.73	1267.69
282.94	1314.80
283.16	1265.64
283.37	1267.69
283.59	1312.75
283.80	1271.79
284.02	1255.40
284.23	1335.28
284.45	1222.64
284.66	1269.74
284.88	1245.16
285.09	1277.93
285.31	1269.74
285.52	1267.69
285.74	1249.26
285.95	1269.74
286.17	1241.07
286.38	1247.21
286.60	1284.08
286.81	1308.65
287.03	1273.84
287.24	1187.82
287.46	1202.16
287.67	1257.45
287.89	1318.89
288.10	1198.06
288.32	1263.60
288.53	1294.32
288.75	1214.45
288.96	1226.73
289.18	1298.41
289.39	1257.45
289.61	1296.36
289.82	1312.75
290.04	1322.99
290.25	1224.69
290.47	1239.02
290.68	1277.93
290.90	1316.84
291.11	1318.89
291.33	1286.12
291.54	1312.75
291.76	1273.84
291.97	1249.26
292.18	1277.93
292.40	1296.36
292.61	1179.63
292.83	1230.83
293.04	1273.84
293.26	1220.59
293.47	1331.18
293.69	1282.03
293.90	1292.27
294.12	1275.88
294.33	1257.45
294.55	1243.12
294.76	1310.70
294.97	1306.60
295.19	1286.12
295.40	1273.84
295.62	1353.71
295.83	1294.32
296.05	1322.99
296.26	1296.36
296.48	1191.92
296.69	1312.75
296.90	1243.12
297.12	1335.28
297.33	1314.80
297.55	1275.88
297.76	1263.60
297.98	1249.26
298.19	1271.79
298.41	1355.76
298.62	1345.52
298.83	1236.97
299.05	1273.84
299.26	1284.08
299.48	1320.94
299.69	1273.84
299.90	1161.20
300.12	1271.79
300.33	1263.60
300.55	1206.25
300.76	1310.70
300.98	1298.41
301.19	1282.03
301.40	1347.56
301.62	1298.41
301.83	1277.93
302.05	1224.69
302.26	1259.50
302.47	1284.08
302.69	1239.02
302.90	1196.01
303.12	1298.41
303.33	1304.56
303.54	1271.79
303.76	1271.79
303.97	1212.40
304.19	1316.84
304.40	1300.46
304.61	1284.08
304.83	1245.16
305.04	1271.79
305.26	1257.45
305.47	1249.26
305.68	1163.25
305.90	1226.73
306.11	1200.11
306.33	1339.37
306.54	1241.07
306.75	1265.64
306.97	1284.08
307.18	1263.60
307.39	1191.92
307.61	1230.83
307.82	1292.27
308.04	1263.60
308.25	1249.26
308.46	1241.07
308.68	1298.41
308.89	1341.42
309.10	1316.84
309.32	1300.46
309.53	1290.22
309.74	1353.71
309.96	1228.78
310.17	1312.75
310.39	1253.36
310.60	1306.60
310.81	1245.16
311.03	1243.12
311.24	1208.30
311.45	1314.80
311.67	1224.69
311.88	1236.97
312.09	1253.36
312.31	1273.84
312.52	1277.93
312.73	1267.69
312.95	1269.74
313.16	1253.36
313.37	1269.74
313.59	1290.22
313.80	1226.73
314.01	1298.41
314.23	1286.12
314.44	1239.02
314.65	1232.88
314.87	1310.70
315.08	1327.08
315.29	1279.98
315.51	1355.76
315.72	1290.22
315.93	1290.22
316.15	1271.79
316.36	1208.30
316.57	1300.46
316.79	1294.32
317.00	1279.98
317.21	1265.64
317.43	1212.40
317.64	1286.12
317.85	1239.02
318.07	1241.07
318.28	1314.80
318.49	1294.32
318.70	1304.56
318.92	1310.70
319.13	1263.60
319.34	1310.70
319.56	1290.22
319.77	1265.64
319.98	1150.96
320.20	1241.07
320.41	1257.45
320.62	1261.55
320.83	1302.51
321.05	1294.32
321.26	1286.12
321.47	1222.64
321.69	1298.41
321.90	1275.88
322.11	1290.22
322.32	1290.22
322.54	1245.16
322.75	1247.21
322.96	1196.01
323.18	1290.22
323.39	1216.49
323.60	1302.51
323.81	1308.65
324.03	1269.74
324.24	1259.50
324.45	1245.16
324.66	1230.83
324.88	1214.45
325.09	1306.60
325.30	1226.73
325.52	1312.75
325.73	1224.69
325.94	1290.22
326.15	1277.93
326.37	1198.06
326.58	1255.40
326.79	1290.22
327.00	1206.25
327.22	1314.80
327.43	1232.88
327.64	1183.73
327.85	1286.12
328.07	1247.21
328.28	1232.88
328.49	1263.60
328.70	1204.21
328.92	1214.45
329.13	1261.55
329.34	1222.64
329.55	1202.16
329.76	1181.68
329.98	1226.73
330.19	1282.03
330.40	1275.88
330.61	1255.40
330.83	1298.41
331.04	1259.50
331.25	1327.08
331.46	1196.01
331.68	1322.99
331.89	1312.75
332.10	1269.74
332.31	1247.21
332.52	1255.40
332.74	1304.56
332.95	1279.98
333.16	1204.21
333.37	1241.07
333.58	1239.02
333.80	1306.60
334.01	1269.74
334.22	1245.16
334.43	1261.55
334.64	1247.21
334.86	1198.06
335.07	1234.93
335.28	1282.03
335.49	1279.98
335.70	1310.70
335.92	1208.30
336.13	1290.22
336.34	1279.98
336.55	1236.97
336.76	1255.40
336.98	1320.94
337.19	1269.74
337.40	1316.84
337.61	1167.34
337.82	1294.32
338.04	1220.59
338.25	1333.23
338.46	1259.50
338.67	1273.84
338.88	1304.56
339.09	1286.12
339.31	1236.97
339.52	1368.04
339.73	1259.50
339.94	1306.60
340.15	1247.21
340.36	1316.84
340.58	1282.03
340.79	1214.45
341.00	1286.12
341.21	1183.73
341.42	1329.13
341.63	1302.51
341.85	1208.30
342.06	1306.60
342.27	1290.22
342.48	1245.16
342.69	1288.17
342.90	1341.42
343.12	1265.64
343.33	1249.26
343.54	1251.31
343.75	1345.52
343.96	1341.42
344.17	1290.22
344.38	1329.13
344.60	1294.32
344.81	1335.28
345.02	1310.70
345.23	1263.60
345.44	1335.28
345.65	1302.51
345.86	1241.07
346.07	1286.12
346.29	1234.93
346.50	1253.36
346.71	1236.97
346.92	1232.88
347.13	1236.97
347.34	1314.80
347.55	1255.40
347.76	1263.60
347.98	1255.40
348.19	1273.84
348.40	1282.03
348.61	1322.99
348.82	1243.12
349.03	1187.82
349.24	1257.45
349.45	1202.16
349.66	1322.99
349.88	1279.98
350.09	1267.69
350.30	1277.93
350.51	1298.41
350.72	1267.69
350.93	1271.79
351.14	1288.17
351.35	1294.32
351.56	1294.32
351.77	1345.52
351.99	1243.12
352.20	1288.17
352.41	1277.93
352.62	1253.36
352.83	1239.02
353.04	1302.51
353.25	1204.21
353.46	1269.74
353.67	1228.78
353.88	1247.21
354.09	1349.61
354.30	1230.83
354.52	1265.64
354.73	1253.36
354.94	1243.12
355.15	1294.32
355.36	1290.22
355.57	1304.56
355.78	1316.84
355.99	1230.83
356.20	1165.29
356.41	1322.99
356.62	1249.26
356.83	1265.64
357.04	1243.12
357.25	1259.50
357.46	1212.40
357.68	1302.51
357.89	1282.03
358.10	1263.60
358.31	1304.56
358.52	1271.79
358.73	1325.04
358.94	1286.12
359.15	1265.64
359.36	1273.84
359.57	1249.26
359.78	1296.36
359.99	1279.98
360.20	1273.84
360.41	1286.12
360.62	1359.85
360.83	1296.36
361.04	1241.07
361.25	1208.30
361.46	1308.65
361.67	1261.55
361.88	1234.93
362.09	1298.41
362.30	1292.27
362.51	1269.74
362.72	1296.36
362.93	1345.52
363.14	1308.65
363.35	1304.56
363.56	1290.22
363.78	1249.26
363.99	1232.88
364.20	1236.97
364.41	1282.03
364.62	1298.41
364.83	1261.55
365.04	1232.88
365.25	1187.82
365.46	1282.03
365.67	1253.36
365.88	1243.12
366.09	1277.93
366.30	1357.80
366.51	1212.40
366.72	1279.98
366.93	1318.89
367.14	1273.84
367.35	1292.27
367.56	1263.60
367.77	1331.18
367.98	1230.83
368.18	1312.75
368.39	1255.40
368.60	1232.88
368.81	1282.03
369.02	1214.45
369.23	1247.21
369.44	1245.16
369.65	1241.07
369.86	1267.69
370.07	1226.73
370.28	1257.45
370.49	1284.08
370.70	1282.03
370.91	1212.40
371.12	1214.45
371.33	1179.63
371.54	1286.12
371.75	1239.02
371.96	1202.16
372.17	1290.22
372.38	1290.22
372.59	1290.22
372.80	1282.03
373.01	1245.16
373.22	1298.41
373.43	1236.97
373.64	1210.35
373.85	1263.60
374.06	1249.26
374.26	1241.07
374.47	1351.66
374.68	1273.84
374.89	1243.12
375.10	1306.60
375.31	1200.11
375.52	1302.51
375.73	1181.68
375.94	1259.50
376.15	1302.51
376.36	1265.64
376.57	1247.21
376.78	1263.60
376.99	1279.98
377.20	1255.40
377.40	1247.21
377.61	1292.27
377.82	1284.08
378.03	1277.93
378.24	1273.84
378.45	1284.08
378.66	1267.69
378.87	1269.74
379.08	1269.74
379.29	1380.33
379.50	1249.26
379.71	1288.17
379.91	1257.45
380.12	1341.42
380.33	1216.49
380.54	1261.55
380.75	1200.11
380.96	1302.51
381.17	1228.78
381.38	1224.69
381.59	1257.45
381.80	1245.16
382.00	1273.84
382.21	1243.12
382.42	1263.60
382.63	1284.08
382.84	1284.08
383.05	1251.31
383.26	1265.64
383.47	1198.06
383.68	1206.25
383.88	1265.64
384.09	1259.50
384.30	1249.26
384.51	1292.27
384.72	1298.41
384.93	1302.51
385.14	1312.75
385.35	1173.49
385.55	1322.99
385.76	1263.60
385.97	1198.06
386.18	1259.50
386.39	1175.53
386.60	1241.07
386.81	1261.55
387.02	1304.56
387.22	1282.03
387.43	1355.76
387.64	1273.84
387.85	1271.79
388.06	1273.84
388.27	1292.27
388.48	1265.64
388.68	1212.40
388.89	1306.60
389.10	1271.79
389.31	1271.79
389.52	1251.31
389.73	1292.27
389.93	1310.70
390.14	1314.80
390.35	1224.69
390.56	1257.45
390.77	1230.83
390.98	1196.01
391.18	1331.18
391.39	1316.84
391.60	1267.69
391.81	1216.49
392.02	1212.40
392.23	1228.78
392.43	1282.03
392.64	1290.22
392.85	1339.37
393.06	1273.84
393.27	1245.16
393.47	1267.69
393.68	1273.84
393.89	1253.36
394.10	1222.64
394.31	1226.73
394.52	1273.84
394.72	1292.27
394.93	1271.79
395.14	1208.30
395.35	1222.64
395.56	1316.84
395.76	1298.41
395.97	1245.16
396.18	1247.21
396.39	1310.70
396.60	1349.61
396.80	1243.12
397.01	1347.56
397.22	1210.35
397.43	1337.32
397.64	1286.12
397.84	1296.36
398.05	1290.22
398.26	1304.56
398.47	1341.42
398.67	1226.73
398.88	1245.16
399.09	1318.89
399.30	1298.41
399.51	1241.07
399.71	1241.07
399.92	1232.88
400.13	1255.40
400.34	1249.26
400.54	1329.13
400.75	1308.65
400.96	1300.46
401.17	1294.32
401.37	1196.01
401.58	1355.76
401.79	1226.73
402.00	1359.85
402.21	1269.74
402.41	1290.22
402.62	1245.16
402.83	1224.69
403.04	1228.78
403.24	1257.45
403.45	1322.99
403.66	1366.00
403.87	1259.50
404.07	1341.42
404.28	1263.60
404.49	1263.60
404.70	1265.64
404.90	1243.12
405.11	1179.63
405.32	1263.60
405.52	1312.75
405.73	1327.08
405.94	1265.64
406.15	1257.45
406.35	1314.80
406.56	1304.56
406.77	1257.45
406.98	1234.93
407.18	1261.55
407.39	1279.98
407.60	1267.69
407.80	1255.40
408.01	1253.36
408.22	1222.64
408.43	1271.79
408.63	1314.80
408.84	1212.40
409.05	1298.41
409.25	1208.30
409.46	1300.46
409.67	1294.32
409.88	1232.88
410.08	1261.55
410.29	1298.41
410.50	1253.36
410.70	1257.45
410.91	1198.06
411.12	1253.36
411.32	1306.60
411.53	1279.98
411.74	1269.74
411.95	1253.36
412.15	1214.45
412.36	1312.75
412.57	1304.56
412.77	1230.83
412.98	1249.26
413.19	1216.49
413.39	1296.36
413.60	1224.69
413.81	1294.32
414.01	1255.40
414.22	1288.17
414.43	1277.93
414.63	1267.69
414.84	1261.55
415.05	1273.84
415.25	1230.83
415.46	1269.74
415.67	1243.12
415.87	1247.21
416.08	1308.65
416.29	1234.93
416.49	1216.49
416.70	1275.88
416.91	1230.83
417.11	1243.12
417.32	1271.79
417.53	1316.84
417.73	1300.46
417.94	1232.88
418.15	1325.04
418.35	1282.03
418.56	1294.32
418.77	1298.41
418.97	1224.69
419.18	1271.79
419.38	1212.40
419.59	1214.45
419.80	1259.50
420.00	1269.74
420.21	1368.04
420.42	1282.03
420.62	1230.83
420.83	1288.17
421.04	1193.97
421.24	1255.40
421.45	1241.07
421.65	1277.93
421.86	1325.04
422.07	1312.75
422.27	1277.93
422.48	1247.21
422.69	1265.64
422.89	1282.03
423.10	1288.17
423.30	1337.32
423.51	1214.45
423.72	1249.26
423.92	1263.60
424.13	1224.69
424.33	1269.74
424.54	1292.27
424.75	1265.64
424.95	1224.69
425.16	1273.84
425.36	1298.41
425.57	1216.49
425.78	1290.22
425.98	1263.60
426.19	1306.60
426.39	1247.21
426.60	1249.26
426.81	1351.66
427.01	1243.12
427.22	1247.21
427.42	1273.84
427.63	1241.07
427.83	1183.73
428.04	1245.16
428.25	1234.93
428.45	1288.17
428.66	1265.64
428.86	1220.59
429.07	1318.89
429.28	1306.60
429.48	1296.36
429.69	1345.52
429.89	1314.80
430.10	1279.98
430.30	1243.12
430.51	1198.06
430.71	1284.08
430.92	1347.56
431.13	1263.60
431.33	1269.74
431.54	1263.60
431.74	1279.98
431.95	1298.41
432.15	1226.73
432.36	1290.22
432.56	1257.45
432.77	1232.88
432.98	1253.36
433.18	1232.88
433.39	1224.69
433.59	1273.84
433.80	1265.64
434.00	1333.23
434.21	1259.50
434.41	1290.22
434.62	1249.26
434.82	1251.31
435.03	1228.78
435.23	1249.26
435.44	1288.17
435.64	1314.80
435.85	1318.89
436.06	1318.89
436.26	1255.40
436.47	1218.54
436.67	1226.73
436.88	1271.79
437.08	1331.18
437.29	1259.50
437.49	1310.70
437.70	1296.36
437.90	1267.69
438.11	1277.93
438.31	1302.51
438.52	1251.31
438.72	1263.60
438.93	1271.79
439.13	1230.83
439.34	1230.83
439.54	1292.27
439.75	1282.03
439.95	1320.94
440.16	1288.17
440.36	1273.84
440.57	1251.31
440.77	1353.71
440.98	1282.03
441.18	1236.97
441.39	1284.08
441.59	1286.12
441.80	1300.46
442.00	1300.46
442.21	1327.08
442.41	1318.89
442.62	1304.56
442.82	1294.32
443.02	1267.69
443.23	1261.55
443.43	1218.54
443.64	1279.98
443.84	1267.69
444.05	1308.65
444.25	1234.93
444.46	1273.84
444.66	1267.69
444.87	1310.70
445.07	1239.02
445.28	1294.32
445.48	1335.28
445.69	1236.97
445.89	1331.18
446.09	1296.36
446.30	1282.03
446.50	1247.21
446.71	1230.83
446.91	1247.21
447.12	1243.12
447.32	1337.32
447.53	1279.98
447.73	1265.64
447.93	1327.08
448.14	1249.26
448.34	1277.93
448.55	1298.41
448.75	1325.04
448.96	1251.31
449.16	1322.99
449.36	1325.04
449.57	1286.12
449.77	1206.25
449.98	1314.80
450.18	1257.45
450.39	1300.46
450.59	1271.79
450.79	1384.43
451.00	1232.88
451.20	1267.69
451.41	1271.79
451.61	1282.03
451.81	1259.50
452.02	1298.41
452.22	1269.74
452.43	1257.45
452.63	1273.84
452.84	1251.31
453.04	1236.97
453.24	1239.02
453.45	1322.99
453.65	1255.40
453.86	1327.08
454.06	1333.23
454.26	1273.84
454.47	1273.84
454.67	1257.45
454.87	1337.32
455.08	1263.60
455.28	1314.80
455.49	1239.02
455.69	1292.27
455.89	1253.36
456.10	1376.24
456.30	1265.64
456.51	1277.93
456.71	1200.11
456.91	1286.12
457.12	1245.16
457.32	1230.83
457.52	1314.80
457.73	1322.99
457.93	1271.79
458.14	1245.16
458.34	1271.79
458.54	1251.31
458.75	1312.75
458.95	1263.60
459.15	1265.64
459.36	1261.55
459.56	1318.89
459.76	1288.17
459.97	1312.75
460.17	1216.49
460.37	1335.28
460.58	1275.88
460.78	1212.40
460.99	1308.65
461.19	1236.97
461.39	1279.98
461.60	1308.65
461.80	1290.22
462.00	1253.36
462.21	1343.47
462.41	1265.64
462.61	1290.22
462.82	1196.01
463.02	1308.65
463.22	1206.25
463.43	1200.11
463.63	1263.60
463.83	1267.69
464.04	1310.70
464.24	1279.98
464.44	1247.21
464.64	1310.70
464.85	1304.56
465.05	1368.04
465.25	1312.75
465.46	1234.93
465.66	1253.36
465.86	1204.21
466.07	1216.49
466.27	1273.84
466.47	1239.02
466.68	1292.27
466.88	1241.07
467.08	1263.60
467.29	1306.60
467.49	1245.16
467.69	1245.16
467.89	1236.97
468.10	1277.93
468.30	1214.45
468.50	1259.50
468.71	1292.27
468.91	1279.98
469.11	1247.21
469.31	1241.07
469.52	1288.17
469.72	1277.93
469.92	1273.84
470.13	1310.70
470.33	1273.84
470.53	1263.60
470.73	1269.74
470.94	1304.56
471.14	1302.51
471.34	1249.26
471.54	1222.64
471.75	1286.12
471.95	1210.35
472.15	1220.59
472.36	1183.73
472.56	1261.55
472.76	1265.64
472.96	1226.73
473.17	1314.80
473.37	1247.21
473.57	1290.22
473.77	1329.13
473.98	1312.75
474.18	1300.46
474.38	1259.50
474.58	1220.59
474.79	1275.88
474.99	1271.79
475.19	1243.12
475.39	1298.41
475.60	1267.69
475.80	1294.32
476.00	1296.36
476.20	1265.64
476.41	1277.93
476.61	1331.18
476.81	1275.88
477.01	1298.41
477.21	1290.22
477.42	1257.45
477.62	1302.51
477.82	1220.59
478.02	1269.74
478.23	1255.40
478.43	1263.60
478.63	1290.22
478.83	1247.21
479.03	1253.36
479.24	1318.89
479.44	1204.21
479.64	1208.30
479.84	1282.03
480.04	1267.69
480.25	1230.83
480.45	1253.36
480.65	1284.08
480.85	1282.03
481.06	1198.06
481.26	1267.69
481.46	1249.26
481.66	1273.84
481.86	1216.49
482.06	1200.11
482.27	1296.36
482.47	1296.36
482.67	1298.41
482.87	1204.21
483.07	1304.56
483.28	1257.45
483.48	1298.41
483.68	1322.99
483.88	1189.87
484.08	1282.03
484.29	1198.06
484.49	1359.85
484.69	1183.73
484.89	1316.84
485.09	1214.45
485.29	1284.08
485.50	1302.51
485.70	1279.98
485.90	1230.83
486.10	1261.55
486.30	1257.45
486.50	1341.42
486.71	1304.56
486.91	1296.36
487.11	1271.79
487.31	1232.88
487.51	1206.25
487.71	1271.79
487.91	1314.80
488.12	1329.13
488.32	1282.03
488.52	1253.36
488.72	1267.69
488.92	1329.13
489.12	1320.94
489.32	1239.02
489.53	1245.16
489.73	1310.70
489.93	1247.21
490.13	1300.46
490.33	1296.36
490.53	1261.55
490.73	1294.32
490.94	1259.50
491.14	1239.02
491.34	1220.59
491.54	1329.13
491.74	1224.69
491.94	1279.98
492.14	1243.12
492.34	1212.40
492.54	1234.93
492.75	1333.23
492.95	1308.65
493.15	1257.45
493.35	1294.32
493.55	1239.02
493.75	1296.36
493.95	1345.52
494.15	1234.93
494.35	1239.02
494.56	1253.36
494.76	1298.41
494.96	1320.94
495.16	1284.08
495.36	1273.84
495.56	1331.18
495.76	1277.93
495.96	1312.75
496.16	1249.26
496.36	1314.80
496.56	1208.30
496.77	1193.97
496.97	1351.66
497.17	1312.75
497.37	1290.22
497.57	1259.50
497.77	1279.98
497.97	1298.41
498.17	1269.74
498.37	1269.74
498.57	1265.64
498.77	1241.07
498.97	1316.84
499.17	1241.07
499.38	1288.17
499.58	1273.84
499.78	1279.98
499.98	1318.89
500.18	1298.41
500.38	1265.64
500.58	1320.94
500.78	1251.31
500.98	1294.32
501.18	1292.27
501.38	1208.30
501.58	1224.69
501.78	1232.88
501.98	1312.75
502.18	1296.36
502.38	1277.93
502.58	1335.28
502.78	1214.45
502.98	1196.01
503.18	1312.75
503.38	1153.01
503.59	1306.60
503.79	1275.88
503.99	1286.12
504.19	1226.73
504.39	1230.83
504.59	1277.93
504.79	1284.08
504.99	1277.93
505.19	1171.44
505.39	1253.36
505.59	1306.60
505.79	1384.43
505.99	1349.61
506.19	1249.26
506.39	1279.98
506.59	1239.02
506.79	1249.26
506.99	1239.02
507.19	1286.12
507.39	1298.41
507.59	1204.21
507.79	1171.44
507.99	1294.32
508.19	1239.02
508.39	1327.08
508.59	1306.60
508.79	1277.93
508.99	1339.37
509.19	1259.50
509.39	1220.59
509.59	1273.84
509.79	1345.52
509.99	1232.88
510.19	1251.31
510.39	1271.79
510.59	1347.56
510.79	1316.84
510.99	1218.54
511.19	1331.18
511.39	1222.64
511.59	1282.03
511.79	1263.60
511.99	1318.89
512.19	1333.23
512.38	1306.60
512.58	1204.21
512.78	1320.94
512.98	1228.78
513.18	1312.75
513.38	1286.12
513.58	1312.75
513.78	1304.56
513.98	1345.52
514.18	1306.60
514.38	1253.36
514.58	1320.94
514.78	1255.40
514.98	1271.79
515.18	1263.60
515.38	1259.50
515.58	1327.08
515.78	1267.69
515.98	1251.31
516.18	1300.46
516.38	1302.51
516.57	1296.36
516.77	1308.65
516.97	1249.26
517.17	1273.84
517.37	1335.28
517.57	1279.98
517.77	1380.33
517.97	1275.88
518.17	1310.70
518.37	1304.56
518.57	1288.17
518.77	1255.40
518.97	1302.51
519.16	1366.00
519.36	1245.16
519.56	1253.36
519.76	1372.14
519.96	1325.04
520.16	1288.17
520.36	1335.28
520.56	1261.55
520.76	1327.08
520.96	1298.41
521.16	1298.41
521.35	1388.52
521.55	1277.93
521.75	1273.84
521.95	1290.22
522.15	1300.46
522.35	1271.79
522.55	1265.64
522.75	1263.60
522.95	1327.08
523.14	1204.21
523.34	1286.12
523.54	1288.17
523.74	1335.28
523.94	1306.60
524.14	1271.79
524.34	1245.16
524.54	1290.22
524.73	1314.80
524.93	1318.89
525.13	1312.75
525.33	1302.51
525.53	1314.80
525.73	1277.93
525.93	1269.74
526.13	1331.18
526.32	1298.41
526.52	1263.60
526.72	1339.37
526.92	1300.46
527.12	1267.69
527.32	1236.97
527.52	1306.60
527.71	1290.22
527.91	1312.75
528.11	1277.93
528.31	1339.37
528.51	1234.93
528.71	1275.88
528.90	1300.46
529.10	1310.70
529.30	1308.65
529.50	1292.27
529.70	1273.84
529.90	1273.84
530.09	1337.32
530.29	1300.46
530.49	1236.97
530.69	1322.99
530.89	1236.97
531.09	1337.32
531.28	1239.02
531.48	1304.56
531.68	1327.08
531.88	1314.80
532.08	1257.45
532.28	1251.31
532.47	1288.17
532.67	1302.51
532.87	1288.17
533.07	1253.36
533.27	1339.37
533.46	1277.93
533.66	1273.84
533.86	1306.60
534.06	1263.60
534.26	1298.41
534.45	1322.99
534.65	1302.51
534.85	1216.49
535.05	1318.89
535.25	1257.45
535.44	1263.60
535.64	1271.79
535.84	1288.17
536.04	1277.93
536.24	1318.89
536.43	1284.08
536.63	1310.70
536.83	1322.99
537.03	1302.51
537.22	1325.04
537.42	1286.12
537.62	1279.98
537.82	1325.04
538.02	1284.08
538.21	1316.84
538.41	1255.40
538.61	1290.22
538.81	1310.70
539.00	1327.08
539.20	1261.55
539.40	1294.32
539.60	1335.28
539.79	1306.60
539.99	1314.80
540.19	1292.27
540.39	1296.36
540.58	1265.64
540.78	1269.74
540.98	1273.84
541.18	1302.51
541.37	1282.03
541.57	1333.23
541.77	1347.56
541.97	1290.22
542.16	1288.17
542.36	1304.56
542.56	1312.75
542.76	1353.71
542.95	1212.40
543.15	1331.18
543.35	1277.93
543.54	1341.42
543.74	1320.94
543.94	1314.80
544.14	1306.60
544.33	1302.51
544.53	1275.88
544.73	1306.60
544.93	1275.88
545.12	1275.88
545.32	1249.26
545.52	1284.08
545.71	1277.93
545.91	1298.41
546.11	1230.83
546.30	1257.45
546.50	1259.50
546.70	1279.98
546.90	1214.45
547.09	1241.07
547.29	1271.79
547.49	1320.94
547.68	1304.56
547.88	1310.70
548.08	1257.45
548.27	1277.93
548.47	1275.88
548.67	1263.60
548.87	1349.61
549.06	1392.62
549.26	1339.37
549.46	1265.64
549.65	1224.69
549.85	1300.46
550.05	1255.40
550.24	1228.78
550.44	1290.22
550.64	1269.74
550.83	1265.64
551.03	1236.97
551.23	1304.56
551.42	1271.79
551.62	1247.21
551.82	1255.40
552.01	1288.17
552.21	1273.84
552.41	1282.03
552.60	1226.73
552.80	1331.18
553.00	1224.69
553.19	1216.49
553.39	1308.65
553.59	1286.12
553.78	1339.37
553.98	1298.41
554.17	1308.65
554.37	1333.23
554.57	1310.70
554.76	1316.84
554.96	1314.80
555.16	1288.17
555.35	1310.70
555.55	1282.03
555.75	1310.70
555.94	1173.49
556.14	1282.03
556.33	1339.37
556.53	1239.02
556.73	1318.89
556.92	1273.84
557.12	1296.36
557.32	1249.26
557.51	1331.18
557.71	1318.89
557.90	1265.64
558.10	1308.65
558.30	1347.56
558.49	1329.13
558.69	1288.17
558.88	1202.16
559.08	1302.51
559.28	1290.22
559.47	1228.78
559.67	1255.40
559.86	1208.30
560.06	1325.04
560.26	1335.28
560.45	1292.27
560.65	1282.03
560.84	1275.88
561.04	1294.32
561.24	1300.46
561.43	1249.26
561.63	1249.26
561.82	1269.74
562.02	1253.36
562.22	1320.94
562.41	1257.45
562.61	1314.80
562.80	1257.45
563.00	1300.46
563.19	1290.22
563.39	1222.64
563.59	1277.93
563.78	1329.13
563.98	1286.12
564.17	1302.51
564.37	1245.16
564.56	1208.30
564.76	1298.41
564.96	1320.94
565.15	1243.12
565.35	1286.12
565.54	1302.51
565.74	1286.12
565.93	1284.08
566.13	1253.36
566.32	1343.47
566.52	1298.41
566.71	1255.40
566.91	1251.31
567.11	1300.46
567.30	1277.93
567.50	1261.55
567.69	1292.27
567.89	1318.89
568.08	1271.79
568.28	1310.70
568.47	1351.66
568.67	1249.26
568.86	1269.74
569.06	1275.88
569.25	1327.08
569.45	1273.84
569.64	1271.79
569.84	1325.04
570.04	1282.03
570.23	1282.03
570.43	1263.60
570.62	1304.56
570.82	1279.98
571.01	1359.85
571.21	1331.18
571.40	1239.02
571.60	1271.79
571.79	1298.41
571.99	1343.47
572.18	1200.11
572.38	1245.16
572.57	1290.22
572.77	1314.80
572.96	1329.13
573.16	1228.78
573.35	1224.69
573.55	1304.56
573.74	1257.45
573.94	1247.21
574.13	1216.49
574.33	1261.55
574.52	1212.40
574.71	1288.17
574.91	1241.07
575.10	1263.60
575.30	1200.11
575.49	1376.24
575.69	1230.83
575.88	1253.36
576.08	1339.37
576.27	1316.84
576.47	1310.70
576.66	1316.84
576.86	1292.27
577.05	1277.93
577.25	1286.12
577.44	1277.93
577.64	1202.16
577.83	1273.84
578.02	1302.51
578.22	1284.08
578.41	1296.36
578.61	1312.75
578.80	1269.74
579.00	1265.64
579.19	1187.82
579.39	1339.37
579.58	1193.97
579.77	1304.56
579.97	1308.65
580.16	1320.94
580.36	1267.69
580.55	1265.64
580.75	1253.36
580.94	1279.98
581.13	1269.74
581.33	1230.83
581.52	1279.98
581.72	1316.84
581.91	1306.60
582.11	1251.31
582.30	1314.80
582.49	1302.51
582.69	1357.80
582.88	1339.37
583.08	1302.51
583.27	1265.64
583.47	1296.36
583.66	1327.08
583.85	1341.42
584.05	1279.98
584.24	1304.56
584.44	1275.88
584.63	1343.47
584.82	1275.88
585.02	1335.28
585.21	1327.08
585.41	1273.84
585.60	1279.98
585.79	1277.93
585.99	1310.70
586.18	1267.69
586.37	1265.64
586.57	1261.55
586.76	1290.22
586.96	1277.93
587.15	1351.66
587.34	1255.40
587.54	1181.68
587.73	1296.36
587.93	1269.74
588.12	1314.80
588.31	1300.46
588.51	1312.75
588.70	1294.32
588.89	1241.07
589.09	1286.12
589.28	1236.97
589.47	1288.17
589.67	1220.59
589.86	1320.94
590.06	1265.64
590.25	1253.36
590.44	1337.32
590.64	1300.46
590.83	1273.84
591.02	1288.17
591.22	1343.47
591.41	1329.13
591.60	1306.60
591.80	1245.16
591.99	1224.69
592.18	1198.06
592.38	1279.98
592.57	1228.78
592.76	1372.14
592.96	1327.08
593.15	1284.08
593.34	1251.31
593.54	1249.26
593.73	1267.69
593.92	1245.16
594.12	1318.89
594.31	1208.30
594.50	1327.08
594.70	1300.46
594.89	1234.93
595.08	1236.97
595.28	1322.99
595.47	1261.55
595.66	1306.60
595.86	1222.64
596.05	1316.84
596.24	1310.70
596.43	1267.69
596.63	1288.17
596.82	1232.88
597.01	1275.88
597.21	1337.32
597.40	1318.89
597.59	1382.38
597.79	1312.75
597.98	1271.79
598.17	1302.51
598.36	1300.46
598.56	1310.70
598.75	1292.27
598.94	1261.55
599.14	1308.65
599.33	1290.22
599.52	1290.22
599.71	1279.98
599.91	1333.23
600.10	1273.84
600.29	1279.98
600.48	1257.45
600.68	1286.12
600.87	1284.08
601.06	1232.88
601.26	1322.99
601.45	1333.23
601.64	1222.64
601.83	1239.02
602.03	1329.13
602.22	1341.42
602.41	1308.65
602.60	1310.70
602.80	1392.62
602.99	1191.92
603.18	1277.93
603.37	1230.83
603.57	1239.02
603.76	1310.70
603.95	1312.75
604.14	1253.36
604.34	1300.46
604.53	1282.03
604.72	1232.88
604.91	1247.21
605.10	1341.42
605.30	1269.74
605.49	1279.98
605.68	1322.99
605.87	1187.82
606.07	1247.21
606.26	1331.18
606.45	1241.07
606.64	1261.55
606.84	1265.64
607.03	1294.32
607.22	1251.31
607.41	1310.70
607.60	1331.18
607.80	1306.60
607.99	1249.26
608.18	1269.74
608.37	1269.74
608.56	1288.17
608.76	1255.40
608.95	1282.03
609.14	1370.09
609.33	1265.64
609.52	1347.56
609.72	1255.40
609.91	1331.18
610.10	1302.51
610.29	1288.17
610.48	1290.22
610.68	1312.75
610.87	1269.74
611.06	1296.36
611.25	1267.69
611.44	1257.45
611.63	1320.94
611.83	1222.64
612.02	1304.56
612.21	1310.70
612.40	1249.26
612.59	1247.21
612.79	1308.65
612.98	1234.93
613.17	1294.32
613.36	1288.17
613.55	1245.16
613.74	1239.02
613.93	1236.97
614.13	1204.21
614.32	1286.12
614.51	1339.37
614.70	1271.79
614.89	1298.41
615.08	1224.69
615.28	1290.22
615.47	1300.46
615.66	1288.17
615.85	1177.58
616.04	1314.80
616.23	1296.36
616.42	1314.80
616.62	1263.60
616.81	1329.13
617.00	1329.13
617.19	1277.93
617.38	1355.76
617.57	1259.50
617.76	1355.76
617.95	1257.45
618.15	1312.75
618.34	1310.70
618.53	1300.46
618.72	1279.98
618.91	1279.98
619.10	1318.89
619.29	1234.93
619.48	1298.41
619.68	1236.97
619.87	1288.17
620.06	1316.84
620.25	1288.17
620.44	1220.59
620.63	1249.26
620.82	1265.64
621.01	1249.26
621.20	1327.08
621.39	1298.41
621.59	1226.73
621.78	1296.36
621.97	1277.93
622.16	1314.80
622.35	1294.32
622.54	1306.60
622.73	1298.41
622.92	1310.70
623.11	1290.22
623.30	1239.02
623.49	1314.80
623.68	1341.42
623.88	1357.80
624.07	1306.60
624.26	1310.70
624.45	1249.26
624.64	1269.74
624.83	1331.18
625.02	1200.11
625.21	1286.12
625.40	1335.28
625.59	1325.04
625.78	1288.17
625.97	1359.85
626.16	1318.89
626.35	1343.47
626.54	1345.52
626.74	1314.80
626.93	1351.66
627.12	1372.14
627.31	1318.89
627.50	1290.22
627.69	1279.98
627.88	1265.64
628.07	1257.45
628.26	1216.49
628.45	1273.84
628.64	1241.07
628.83	1249.26
629.02	1312.75
629.21	1269.74
629.40	1226.73
629.59	1337.32
629.78	1312.75
629.97	1331.18
630.16	1329.13
630.35	1267.69
630.54	1239.02
630.73	1300.46
630.92	1329.13
631.11	1343.47
631.30	1279.98
631.49	1253.36
631.68	1349.61
631.87	1460.20
632.06	1568.74
632.25	1519.59
632.44	1437.67
632.63	1562.60
632.82	1857.51
633.01	2191.33
633.20	2068.45
633.39	2199.52
633.58	2131.94
633.77	1839.08
633.96	1998.82
634.15	2324.44
634.34	2449.37
634.53	2248.67
634.72	1861.60
634.91	1753.06
635.10	1609.70
635.29	1591.27
635.48	1460.20
635.67	1413.10
635.86	1421.29
636.05	1411.05
636.24	1306.60
636.43	1359.85
636.62	1396.71
636.81	1347.56
637.00	1296.36
637.19	1288.17
637.38	1318.89
637.57	1339.37
637.76	1288.17
637.95	1361.90
638.14	1292.27
638.33	1255.40
638.52	1304.56
638.71	1273.84
638.89	1271.79
639.08	1288.17
639.27	1308.65
639.46	1322.99
639.65	1314.80
639.84	1234.93
640.03	1273.84
640.22	1316.84
640.41	1314.80
640.60	1257.45
640.79	1320.94
640.98	1243.12
641.17	1269.74
641.36	1284.08
641.55	1265.64
641.74	1284.08
641.92	1230.83
642.11	1312.75
642.30	1286.12
642.49	1269.74
642.68	1290.22
642.87	1216.49
643.06	1263.60
643.25	1245.16
643.44	1302.51
643.63	1366.00
643.82	1243.12
644.00	1347.56
644.19	1187.82
644.38	1302.51
644.57	1253.36
644.76	1310.70
644.95	1322.99
645.14	1355.76
645.33	1294.32
645.52	1267.69
645.71	1351.66
645.89	1282.03
646.08	1302.51
646.27	1226.73
646.46	1314.80
646.65	1363.95
646.84	1226.73
647.03	1263.60
647.22	1275.88
647.40	1185.77
647.59	1261.55
647.78	1232.88
647.97	1314.80
648.16	1259.50
648.35	1310.70
648.54	1241.07
648.73	1314.80
648.91	1286.12
649.10	1232.88
649.29	1251.31
649.48	1282.03
649.67	1279.98
649.86	1271.79
650.05	1249.26
650.23	1333.23
650.42	1241.07
650.61	1279.98
650.80	1300.46
650.99	1226.73
651.18	1265.64
651.36	1302.51
651.55	1316.84
651.74	1349.61
651.93	1345.52
652.12	1277.93
652.31	1241.07
652.49	1312.75
652.68	1269.74
652.87	1265.64
653.06	1204.21
653.25	1306.60
653.44	1337.32
653.62	1265.64
653.81	1304.56
654.00	1251.31
654.19	1236.97
654.38	1249.26
654.56	1234.93
654.75	1349.61
654.94	1294.32
655.13	1200.11
655.32	1234.93
655.51	1245.16
655.69	1271.79
655.88	1273.84
656.07	1220.59
656.26	1263.60
656.45	1218.54
656.63	1288.17
656.82	1265.64
657.01	1288.17
657.20	1304.56
657.38	1296.36
657.57	1329.13
657.76	1247.21
657.95	1312.75
658.14	1251.31
658.32	1314.80
658.51	1277.93
658.70	1241.07
658.89	1308.65
659.08	1208.30
659.26	1312.75
659.45	1325.04
659.64	1230.83
659.83	1261.55
660.01	1329.13
660.20	1269.74
660.39	1312.75
660.58	1243.12
660.76	1298.41
660.95	1325.04
661.14	1286.12
661.33	1271.79
661.51	1300.46
661.70	1316.84
661.89	1204.21
662.08	1282.03
662.26	1339.37
662.45	1269.74
662.64	1216.49
662.83	1255.40
663.01	1275.88
663.20	1306.60
663.39	1259.50
663.58	1218.54
663.76	1273.84
663.95	1218.54
664.14	1273.84
664.32	1224.69
664.51	1220.59
664.70	1325.04
664.89	1294.32
665.07	1368.04
665.26	1325.04
665.45	1290.22
665.64	1310.70
665.82	1306.60
666.01	1279.98
666.20	1228.78
666.38	1267.69
666.57	1253.36
666.76	1255.40
666.95	1267.69
667.13	1282.03
667.32	1298.41
667.51	1357.80
667.69	1331.18
667.88	1368.04
668.07	1232.88
668.25	1286.12
668.44	1216.49
668.63	1296.36
668.81	1325.04
669.00	1249.26
669.19	1226.73
669.38	1320.94
669.56	1228.78
669.75	1290.22
669.94	1271.79
670.12	1282.03
670.31	1290.22
670.50	1222.64
670.68	1294.32
670.87	1232.88
671.06	1214.45
671.24	1273.84
671.43	1310.70
671.62	1331.18
671.80	1257.45
671.99	1271.79
672.18	1331.18
672.36	1214.45
672.55	1259.50
672.74	1175.53
672.92	1267.69
673.11	1335.28
673.29	1228.78
673.48	1273.84
673.67	1214.45
673.85	1247.21
674.04	1239.02
674.23	1331.18
674.41	1314.80
674.60	1267.69
674.79	1265.64
674.97	1249.26
675.16	1257.45
675.34	1312.75
675.53	1265.64
675.72	1206.25
675.90	1282.03
676.09	1271.79
676.28	1232.88
676.46	1236.97
676.65	1302.51
676.83	1226.73
677.02	1239.02
677.21	1302.51
677.39	1273.84
677.58	1329.13
677.77	1198.06
677.95	1304.56
678.14	1253.36
678.32	1298.41
678.51	1308.65
678.70	1193.97
678.88	1341.42
679.07	1286.12
679.25	1288.17
679.44	1284.08
679.63	1232.88
679.81	1148.91
680.00	1183.73
680.18	1304.56
680.37	1241.07
680.55	1230.83
680.74	1216.49
680.93	1208.30
681.11	1290.22
681.30	1226.73
681.48	1263.60
681.67	1226.73
681.85	1253.36
682.04	1327.08
682.23	1269.74
682.41	1245.16
682.60	1228.78
682.78	1306.60
682.97	1284.08
683.15	1249.26
683.34	1275.88
683.53	1265.64
683.71	1273.84
683.90	1296.36
684.08	1239.02
684.27	1300.46
684.45	1222.64
684.64	1271.79
684.82	1218.54
685.01	1337.32
685.19	1267.69
685.38	1322.99
685.57	1277.93
685.75	1241.07
685.94	1261.55
686.12	1267.69
686.31	1310.70
686.49	1239.02
686.68	1245.16
686.86	1214.45
687.05	1253.36
687.23	1269.74
687.42	1241.07
687.60	1298.41
687.79	1337.32
687.97	1257.45
688.16	1290.22
688.34	1318.89
688.53	1273.84
688.71	1269.74
688.90	1275.88
689.08	1247.21
689.27	1277.93
689.45	1251.31
689.64	1263.60
689.82	1232.88
690.01	1288.17
690.19	1243.12
690.38	1251.31
690.56	1284.08
690.75	1288.17
690.93	1296.36
691.12	1314.80
691.30	1265.64
691.49	1245.16
691.67	1271.79
691.86	1275.88
692.04	1290.22
692.23	1185.77
692.41	1263.60
692.60	1304.56
692.78	1216.49
692.97	1247.21
693.15	1296.36
693.34	1202.16
693.52	1290.22
693.71	1265.64
693.89	1187.82
694.08	1275.88
694.26	1220.59
694.44	1273.84
694.63	1226.73
694.81	1236.97
695.00	1296.36
695.18	1273.84
695.37	1341.42
695.55	1327.08
695.74	1316.84
695.92	1310.70
696.10	1265.64
696.29	1257.45
696.47	1269.74
696.66	1269.74
696.84	1312.75
697.03	1275.88
697.21	1249.26
697.40	1288.17
697.58	1282.03
697.76	1255.40
697.95	1255.40
698.13	1261.55
698.32	1314.80
698.50	1265.64
698.68	1226.73
698.87	1245.16
699.05	1214.45
699.24	1232.88
699.42	1282.03
699.61	1269.74
699.79	1234.93
699.97	1243.12
700.16	1302.51
700.34	1249.26
700.53	1320.94
700.71	1271.79
700.89	1236.97
701.08	1286.12
701.26	1282.03
701.45	1349.61
701.63	1296.36
701.81	1271.79
702.00	1296.36
702.18	1236.97
702.37	1294.32
702.55	1228.78
702.73	1267.69
702.92	1228.78
703.10	1251.31
703.28	1304.56
703.47	1316.84
703.65	1249.26
703.84	1310.70
704.02	1349.61
704.20	1277.93
704.39	1253.36
704.57	1249.26
704.75	1257.45
704.94	1376.24
705.12	1245.16
705.30	1261.55
705.49	1224.69
705.67	1282.03
705.86	1216.49
706.04	1329.13
706.22	1208.30
706.41	1249.26
706.59	1226.73
706.77	1288.17
706.96	1335.28
707.14	1282.03
707.32	1306.60
707.51	1269.74
707.69	1236.97
707.87	1372.14
708.06	1306.60
708.24	1300.46
708.42	1200.11
708.61	1327.08
708.79	1230.83
708.97	1249.26
709.16	1241.07
709.34	1306.60
709.52	1302.51
709.71	1253.36
709.89	1257.45
710.07	1255.40
710.26	1224.69
710.44	1249.26
710.62	1241.07
710.80	1277.93
710.99	1261.55
711.17	1312.75
711.35	1294.32
711.54	1288.17
711.72	1255.40
711.90	1212.40
712.09	1239.02
712.27	1302.51
712.45	1265.64
712.63	1222.64
712.82	1269.74
713.00	1247.21
713.18	1214.45
713.37	1253.36
713.55	1251.31
713.73	1255.40
713.91	1234.93
714.10	1290.22
714.28	1251.31
714.46	1257.45
714.65	1234.93
714.83	1220.59
715.01	1304.56
715.19	1343.47
715.38	1267.69
715.56	1228.78
715.74	1325.04
715.92	1302.51
716.11	1265.64
716.29	1261.55
716.47	1310.70
716.65	1269.74
716.84	1236.97
717.02	1234.93
717.20	1286.12
717.38	1239.02
717.57	1279.98
717.75	1241.07
717.93	1210.35
718.11	1300.46
718.30	1300.46
718.48	1220.59
718.66	1247.21
718.84	1267.69
719.03	1271.79
719.21	1308.65
719.39	1257.45
719.57	1269.74
719.75	1290.22
719.94	1304.56
720.12	1204.21
720.30	1228.78
720.48	1261.55
720.67	1265.64
720.85	1243.12
721.03	1296.36
721.21	1243.12
721.39	1288.17
721.58	1196.01
721.76	1236.97
721.94	1249.26
722.12	1243.12
722.30	1255.40
722.49	1228.78
722.67	1210.35
722.85	1239.02
723.03	1339.37
723.21	1245.16
723.40	1239.02
723.58	1351.66
723.76	1255.40
723.94	1271.79
724.12	1290.22
724.30	1273.84
724.49	1259.50
724.67	1306.60
724.85	1234.93
725.03	1265.64
725.21	1265.64
725.40	1239.02
725.58	1263.60
725.76	1284.08
725.94	1302.51
726.12	1230.83
726.30	1224.69
726.49	1247.21
726.67	1236.97
726.85	1275.88
727.03	1310.70
727.21	1304.56
727.39	1249.26
727.57	1267.69
727.76	1300.46
727.94	1259.50
728.12	1200.11
728.30	1312.75
728.48	1226.73
728.66	1380.33
728.84	1288.17
729.03	1228.78
729.21	1189.87
729.39	1296.36
729.57	1157.10
729.75	1343.47
729.93	1279.98
730.11	1296.36
730.30	1308.65
730.48	1265.64
730.66	1218.54
730.84	1241.07
731.02	1257.45
731.20	1202.16
731.38	1273.84
731.56	1202.16
731.74	1279.98
731.93	1298.41
732.11	1263.60
732.29	1292.27
732.47	1216.49
732.65	1302.51
732.83	1253.36
733.01	1292.27
733.19	1263.60
733.37	1306.60
733.56	1275.88
733.74	1226.73
733.92	1277.93
734.10	1263.60
734.28	1200.11
734.46	1290.22
734.64	1308.65
734.82	1312.75
735.00	1302.51
735.18	1234.93
735.36	1277.93
735.54	1265.64
735.73	1243.12
735.91	1263.60
736.09	1333.23
736.27	1271.79
736.45	1228.78
736.63	1290.22
736.81	1265.64
736.99	1269.74
737.17	1320.94
737.35	1218.54
737.53	1304.56
737.71	1216.49
737.89	1349.61
738.07	1241.07
738.25	1241.07
738.43	1279.98
738.61	1241.07
738.80	1212.40
738.98	1267.69
739.16	1243.12
739.34	1161.20
739.52	1290.22
739.70	1257.45
739.88	1273.84
740.06	1224.69
740.24	1296.36
740.42	1337.32
740.60	1206.25
740.78	1304.56
740.96	1249.26
741.14	1269.74
741.32	1202.16
741.50	1271.79
741.68	1288.17
741.86	1261.55
742.04	1228.78
742.22	1290.22
742.40	1318.89
742.58	1198.06
742.76	1226.73
742.94	1202.16
743.12	1222.64
743.30	1257.45
743.48	1312.75
743.66	1257.45
743.84	1261.55
744.02	1255.40
744.20	1345.52
744.38	1251.31
744.56	1220.59
744.74	1279.98
744.92	1273.84
745.10	1296.36
745.28	1253.36
745.46	1265.64
745.64	1279.98
745.82	1241.07
746.00	1239.02
746.18	1239.02
746.36	1214.45
746.54	1300.46
746.72	1236.97
746.90	1361.90
747.08	1185.77
747.26	1189.87
747.44	1279.98
747.62	1257.45
747.80	1294.32
747.98	1267.69
748.15	1239.02
748.33	1226.73
748.51	1265.64
748.69	1171.44
748.87	1241.07
749.05	1310.70
749.23	1273.84
749.41	1241.07
749.59	1292.27
749.77	1247.21
749.95	1273.84
750.13	1243.12
750.31	1296.36
750.49	1286.12
750.67	1288.17
750.85	1263.60
751.03	1261.55
751.20	1169.39
751.38	1251.31
751.56	1269.74
751.74	1296.36
751.92	1263.60
752.10	1208.30
752.28	1282.03
752.46	1204.21
752.64	1259.50
752.82	1239.02
753.00	1222.64
753.18	1220.59
753.35	1333.23
753.53	1206.25
753.71	1245.16
753.89	1273.84
754.07	1343.47
754.25	1277.93
754.43	1253.36
754.61	1249.26
754.79	1269.74
754.97	1275.88
755.14	1255.40
755.32	1282.03
755.50	1210.35
755.68	1296.36
755.86	1300.46
756.04	1249.26
756.22	1279.98
756.40	1290.22
756.57	1239.02
756.75	1306.60
756.93	1275.88
757.11	1322.99
757.29	1308.65
757.47	1355.76
757.65	1298.41
757.82	1230.83
758.00	1261.55
758.18	1331.18
758.36	1251.31
758.54	1316.84
758.72	1259.50
758.90	1322.99
759.07	1279.98
759.25	1312.75
759.43	1263.60
759.61	1193.97
759.79	1302.51
759.97	1273.84
760.15	1282.03
760.32	1208.30
760.50	1333.23
760.68	1298.41
760.86	1255.40
761.04	1298.41
761.22	1245.16
761.39	1322.99
761.57	1277.93
761.75	1286.12
761.93	1361.90
762.11	1185.77
762.28	1247.21
762.46	1230.83
762.64	1302.51
762.82	1290.22
763.00	1269.74
763.18	1210.35
763.35	1308.65
763.53	1304.56
763.71	1261.55
763.89	1185.77
764.07	1308.65
764.24	1300.46
764.42	1198.06
764.60	1224.69
764.78	1245.16
764.96	1271.79
765.13	1325.04
765.31	1265.64
765.49	1226.73
765.67	1220.59
765.84	1243.12
766.02	1288.17
766.20	1310.70
766.38	1243.12
766.56	1251.31
766.73	1294.32
766.91	1284.08
767.09	1275.88
767.27	1249.26
767.44	1206.25
767.62	1236.97
767.80	1202.16
767.98	1286.12
768.15	1310.70
768.33	1288.17
768.51	1241.07
768.69	1302.51
768.87	1322.99
769.04	1267.69
769.22	1239.02
769.40	1230.83
769.58	1302.51
769.75	1312.75
769.93	1257.45
770.11	1224.69
770.28	1249.26
770.46	1257.45
770.64	1259.50
770.82	1275.88
770.99	1277.93
771.17	1224.69
771.35	1308.65
771.53	1316.84
771.70	1224.69
771.88	1214.45
772.06	1279.98
772.23	1298.41
772.41	1251.31
772.59	1302.51
772.77	1253.36
772.94	1257.45
773.12	1169.39
773.30	1275.88
773.47	1306.60
773.65	1318.89
773.83	1253.36
774.01	1269.74
774.18	1263.60
774.36	1255.40
774.54	1306.60
774.71	1212.40
774.89	1257.45
775.07	1208.30
775.24	1273.84
775.42	1269.74
775.60	1249.26
775.78	1284.08
775.95	1302.51
776.13	1224.69
776.31	1208.30
776.48	1306.60
776.66	1196.01
776.84	1222.64
777.01	1296.36
777.19	1228.78
777.37	1226.73
777.54	1282.03
777.72	1271.79
777.90	1269.74
778.07	1300.46
778.25	1308.65
778.43	1253.36
778.60	1200.11
778.78	1247.21
778.96	1366.00
779.13	1304.56
779.31	1255.40
779.49	1226.73
779.66	1228.78
779.84	1290.22
780.01	1208.30
780.19	1333.23
780.37	1271.79
780.54	1183.73
780.72	1333.23
780.90	1298.41
781.07	1259.50
781.25	1318.89
781.43	1261.55
781.60	1234.93
781.78	1218.54
781.95	1298.41
782.13	1261.55
782.31	1243.12
782.48	1259.50
782.66	1312.75
782.83	1294.32
783.01	1282.03
783.19	1312.75
783.36	1247.21
783.54	1236.97
783.72	1214.45
783.89	1294.32
784.07	1220.59
784.24	1318.89
784.42	1247.21
784.60	1314.80
784.77	1241.07
784.95	1220.59
785.12	1230.83
785.30	1261.55
785.47	1206.25
785.65	1290.22
785.83	1282.03
786.00	1341.42
786.18	1288.17
786.35	1269.74
786.53	1282.03
786.71	1224.69
786.88	1257.45
787.06	1228.78
787.23	1255.40
787.41	1294.32
787.58	1296.36
787.76	1279.98
787.94	1251.31
788.11	1255.40
788.29	1259.50
788.46	1175.53
788.64	1273.84
788.81	1271.79
788.99	1288.17
789.16	1224.69
789.34	1339.37
789.52	1322.99
789.69	1236.97
789.87	1247.21
790.04	1232.88
790.22	1210.35
790.39	1232.88
790.57	1269.74
790.74	1271.79
790.92	1261.55
791.09	1302.51
791.27	1304.56
791.44	1292.27
791.62	1261.55
791.79	1275.88
791.97	1331.18
792.15	1253.36
792.32	1253.36
792.50	1275.88
792.67	1298.41
792.85	1304.56
793.02	1257.45
793.20	1296.36
793.37	1245.16
793.55	1212.40
793.72	1210.35
793.90	1286.12
794.07	1275.88
794.25	1249.26
794.42	1222.64
794.60	1302.51
794.77	1282.03
794.95	1255.40
795.12	1234.93
795.30	1251.31
795.47	1232.88
795.65	1230.83
795.82	1284.08
796.00	1318.89
796.17	1359.85
796.34	1318.89
796.52	1300.46
796.69	1230.83
796.87	1275.88
797.04	1310.70
797.22	1259.50
797.39	1296.36
797.57	1249.26
797.74	1273.84
797.92	1288.17
798.09	1236.97
798.27	1263.60
798.44	1263.60
798.62	1255.40
798.79	1183.73
798.96	1306.60
799.14	1230.83
799.31	1302.51
799.49	1247.21
799.66	1261.55
799.84	1310.70
800.01	1318.89
800.19	1273.84
800.36	1314.80
800.53	1218.54
800.71	1312.75
800.88	1249.26
801.06	1279.98
801.23	1322.99
801.41	1296.36
801.58	1232.88
801.75	1247.21
801.93	1191.92
802.10	1304.56
802.28	1304.56
802.45	1296.36
802.63	1220.59
802.80	1241.07
802.97	1296.36
803.15	1327.08
803.32	1279.98
803.50	1282.03
803.67	1241.07
803.84	1261.55
804.02	1294.32
804.19	1259.50
804.37	1247.21
804.54	1216.49
804.71	1269.74
804.89	1189.87
805.06	1296.36
805.24	1257.45
805.41	1257.45
805.58	1284.08
805.76	1210.35
805.93	1257.45
806.10	1294.32
806.28	1253.36
806.45	1200.11
806.63	1245.16
806.80	1302.51
806.97	1243.12
807.15	1208.30
807.32	1339.37
807.49	1316.84
807.67	1255.40
807.84	1282.03
808.01	1294.32
808.19	1294.32
808.36	1279.98
808.54	1171.44
808.71	1271.79
808.88	1284.08
809.06	1318.89
809.23	1271.79
809.40	1279.98
809.58	1306.60
809.75	1335.28
809.92	1273.84
810.10	1359.85
810.27	1232.88
810.44	1241.07
810.62	1226.73
810.79	1247.21
810.96	1286.12
811.14	1277.93
811.31	1282.03
811.48	1216.49
811.66	1210.35
811.83	1337.32
812.00	1279.98
812.18	1275.88
812.35	1284.08
812.52	1216.49
812.69	1251.31
812.87	1308.65
813.04	1226.73
813.21	1337.32
813.39	1320.94
813.56	1224.69
813.73	1308.65
813.91	1277.93
814.08	1318.89
814.25	1232.88
814.42	1216.49
814.60	1222.64
814.77	1335.28
814.94	1333.23
815.12	1265.64
815.29	1241.07
815.46	1304.56
815.63	1257.45
815.81	1249.26
815.98	1181.68
816.15	1257.45
816.33	1177.58
816.50	1275.88
816.67	1275.88
816.84	1259.50
817.02	1234.93
817.19	1230.83
817.36	1300.46
817.53	1245.16
817.71	1259.50
817.88	1251.31
818.05	1230.83
818.22	1253.36
818.40	1253.36
818.57	1294.32
818.74	1286.12
818.91	1341.42
819.09	1308.65
819.26	1271.79
819.43	1325.04
819.60	1277.93
819.78	1277.93
819.95	1239.02
820.12	1275.88
820.29	1263.60
820.47	1259.50
820.64	1273.84
820.81	1255.40
820.98	1249.26
821.15	1304.56
821.33	1259.50
821.50	1275.88
821.67	1306.60
821.84	1284.08
822.02	1306.60
822.19	1284.08
822.36	1284.08
822.53	1290.22
822.70	1341.42
822.88	1263.60
823.05	1314.80
823.22	1265.64
823.39	1372.14
823.56	1275.88
823.74	1236.97
823.91	1257.45
824.08	1269.74
824.25	1255.40
824.42	1243.12
824.60	1302.51
824.77	1259.50
824.94	1255.40
825.11	1306.60
825.28	1275.88
825.45	1208.30
825.63	1263.60
825.80	1206.25
825.97	1243.12
826.14	1275.88
826.31	1251.31
826.48	1288.17
826.66	1243.12
826.83	1200.11
827.00	1288.17
827.17	1222.64
827.34	1230.83
827.51	1249.26
827.69	1355.76
827.86	1339.37
828.03	1218.54
828.20	1308.65
828.37	1253.36
828.54	1267.69
828.71	1333.23
828.89	1318.89
829.06	1269.74
829.23	1271.79
829.40	1263.60
829.57	1255.40
829.74	1228.78
829.91	1257.45
830.09	1269.74
830.26	1224.69
830.43	1269.74
830.60	1308.65
830.77	1312.75
830.94	1249.26
831.11	1322.99
831.28	1239.02
831.46	1241.07
831.63	1241.07
831.80	1220.59
831.97	1312.75
832.14	1218.54
832.31	1298.41
832.48	1198.06
832.65	1298.41
832.82	1277.93
832.99	1310.70
833.17	1234.93
833.34	1290.22
833.51	1249.26
833.68	1263.60
833.85	1259.50
834.02	1288.17
834.19	1218.54
834.36	1288.17
834.53	1263.60
834.70	1247.21
834.87	1269.74
835.04	1263.60
835.22	1263.60
835.39	1265.64
835.56	1241.07
835.73	1269.74
835.90	1265.64
836.07	1245.16
836.24	1261.55
836.41	1234.93
836.58	1273.84
836.75	1277.93
836.92	1277.93
837.09	1296.36
837.26	1261.55
837.43	1247.21
837.60	1271.79
837.77	1216.49
837.94	1279.98
838.12	1267.69
838.29	1273.84
838.46	1251.31
838.63	1236.97
838.80	1318.89
838.97	1214.45
839.14	1290.22
839.31	1210.35
839.48	1306.60
839.65	1269.74
839.82	1247.21
839.99	1312.75
840.16	1236.97
840.33	1259.50
840.50	1232.88
840.67	1140.72
840.84	1198.06
841.01	1236.97
841.18	1232.88
841.35	1224.69
841.52	1310.70
841.69	1226.73
841.86	1261.55
842.03	1267.69
842.20	1290.22
842.37	1245.16
842.54	1286.12
842.71	1249.26
842.88	1312.75
843.05	1257.45
843.22	1263.60
843.39	1253.36
843.56	1282.03
843.73	1261.55
843.90	1286.12
844.07	1322.99
844.24	1310.70
844.41	1290.22
844.58	1294.32
844.75	1257.45
844.92	1226.73
845.09	1208.30
845.26	1308.65
845.43	1232.88
845.60	1249.26
845.77	1310.70
845.94	1292.27
846.10	1243.12
846.27	1265.64
846.44	1322.99
846.61	1310.70
846.78	1271.79
846.95	1275.88
847.12	1257.45
847.29	1314.80
847.46	1193.97
847.63	1224.69
847.80	1200.11
847.97	1251.31
848.14	1282.03
848.31	1255.40
848.48	1296.36
848.65	1206.25
848.82	1306.60
848.98	1210.35
849.15	1314.80
849.32	1269.74
849.49	1222.64
849.66	1222.64
849.83	1202.16
850.00	1218.54
850.17	1286.12
850.34	1232.88
850.51	1249.26
850.68	1232.88
850.85	1251.31
851.01	1259.50
851.18	1218.54
851.35	1294.32
851.52	1224.69
851.69	1298.41
851.86	1212.40
852.03	1216.49
852.20	1290.22
852.37	1263.60
852.53	1230.83
852.70	1279.98
852.87	1361.90
853.04	1224.69
853.21	1316.84
853.38	1208.30
853.55	1226.73
853.72	1271.79
853.89	1236.97
854.05	1236.97
854.22	1228.78
854.39	1275.88
854.56	1249.26
854.73	1247.21
854.90	1284.08
855.07	1314.80
855.23	1224.69
855.40	1247.21
855.57	1208.30
855.74	1306.60
855.91	1189.87
856.08	1263.60
856.25	1275.88
856.41	1263.60
856.58	1300.46
856.75	1298.41
856.92	1300.46
857.09	1259.50
857.26	1259.50
857.42	1169.39
857.59	1230.83
857.76	1247.21
857.93	1279.98
858.10	1167.34
858.27	1220.59
858.43	1249.26
858.60	1220.59
858.77	1218.54
858.94	1236.97
859.11	1275.88
859.27	1198.06
859.44	1277.93
859.61	1269.74
859.78	1282.03
859.95	1306.60
860.12	1236.97
860.28	1279.98
860.45	1335.28
860.62	1232.88
860.79	1236.97
860.95	1253.36
861.12	1263.60
861.29	1232.88
861.46	1335.28
861.63	1316.84
861.79	1255.40
861.96	1255.40
862.13	1214.45
862.30	1208.30
862.47	1253.36
862.63	1236.97
862.80	1288.17
862.97	1245.16
863.14	1290.22
863.30	1232.88
863.47	1273.84
863.64	1263.60
863.81	1251.31
863.97	1282.03
864.14	1255.40
864.31	1290.22
864.48	1279.98
864.65	1322.99
864.81	1294.32
864.98	1310.70
865.15	1273.84
865.32	1163.25
865.48	1255.40
865.65	1275.88
865.82	1214.45
865.98	1288.17
866.15	1290.22
866.32	1325.04
866.49	1222.64
866.65	1247.21
866.82	1331.18
866.99	1210.35
867.16	1247.21
867.32	1243.12
867.49	1150.96
867.66	1279.98
867.83	1269.74
867.99	1314.80
868.16	1263.60
868.33	1220.59
868.49	1206.25
868.66	1310.70
868.83	1251.31
868.99	1212.40
869.16	1325.04
869.33	1318.89
869.50	1333.23
869.66	1265.64
869.83	1259.50
870.00	1279.98
870.16	1302.51
870.33	1286.12
870.50	1312.75
870.66	1292.27
870.83	1271.79
871.00	1271.79
871.17	1222.64
871.33	1341.42
871.50	1206.25
871.67	1251.31
871.83	1271.79
872.00	1224.69
872.17	1232.88
872.33	1300.46
872.50	1273.84
872.67	1302.51
872.83	1175.53
873.00	1228.78
873.17	1302.51
873.33	1300.46
873.50	1296.36
873.67	1294.32
873.83	1251.31
874.00	1273.84
874.16	1282.03
874.33	1279.98
874.50	1232.88
874.66	1306.60
874.83	1261.55
875.00	1271.79
875.16	1273.84
875.33	1279.98
875.50	1251.31
875.66	1298.41
875.83	1267.69
875.99	1208.30
876.16	1196.01
876.33	1253.36
876.49	1343.47
876.66	1224.69
876.83	1257.45
876.99	1286.12
877.16	1329.13
877.32	1300.46
877.49	1320.94
877.66	1310.70
877.82	1355.76
877.99	1294.32
878.15	1320.94
878.32	1320.94
878.49	1257.45
878.65	1298.41
878.82	1353.71
878.98	1296.36
879.15	1193.97
879.32	1282.03
879.48	1300.46
879.65	1218.54
879.81	1271.79
879.98	1253.36
880.15	1310.70
880.31	1271.79
880.48	1271.79
880.64	1214.45
880.81	1310.70
880.97	1218.54
881.14	1271.79
881.31	1257.45
881.47	1222.64
881.64	1286.12
881.80	1189.87
881.97	1277.93
882.13	1298.41
882.30	1224.69
882.47	1284.08
882.63	1189.87
882.80	1261.55
882.96	1232.88
883.13	1216.49
883.29	1236.97
883.46	1255.40
883.62	1314.80
883.79	1333.23
883.95	1210.35
884.12	1249.26
884.29	1286.12
884.45	1241.07
884.62	1241.07
884.78	1267.69
884.95	1290.22
885.11	1282.03
885.28	1241.07
885.44	1282.03
885.61	1259.50
885.77	1302.51
885.94	1214.45
886.10	1200.11
886.27	1265.64
886.43	1359.85
886.60	1298.41
886.76	1239.02
886.93	1245.16
887.09	1288.17
887.26	1230.83
887.42	1210.35
887.59	1269.74
887.75	1277.93
887.92	1245.16
888.08	1224.69
888.25	1275.88
888.41	1273.84
888.58	1224.69
888.74	1273.84
888.91	1216.49
>>>>>End Processed Spectral Data<<<<<
