SpectraSuite Data File
++++++++++++++++++++++++++++++++++++
Date: Sun Apr 03 19:55:35 CEST 2016
User: root
Dark Spectrum Present: No
Reference Spectrum Present: No
Number of Sampled Component Spectra: 1
Spectrometers: USB4C02835
Integration Time (usec): 10000 (USB4C02835)
Spectra Averaged: 1 (USB4C02835)
Boxcar Smoothing: 0 (USB4C02835)
Correct for Electrical Dark: No (USB4C02835)
Strobe/Lamp Enabled: No (USB4C02835)
Correct for Detector Non-linearity: No (USB4C02835)
Correct for Stray Light: No (USB4C02835)
Number of Pixels in Processed Spectrum: 3648
>>>>>Begin Processed Spectral Data<<<<<
177.47	1224.69
177.69	1224.69
177.91	1224.69
178.13	1228.78
178.36	1218.54
178.58	1292.27
178.80	1206.25
179.02	1282.03
179.24	1263.60
179.46	1259.50
179.68	1232.88
179.90	1232.88
180.13	1263.60
180.35	1216.49
180.57	1279.98
180.79	1251.31
181.01	1253.36
181.23	1296.36
181.45	1294.32
181.67	1191.92
181.90	1294.32
182.12	1187.82
182.34	1165.29
182.56	1263.60
182.78	1306.60
183.00	1232.88
183.22	1271.79
183.44	1206.25
183.66	1212.40
183.89	1222.64
184.11	1331.18
184.33	1290.22
184.55	1245.16
184.77	1202.16
184.99	1265.64
185.21	1212.40
185.43	1255.40
185.65	1196.01
185.87	1253.36
186.10	1218.54
186.32	1282.03
186.54	1236.97
186.76	1241.07
186.98	1290.22
187.20	1243.12
187.42	1196.01
187.64	1206.25
187.86	1271.79
188.08	1320.94
188.30	1249.26
188.52	1300.46
188.75	1331.18
188.97	1210.35
189.19	1263.60
189.41	1257.45
189.63	1236.97
189.85	1284.08
190.07	1298.41
190.29	1259.50
190.51	1271.79
190.73	1292.27
190.95	1218.54
191.17	1251.31
191.39	1294.32
191.61	1327.08
191.84	1273.84
192.06	1249.26
192.28	1255.40
192.50	1239.02
192.72	1216.49
192.94	1286.12
193.16	1222.64
193.38	1333.23
193.60	1265.64
193.82	1265.64
194.04	1263.60
194.26	1251.31
194.48	1269.74
194.70	1251.31
194.92	1357.80
195.14	1347.56
195.36	1228.78
195.58	1249.26
195.80	1304.56
196.02	1282.03
196.24	1296.36
196.46	1286.12
196.69	1216.49
196.91	1245.16
197.13	1226.73
197.35	1316.84
197.57	1222.64
197.79	1243.12
198.01	1282.03
198.23	1312.75
198.45	1224.69
198.67	1247.21
198.89	1249.26
199.11	1327.08
199.33	1300.46
199.55	1318.89
199.77	1322.99
199.99	1288.17
200.21	1269.74
200.43	1230.83
200.65	1236.97
200.87	1261.55
201.09	1191.92
201.31	1232.88
201.53	1277.93
201.75	1224.69
201.97	1308.65
202.19	1208.30
202.41	1259.50
202.63	1302.51
202.85	1288.17
203.07	1320.94
203.29	1316.84
203.51	1333.23
203.73	1316.84
203.95	1345.52
204.17	1261.55
204.39	1277.93
204.61	1265.64
204.83	1265.64
205.05	1273.84
205.27	1288.17
205.49	1269.74
205.71	1239.02
205.93	1173.49
206.15	1312.75
206.37	1284.08
206.59	1247.21
206.81	1298.41
207.03	1320.94
207.25	1218.54
207.47	1277.93
207.69	1273.84
207.91	1306.60
208.13	1263.60
208.34	1306.60
208.56	1271.79
208.78	1279.98
209.00	1200.11
209.22	1302.51
209.44	1206.25
209.66	1247.21
209.88	1255.40
210.10	1312.75
210.32	1245.16
210.54	1222.64
210.76	1232.88
210.98	1304.56
211.20	1208.30
211.42	1275.88
211.64	1267.69
211.86	1224.69
212.08	1196.01
212.30	1261.55
212.52	1288.17
212.74	1247.21
212.96	1284.08
213.17	1249.26
213.39	1253.36
213.61	1296.36
213.83	1245.16
214.05	1279.98
214.27	1306.60
214.49	1282.03
214.71	1251.31
214.93	1279.98
215.15	1265.64
215.37	1275.88
215.59	1282.03
215.81	1267.69
216.03	1263.60
216.24	1269.74
216.46	1232.88
216.68	1232.88
216.90	1191.92
217.12	1263.60
217.34	1232.88
217.56	1355.76
217.78	1224.69
218.00	1294.32
218.22	1255.40
218.44	1239.02
218.66	1253.36
218.87	1347.56
219.09	1265.64
219.31	1288.17
219.53	1308.65
219.75	1214.45
219.97	1294.32
220.19	1290.22
220.41	1288.17
220.63	1308.65
220.85	1167.34
221.06	1347.56
221.28	1282.03
221.50	1245.16
221.72	1265.64
221.94	1372.14
222.16	1239.02
222.38	1294.32
222.60	1337.32
222.82	1329.13
223.03	1331.18
223.25	1269.74
223.47	1249.26
223.69	1214.45
223.91	1353.71
224.13	1267.69
224.35	1300.46
224.57	1296.36
224.78	1318.89
225.00	1196.01
225.22	1265.64
225.44	1261.55
225.66	1275.88
225.88	1241.07
226.10	1269.74
226.32	1284.08
226.53	1224.69
226.75	1286.12
226.97	1230.83
227.19	1228.78
227.41	1255.40
227.63	1257.45
227.85	1212.40
228.06	1322.99
228.28	1275.88
228.50	1261.55
228.72	1230.83
228.94	1269.74
229.16	1253.36
229.37	1226.73
229.59	1277.93
229.81	1349.61
230.03	1267.69
230.25	1183.73
230.47	1341.42
230.69	1284.08
230.90	1335.28
231.12	1251.31
231.34	1284.08
231.56	1273.84
231.78	1296.36
232.00	1263.60
232.21	1243.12
232.43	1265.64
232.65	1220.59
232.87	1247.21
233.09	1255.40
233.30	1261.55
233.52	1292.27
233.74	1196.01
233.96	1273.84
234.18	1327.08
234.40	1298.41
234.61	1265.64
234.83	1245.16
235.05	1228.78
235.27	1234.93
235.49	1325.04
235.70	1247.21
235.92	1204.21
236.14	1261.55
236.36	1263.60
236.58	1286.12
236.79	1214.45
237.01	1196.01
237.23	1263.60
237.45	1288.17
237.67	1226.73
237.88	1294.32
238.10	1273.84
238.32	1318.89
238.54	1312.75
238.76	1294.32
238.97	1284.08
239.19	1241.07
239.41	1296.36
239.63	1263.60
239.85	1257.45
240.06	1284.08
240.28	1263.60
240.50	1261.55
240.72	1273.84
240.93	1316.84
241.15	1302.51
241.37	1269.74
241.59	1298.41
241.81	1327.08
242.02	1247.21
242.24	1277.93
242.46	1216.49
242.68	1298.41
242.89	1294.32
243.11	1198.06
243.33	1228.78
243.55	1279.98
243.76	1294.32
243.98	1261.55
244.20	1249.26
244.42	1181.68
244.64	1271.79
244.85	1265.64
245.07	1239.02
245.29	1284.08
245.51	1243.12
245.72	1279.98
245.94	1306.60
246.16	1212.40
246.38	1286.12
246.59	1257.45
246.81	1232.88
247.03	1310.70
247.24	1331.18
247.46	1275.88
247.68	1316.84
247.90	1282.03
248.11	1241.07
248.33	1265.64
248.55	1282.03
248.77	1241.07
248.98	1234.93
249.20	1232.88
249.42	1302.51
249.64	1292.27
249.85	1277.93
250.07	1239.02
250.29	1220.59
250.50	1245.16
250.72	1239.02
250.94	1249.26
251.16	1236.97
251.37	1339.37
251.59	1282.03
251.81	1282.03
252.02	1236.97
252.24	1222.64
252.46	1257.45
252.68	1286.12
252.89	1255.40
253.11	1210.35
253.33	1302.51
253.54	1239.02
253.76	1265.64
253.98	1257.45
254.20	1271.79
254.41	1302.51
254.63	1261.55
254.85	1296.36
255.06	1320.94
255.28	1347.56
255.50	1204.21
255.71	1318.89
255.93	1204.21
256.15	1153.01
256.36	1298.41
256.58	1302.51
256.80	1255.40
257.02	1253.36
257.23	1279.98
257.45	1236.97
257.67	1282.03
257.88	1226.73
258.10	1282.03
258.32	1245.16
258.53	1292.27
258.75	1265.64
258.97	1275.88
259.18	1271.79
259.40	1224.69
259.62	1224.69
259.83	1261.55
260.05	1286.12
260.27	1312.75
260.48	1292.27
260.70	1290.22
260.92	1241.07
261.13	1228.78
261.35	1271.79
261.57	1257.45
261.78	1259.50
262.00	1298.41
262.22	1273.84
262.43	1259.50
262.65	1271.79
262.86	1265.64
263.08	1345.52
263.30	1312.75
263.51	1271.79
263.73	1271.79
263.95	1222.64
264.16	1286.12
264.38	1255.40
264.60	1214.45
264.81	1318.89
265.03	1251.31
265.25	1249.26
265.46	1325.04
265.68	1234.93
265.89	1247.21
266.11	1247.21
266.33	1241.07
266.54	1259.50
266.76	1296.36
266.98	1187.82
267.19	1298.41
267.41	1306.60
267.62	1226.73
267.84	1320.94
268.06	1255.40
268.27	1263.60
268.49	1349.61
268.70	1310.70
268.92	1271.79
269.14	1214.45
269.35	1261.55
269.57	1220.59
269.79	1236.97
270.00	1196.01
270.22	1241.07
270.43	1282.03
270.65	1232.88
270.87	1249.26
271.08	1206.25
271.30	1239.02
271.51	1294.32
271.73	1333.23
271.95	1312.75
272.16	1298.41
272.38	1239.02
272.59	1196.01
272.81	1261.55
273.02	1218.54
273.24	1232.88
273.46	1230.83
273.67	1288.17
273.89	1290.22
274.10	1306.60
274.32	1173.49
274.54	1257.45
274.75	1314.80
274.97	1296.36
275.18	1216.49
275.40	1343.47
275.61	1249.26
275.83	1298.41
276.05	1279.98
276.26	1277.93
276.48	1259.50
276.69	1261.55
276.91	1224.69
277.12	1222.64
277.34	1286.12
277.55	1228.78
277.77	1292.27
277.99	1357.80
278.20	1279.98
278.42	1286.12
278.63	1329.13
278.85	1224.69
279.06	1255.40
279.28	1304.56
279.49	1236.97
279.71	1239.02
279.93	1318.89
280.14	1261.55
280.36	1196.01
280.57	1290.22
280.79	1253.36
281.00	1198.06
281.22	1288.17
281.43	1282.03
281.65	1234.93
281.86	1253.36
282.08	1257.45
282.29	1271.79
282.51	1255.40
282.73	1232.88
282.94	1314.80
283.16	1261.55
283.37	1243.12
283.59	1304.56
283.80	1271.79
284.02	1169.39
284.23	1222.64
284.45	1243.12
284.66	1271.79
284.88	1245.16
285.09	1261.55
285.31	1286.12
285.52	1232.88
285.74	1286.12
285.95	1241.07
286.17	1208.30
286.38	1230.83
286.60	1251.31
286.81	1273.84
287.03	1277.93
287.24	1308.65
287.46	1267.69
287.67	1249.26
287.89	1263.60
288.10	1282.03
288.32	1341.42
288.53	1290.22
288.75	1273.84
288.96	1304.56
289.18	1222.64
289.39	1191.92
289.61	1218.54
289.82	1275.88
290.04	1296.36
290.25	1331.18
290.47	1241.07
290.68	1290.22
290.90	1366.00
291.11	1308.65
291.33	1134.57
291.54	1292.27
291.76	1282.03
291.97	1224.69
292.18	1253.36
292.40	1179.63
292.61	1255.40
292.83	1265.64
293.04	1247.21
293.26	1275.88
293.47	1271.79
293.69	1253.36
293.90	1249.26
294.12	1220.59
294.33	1329.13
294.55	1288.17
294.76	1253.36
294.97	1318.89
295.19	1279.98
295.40	1296.36
295.62	1269.74
295.83	1253.36
296.05	1234.93
296.26	1308.65
296.48	1302.51
296.69	1271.79
296.90	1243.12
297.12	1241.07
297.33	1265.64
297.55	1282.03
297.76	1249.26
297.98	1259.50
298.19	1288.17
298.41	1271.79
298.62	1312.75
298.83	1232.88
299.05	1259.50
299.26	1271.79
299.48	1290.22
299.69	1251.31
299.90	1245.16
300.12	1320.94
300.33	1249.26
300.55	1290.22
300.76	1296.36
300.98	1230.83
301.19	1320.94
301.40	1255.40
301.62	1286.12
301.83	1243.12
302.05	1218.54
302.26	1320.94
302.47	1269.74
302.69	1202.16
302.90	1245.16
303.12	1296.36
303.33	1222.64
303.54	1265.64
303.76	1267.69
303.97	1277.93
304.19	1245.16
304.40	1236.97
304.61	1241.07
304.83	1349.61
305.04	1308.65
305.26	1294.32
305.47	1292.27
305.68	1230.83
305.90	1296.36
306.11	1341.42
306.33	1343.47
306.54	1279.98
306.75	1234.93
306.97	1290.22
307.18	1282.03
307.39	1312.75
307.61	1310.70
307.82	1226.73
308.04	1200.11
308.25	1175.53
308.46	1232.88
308.68	1239.02
308.89	1232.88
309.10	1290.22
309.32	1257.45
309.53	1202.16
309.74	1279.98
309.96	1282.03
310.17	1255.40
310.39	1302.51
310.60	1288.17
310.81	1251.31
311.03	1226.73
311.24	1249.26
311.45	1206.25
311.67	1261.55
311.88	1249.26
312.09	1247.21
312.31	1298.41
312.52	1187.82
312.73	1251.31
312.95	1234.93
313.16	1302.51
313.37	1173.49
313.59	1234.93
313.80	1308.65
314.01	1193.97
314.23	1226.73
314.44	1312.75
314.65	1335.28
314.87	1288.17
315.08	1306.60
315.29	1265.64
315.51	1290.22
315.72	1245.16
315.93	1314.80
316.15	1292.27
316.36	1282.03
316.57	1273.84
316.79	1306.60
317.00	1318.89
317.21	1234.93
317.43	1306.60
317.64	1279.98
317.85	1261.55
318.07	1257.45
318.28	1310.70
318.49	1290.22
318.70	1294.32
318.92	1318.89
319.13	1290.22
319.34	1298.41
319.56	1222.64
319.77	1304.56
319.98	1249.26
320.20	1230.83
320.41	1296.36
320.62	1275.88
320.83	1320.94
321.05	1277.93
321.26	1234.93
321.47	1312.75
321.69	1275.88
321.90	1259.50
322.11	1335.28
322.32	1273.84
322.54	1279.98
322.75	1290.22
322.96	1306.60
323.18	1271.79
323.39	1298.41
323.60	1251.31
323.81	1265.64
324.03	1224.69
324.24	1339.37
324.45	1312.75
324.66	1257.45
324.88	1230.83
325.09	1232.88
325.30	1236.97
325.52	1298.41
325.73	1277.93
325.94	1290.22
326.15	1253.36
326.37	1296.36
326.58	1269.74
326.79	1275.88
327.00	1226.73
327.22	1361.90
327.43	1255.40
327.64	1271.79
327.85	1261.55
328.07	1220.59
328.28	1267.69
328.49	1257.45
328.70	1216.49
328.92	1353.71
329.13	1279.98
329.34	1288.17
329.55	1308.65
329.76	1228.78
329.98	1204.21
330.19	1306.60
330.40	1331.18
330.61	1316.84
330.83	1277.93
331.04	1263.60
331.25	1282.03
331.46	1259.50
331.68	1335.28
331.89	1239.02
332.10	1224.69
332.31	1271.79
332.52	1257.45
332.74	1259.50
332.95	1265.64
333.16	1386.47
333.37	1279.98
333.58	1228.78
333.80	1247.21
334.01	1269.74
334.22	1234.93
334.43	1290.22
334.64	1263.60
334.86	1208.30
335.07	1310.70
335.28	1251.31
335.49	1224.69
335.70	1312.75
335.92	1308.65
336.13	1255.40
336.34	1292.27
336.55	1304.56
336.76	1282.03
336.98	1224.69
337.19	1318.89
337.40	1255.40
337.61	1243.12
337.82	1241.07
338.04	1279.98
338.25	1239.02
338.46	1347.56
338.67	1253.36
338.88	1296.36
339.09	1296.36
339.31	1331.18
339.52	1161.20
339.73	1271.79
339.94	1292.27
340.15	1257.45
340.36	1292.27
340.58	1284.08
340.79	1241.07
341.00	1286.12
341.21	1259.50
341.42	1306.60
341.63	1308.65
341.85	1261.55
342.06	1304.56
342.27	1245.16
342.48	1241.07
342.69	1331.18
342.90	1259.50
343.12	1251.31
343.33	1355.76
343.54	1294.32
343.75	1251.31
343.96	1275.88
344.17	1306.60
344.38	1204.21
344.60	1212.40
344.81	1267.69
345.02	1296.36
345.23	1300.46
345.44	1298.41
345.65	1288.17
345.86	1206.25
346.07	1257.45
346.29	1265.64
346.50	1253.36
346.71	1347.56
346.92	1251.31
347.13	1316.84
347.34	1253.36
347.55	1255.40
347.76	1265.64
347.98	1210.35
348.19	1282.03
348.40	1329.13
348.61	1304.56
348.82	1318.89
349.03	1232.88
349.24	1284.08
349.45	1265.64
349.66	1222.64
349.88	1304.56
350.09	1296.36
350.30	1265.64
350.51	1290.22
350.72	1261.55
350.93	1294.32
351.14	1212.40
351.35	1247.21
351.56	1212.40
351.77	1232.88
351.99	1259.50
352.20	1257.45
352.41	1265.64
352.62	1269.74
352.83	1290.22
353.04	1275.88
353.25	1271.79
353.46	1241.07
353.67	1200.11
353.88	1292.27
354.09	1249.26
354.30	1277.93
354.52	1245.16
354.73	1294.32
354.94	1310.70
355.15	1230.83
355.36	1277.93
355.57	1239.02
355.78	1269.74
355.99	1337.32
356.20	1269.74
356.41	1292.27
356.62	1273.84
356.83	1263.60
357.04	1290.22
357.25	1218.54
357.46	1183.73
357.68	1308.65
357.89	1300.46
358.10	1239.02
358.31	1257.45
358.52	1271.79
358.73	1216.49
358.94	1247.21
359.15	1216.49
359.36	1325.04
359.57	1257.45
359.78	1298.41
359.99	1236.97
360.20	1161.20
360.41	1282.03
360.62	1224.69
360.83	1230.83
361.04	1241.07
361.25	1214.45
361.46	1232.88
361.67	1230.83
361.88	1288.17
362.09	1269.74
362.30	1286.12
362.51	1318.89
362.72	1259.50
362.93	1279.98
363.14	1269.74
363.35	1306.60
363.56	1255.40
363.78	1271.79
363.99	1298.41
364.20	1269.74
364.41	1241.07
364.62	1265.64
364.83	1322.99
365.04	1277.93
365.25	1249.26
365.46	1298.41
365.67	1306.60
365.88	1275.88
366.09	1292.27
366.30	1261.55
366.51	1245.16
366.72	1241.07
366.93	1314.80
367.14	1286.12
367.35	1247.21
367.56	1290.22
367.77	1200.11
367.98	1269.74
368.18	1228.78
368.39	1273.84
368.60	1304.56
368.81	1310.70
369.02	1265.64
369.23	1228.78
369.44	1230.83
369.65	1343.47
369.86	1292.27
370.07	1261.55
370.28	1290.22
370.49	1288.17
370.70	1275.88
370.91	1267.69
371.12	1226.73
371.33	1337.32
371.54	1269.74
371.75	1243.12
371.96	1337.32
372.17	1306.60
372.38	1261.55
372.59	1236.97
372.80	1282.03
373.01	1187.82
373.22	1273.84
373.43	1316.84
373.64	1269.74
373.85	1271.79
374.06	1310.70
374.26	1288.17
374.47	1253.36
374.68	1210.35
374.89	1263.60
375.10	1269.74
375.31	1267.69
375.52	1210.35
375.73	1294.32
375.94	1279.98
376.15	1271.79
376.36	1335.28
376.57	1269.74
376.78	1275.88
376.99	1204.21
377.20	1363.95
377.40	1212.40
377.61	1232.88
377.82	1249.26
378.03	1335.28
378.24	1302.51
378.45	1282.03
378.66	1267.69
378.87	1220.59
379.08	1236.97
379.29	1304.56
379.50	1247.21
379.71	1271.79
379.91	1241.07
380.12	1198.06
380.33	1306.60
380.54	1247.21
380.75	1314.80
380.96	1294.32
381.17	1306.60
381.38	1243.12
381.59	1249.26
381.80	1224.69
382.00	1318.89
382.21	1339.37
382.42	1288.17
382.63	1216.49
382.84	1224.69
383.05	1302.51
383.26	1204.21
383.47	1214.45
383.68	1288.17
383.88	1241.07
384.09	1239.02
384.30	1302.51
384.51	1304.56
384.72	1241.07
384.93	1253.36
385.14	1249.26
385.35	1259.50
385.55	1275.88
385.76	1263.60
385.97	1200.11
386.18	1208.30
386.39	1185.77
386.60	1286.12
386.81	1288.17
387.02	1341.42
387.22	1327.08
387.43	1239.02
387.64	1298.41
387.85	1277.93
388.06	1265.64
388.27	1220.59
388.48	1222.64
388.68	1304.56
388.89	1284.08
389.10	1322.99
389.31	1298.41
389.52	1220.59
389.73	1148.91
389.93	1314.80
390.14	1261.55
390.35	1306.60
390.56	1290.22
390.77	1320.94
390.98	1216.49
391.18	1275.88
391.39	1241.07
391.60	1284.08
391.81	1290.22
392.02	1263.60
392.23	1263.60
392.43	1294.32
392.64	1257.45
392.85	1322.99
393.06	1267.69
393.27	1187.82
393.47	1191.92
393.68	1218.54
393.89	1255.40
394.10	1234.93
394.31	1355.76
394.52	1279.98
394.72	1306.60
394.93	1271.79
395.14	1218.54
395.35	1296.36
395.56	1282.03
395.76	1245.16
395.97	1228.78
396.18	1255.40
396.39	1345.52
396.60	1222.64
396.80	1265.64
397.01	1343.47
397.22	1269.74
397.43	1204.21
397.64	1200.11
397.84	1312.75
398.05	1292.27
398.26	1249.26
398.47	1241.07
398.67	1232.88
398.88	1241.07
399.09	1249.26
399.30	1298.41
399.51	1273.84
399.71	1286.12
399.92	1296.36
400.13	1241.07
400.34	1253.36
400.54	1204.21
400.75	1282.03
400.96	1286.12
401.17	1310.70
401.37	1185.77
401.58	1333.23
401.79	1306.60
402.00	1286.12
402.21	1290.22
402.41	1273.84
402.62	1269.74
402.83	1232.88
403.04	1312.75
403.24	1314.80
403.45	1306.60
403.66	1273.84
403.87	1327.08
404.07	1300.46
404.28	1232.88
404.49	1193.97
404.70	1228.78
404.90	1308.65
405.11	1322.99
405.32	1234.93
405.52	1259.50
405.73	1337.32
405.94	1271.79
406.15	1241.07
406.35	1273.84
406.56	1308.65
406.77	1318.89
406.98	1322.99
407.18	1263.60
407.39	1271.79
407.60	1243.12
407.80	1294.32
408.01	1247.21
408.22	1320.94
408.43	1173.49
408.63	1325.04
408.84	1290.22
409.05	1316.84
409.25	1214.45
409.46	1236.97
409.67	1253.36
409.88	1259.50
410.08	1241.07
410.29	1271.79
410.50	1273.84
410.70	1183.73
410.91	1255.40
411.12	1290.22
411.32	1185.77
411.53	1200.11
411.74	1245.16
411.95	1251.31
412.15	1279.98
412.36	1296.36
412.57	1236.97
412.77	1241.07
412.98	1232.88
413.19	1239.02
413.39	1212.40
413.60	1277.93
413.81	1236.97
414.01	1282.03
414.22	1351.66
414.43	1265.64
414.63	1322.99
414.84	1279.98
415.05	1245.16
415.25	1198.06
415.46	1275.88
415.67	1214.45
415.87	1230.83
416.08	1302.51
416.29	1198.06
416.49	1226.73
416.70	1214.45
416.91	1210.35
417.11	1286.12
417.32	1320.94
417.53	1228.78
417.73	1275.88
417.94	1241.07
418.15	1171.44
418.35	1267.69
418.56	1249.26
418.77	1300.46
418.97	1282.03
419.18	1271.79
419.38	1333.23
419.59	1224.69
419.80	1306.60
420.00	1220.59
420.21	1189.87
420.42	1245.16
420.62	1273.84
420.83	1288.17
421.04	1228.78
421.24	1224.69
421.45	1308.65
421.65	1191.92
421.86	1308.65
422.07	1251.31
422.27	1294.32
422.48	1269.74
422.69	1241.07
422.89	1259.50
423.10	1236.97
423.30	1288.17
423.51	1241.07
423.72	1189.87
423.92	1263.60
424.13	1255.40
424.33	1269.74
424.54	1204.21
424.75	1261.55
424.95	1236.97
425.16	1306.60
425.36	1253.36
425.57	1210.35
425.78	1255.40
425.98	1312.75
426.19	1263.60
426.39	1314.80
426.60	1198.06
426.81	1226.73
427.01	1226.73
427.22	1261.55
427.42	1187.82
427.63	1294.32
427.83	1290.22
428.04	1183.73
428.25	1337.32
428.45	1251.31
428.66	1263.60
428.86	1292.27
429.07	1343.47
429.28	1304.56
429.48	1282.03
429.69	1226.73
429.89	1296.36
430.10	1232.88
430.30	1138.67
430.51	1198.06
430.71	1265.64
430.92	1347.56
431.13	1267.69
431.33	1214.45
431.54	1226.73
431.74	1288.17
431.95	1294.32
432.15	1200.11
432.36	1271.79
432.56	1288.17
432.77	1304.56
432.98	1259.50
433.18	1335.28
433.39	1239.02
433.59	1320.94
433.80	1210.35
434.00	1279.98
434.21	1298.41
434.41	1257.45
434.62	1255.40
434.82	1306.60
435.03	1265.64
435.23	1200.11
435.44	1304.56
435.64	1298.41
435.85	1333.23
436.06	1308.65
436.26	1257.45
436.47	1249.26
436.67	1314.80
436.88	1308.65
437.08	1282.03
437.29	1236.97
437.49	1335.28
437.70	1286.12
437.90	1218.54
438.11	1292.27
438.31	1259.50
438.52	1273.84
438.72	1269.74
438.93	1316.84
439.13	1351.66
439.34	1351.66
439.54	1329.13
439.75	1265.64
439.95	1206.25
440.16	1263.60
440.36	1361.90
440.57	1318.89
440.77	1255.40
440.98	1247.21
441.18	1302.51
441.39	1247.21
441.59	1220.59
441.80	1255.40
442.00	1288.17
442.21	1279.98
442.41	1310.70
442.62	1353.71
442.82	1271.79
443.02	1247.21
443.23	1302.51
443.43	1210.35
443.64	1314.80
443.84	1320.94
444.05	1269.74
444.25	1302.51
444.46	1277.93
444.66	1251.31
444.87	1259.50
445.07	1245.16
445.28	1245.16
445.48	1212.40
445.69	1296.36
445.89	1273.84
446.09	1345.52
446.30	1255.40
446.50	1329.13
446.71	1322.99
446.91	1279.98
447.12	1300.46
447.32	1228.78
447.53	1261.55
447.73	1253.36
447.93	1310.70
448.14	1290.22
448.34	1273.84
448.55	1239.02
448.75	1282.03
448.96	1325.04
449.16	1322.99
449.36	1267.69
449.57	1302.51
449.77	1337.32
449.98	1232.88
450.18	1263.60
450.39	1230.83
450.59	1259.50
450.79	1320.94
451.00	1218.54
451.20	1275.88
451.41	1300.46
451.61	1302.51
451.81	1300.46
452.02	1349.61
452.22	1177.58
452.43	1318.89
452.63	1265.64
452.84	1351.66
453.04	1275.88
453.24	1261.55
453.45	1269.74
453.65	1224.69
453.86	1308.65
454.06	1331.18
454.26	1275.88
454.47	1275.88
454.67	1269.74
454.87	1245.16
455.08	1290.22
455.28	1216.49
455.49	1359.85
455.69	1310.70
455.89	1279.98
456.10	1306.60
456.30	1236.97
456.51	1212.40
456.71	1279.98
456.91	1292.27
457.12	1277.93
457.32	1251.31
457.52	1298.41
457.73	1312.75
457.93	1239.02
458.14	1239.02
458.34	1251.31
458.54	1355.76
458.75	1308.65
458.95	1279.98
459.15	1363.95
459.36	1288.17
459.56	1226.73
459.76	1306.60
459.97	1226.73
460.17	1261.55
460.37	1337.32
460.58	1359.85
460.78	1269.74
460.99	1243.12
461.19	1322.99
461.39	1236.97
461.60	1267.69
461.80	1187.82
462.00	1282.03
462.21	1273.84
462.41	1302.51
462.61	1296.36
462.82	1279.98
463.02	1275.88
463.22	1261.55
463.43	1247.21
463.63	1271.79
463.83	1286.12
464.04	1228.78
464.24	1320.94
464.44	1349.61
464.64	1234.93
464.85	1304.56
465.05	1234.93
465.25	1259.50
465.46	1304.56
465.66	1257.45
465.86	1290.22
466.07	1282.03
466.27	1220.59
466.47	1251.31
466.68	1269.74
466.88	1206.25
467.08	1218.54
467.29	1327.08
467.49	1251.31
467.69	1239.02
467.89	1253.36
468.10	1279.98
468.30	1253.36
468.50	1236.97
468.71	1212.40
468.91	1275.88
469.11	1286.12
469.31	1290.22
469.52	1290.22
469.72	1230.83
469.92	1228.78
470.13	1269.74
470.33	1294.32
470.53	1318.89
470.73	1261.55
470.94	1269.74
471.14	1202.16
471.34	1306.60
471.54	1251.31
471.75	1329.13
471.95	1265.64
472.15	1277.93
472.36	1255.40
472.56	1388.52
472.76	1214.45
472.96	1296.36
473.17	1200.11
473.37	1265.64
473.57	1247.21
473.77	1265.64
473.98	1206.25
474.18	1306.60
474.38	1253.36
474.58	1253.36
474.79	1251.31
474.99	1306.60
475.19	1296.36
475.39	1327.08
475.60	1296.36
475.80	1214.45
476.00	1279.98
476.20	1230.83
476.41	1249.26
476.61	1357.80
476.81	1304.56
477.01	1300.46
477.21	1222.64
477.42	1275.88
477.62	1224.69
477.82	1220.59
478.02	1255.40
478.23	1306.60
478.43	1312.75
478.63	1333.23
478.83	1191.92
479.03	1279.98
479.24	1273.84
479.44	1304.56
479.64	1300.46
479.84	1288.17
480.04	1255.40
480.25	1277.93
480.45	1333.23
480.65	1320.94
480.85	1320.94
481.06	1282.03
481.26	1318.89
481.46	1322.99
481.66	1239.02
481.86	1257.45
482.06	1306.60
482.27	1302.51
482.47	1241.07
482.67	1214.45
482.87	1302.51
483.07	1271.79
483.28	1269.74
483.48	1322.99
483.68	1210.35
483.88	1267.69
484.08	1282.03
484.29	1316.84
484.49	1200.11
484.69	1282.03
484.89	1306.60
485.09	1327.08
485.29	1306.60
485.50	1257.45
485.70	1263.60
485.90	1308.65
486.10	1290.22
486.30	1279.98
486.50	1261.55
486.71	1306.60
486.91	1359.85
487.11	1239.02
487.31	1296.36
487.51	1269.74
487.71	1286.12
487.91	1294.32
488.12	1251.31
488.32	1298.41
488.52	1247.21
488.72	1288.17
488.92	1288.17
489.12	1282.03
489.32	1282.03
489.53	1212.40
489.73	1269.74
489.93	1282.03
490.13	1224.69
490.33	1353.71
490.53	1263.60
490.73	1263.60
490.94	1183.73
491.14	1265.64
491.34	1249.26
491.54	1380.33
491.74	1265.64
491.94	1304.56
492.14	1253.36
492.34	1232.88
492.54	1249.26
492.75	1175.53
492.95	1265.64
493.15	1173.49
493.35	1263.60
493.55	1312.75
493.75	1320.94
493.95	1251.31
494.15	1275.88
494.35	1300.46
494.56	1318.89
494.76	1298.41
494.96	1322.99
495.16	1222.64
495.36	1230.83
495.56	1265.64
495.76	1187.82
495.96	1312.75
496.16	1257.45
496.36	1318.89
496.56	1204.21
496.77	1312.75
496.97	1327.08
497.17	1259.50
497.37	1286.12
497.57	1200.11
497.77	1261.55
497.97	1200.11
498.17	1277.93
498.37	1284.08
498.57	1267.69
498.77	1257.45
498.97	1318.89
499.17	1286.12
499.38	1259.50
499.58	1329.13
499.78	1249.26
499.98	1263.60
500.18	1294.32
500.38	1337.32
500.58	1325.04
500.78	1359.85
500.98	1302.51
501.18	1304.56
501.38	1243.12
501.58	1282.03
501.78	1286.12
501.98	1230.83
502.18	1212.40
502.38	1337.32
502.58	1243.12
502.78	1236.97
502.98	1241.07
503.18	1259.50
503.38	1277.93
503.59	1241.07
503.79	1273.84
503.99	1271.79
504.19	1310.70
504.39	1245.16
504.59	1234.93
504.79	1284.08
504.99	1286.12
505.19	1249.26
505.39	1269.74
505.59	1259.50
505.79	1282.03
505.99	1292.27
506.19	1273.84
506.39	1282.03
506.59	1251.31
506.79	1255.40
506.99	1224.69
507.19	1347.56
507.39	1241.07
507.59	1232.88
507.79	1347.56
507.99	1191.92
508.19	1243.12
508.39	1304.56
508.59	1290.22
508.79	1335.28
508.99	1286.12
509.19	1310.70
509.39	1257.45
509.59	1300.46
509.79	1228.78
509.99	1279.98
510.19	1302.51
510.39	1249.26
510.59	1304.56
510.79	1363.95
510.99	1249.26
511.19	1300.46
511.39	1308.65
511.59	1298.41
511.79	1314.80
511.99	1320.94
512.19	1308.65
512.38	1302.51
512.58	1318.89
512.78	1251.31
512.98	1251.31
513.18	1279.98
513.38	1216.49
513.58	1298.41
513.78	1312.75
513.98	1304.56
514.18	1247.21
514.38	1241.07
514.58	1288.17
514.78	1249.26
514.98	1265.64
515.18	1296.36
515.38	1318.89
515.58	1304.56
515.78	1251.31
515.98	1226.73
516.18	1236.97
516.38	1329.13
516.57	1355.76
516.77	1292.27
516.97	1275.88
517.17	1216.49
517.37	1306.60
517.57	1325.04
517.77	1277.93
517.97	1279.98
518.17	1222.64
518.37	1273.84
518.57	1298.41
518.77	1273.84
518.97	1253.36
519.16	1275.88
519.36	1230.83
519.56	1288.17
519.76	1255.40
519.96	1380.33
520.16	1296.36
520.36	1243.12
520.56	1282.03
520.76	1267.69
520.96	1314.80
521.16	1286.12
521.35	1273.84
521.55	1320.94
521.75	1271.79
521.95	1269.74
522.15	1257.45
522.35	1296.36
522.55	1204.21
522.75	1296.36
522.95	1347.56
523.14	1347.56
523.34	1263.60
523.54	1269.74
523.74	1253.36
523.94	1296.36
524.14	1243.12
524.34	1261.55
524.54	1370.09
524.73	1306.60
524.93	1304.56
525.13	1271.79
525.33	1351.66
525.53	1302.51
525.73	1222.64
525.93	1265.64
526.13	1300.46
526.32	1200.11
526.52	1325.04
526.72	1249.26
526.92	1298.41
527.12	1234.93
527.32	1316.84
527.52	1347.56
527.71	1322.99
527.91	1236.97
528.11	1218.54
528.31	1296.36
528.51	1222.64
528.71	1312.75
528.90	1265.64
529.10	1269.74
529.30	1337.32
529.50	1372.14
529.70	1208.30
529.90	1277.93
530.09	1359.85
530.29	1265.64
530.49	1282.03
530.69	1279.98
530.89	1263.60
531.09	1292.27
531.28	1257.45
531.48	1304.56
531.68	1282.03
531.88	1308.65
532.08	1279.98
532.28	1296.36
532.47	1339.37
532.67	1261.55
532.87	1294.32
533.07	1302.51
533.27	1322.99
533.46	1306.60
533.66	1308.65
533.86	1271.79
534.06	1232.88
534.26	1267.69
534.45	1230.83
534.65	1312.75
534.85	1314.80
535.05	1296.36
535.25	1271.79
535.44	1308.65
535.64	1232.88
535.84	1286.12
536.04	1304.56
536.24	1249.26
536.43	1296.36
536.63	1314.80
536.83	1249.26
537.03	1306.60
537.22	1286.12
537.42	1265.64
537.62	1236.97
537.82	1265.64
538.02	1327.08
538.21	1300.46
538.41	1241.07
538.61	1222.64
538.81	1236.97
539.00	1267.69
539.20	1257.45
539.40	1316.84
539.60	1255.40
539.79	1290.22
539.99	1243.12
540.19	1284.08
540.39	1304.56
540.58	1284.08
540.78	1220.59
540.98	1343.47
541.18	1322.99
541.37	1294.32
541.57	1255.40
541.77	1370.09
541.97	1337.32
542.16	1304.56
542.36	1284.08
542.56	1275.88
542.76	1316.84
542.95	1263.60
543.15	1265.64
543.35	1222.64
543.54	1218.54
543.74	1335.28
543.94	1288.17
544.14	1255.40
544.33	1310.70
544.53	1327.08
544.73	1308.65
544.93	1261.55
545.12	1257.45
545.32	1282.03
545.52	1380.33
545.71	1312.75
545.91	1243.12
546.11	1253.36
546.30	1239.02
546.50	1265.64
546.70	1337.32
546.90	1249.26
547.09	1292.27
547.29	1216.49
547.49	1294.32
547.68	1271.79
547.88	1349.61
548.08	1243.12
548.27	1335.28
548.47	1300.46
548.67	1290.22
548.87	1271.79
549.06	1269.74
549.26	1304.56
549.46	1265.64
549.65	1269.74
549.85	1253.36
550.05	1308.65
550.24	1284.08
550.44	1284.08
550.64	1296.36
550.83	1339.37
551.03	1263.60
551.23	1337.32
551.42	1261.55
551.62	1302.51
551.82	1310.70
552.01	1239.02
552.21	1288.17
552.41	1312.75
552.60	1308.65
552.80	1271.79
553.00	1288.17
553.19	1300.46
553.39	1290.22
553.59	1316.84
553.78	1355.76
553.98	1294.32
554.17	1329.13
554.37	1206.25
554.57	1294.32
554.76	1279.98
554.96	1261.55
555.16	1298.41
555.35	1306.60
555.55	1296.36
555.75	1279.98
555.94	1288.17
556.14	1275.88
556.33	1298.41
556.53	1261.55
556.73	1292.27
556.92	1357.80
557.12	1368.04
557.32	1298.41
557.51	1185.77
557.71	1259.50
557.90	1206.25
558.10	1271.79
558.30	1327.08
558.49	1355.76
558.69	1267.69
558.88	1337.32
559.08	1253.36
559.28	1236.97
559.47	1263.60
559.67	1279.98
559.86	1253.36
560.06	1267.69
560.26	1314.80
560.45	1314.80
560.65	1286.12
560.84	1214.45
561.04	1312.75
561.24	1308.65
561.43	1253.36
561.63	1359.85
561.82	1249.26
562.02	1300.46
562.22	1275.88
562.41	1245.16
562.61	1236.97
562.80	1206.25
563.00	1304.56
563.19	1316.84
563.39	1292.27
563.59	1298.41
563.78	1310.70
563.98	1210.35
564.17	1298.41
564.37	1187.82
564.56	1236.97
564.76	1251.31
564.96	1337.32
565.15	1271.79
565.35	1331.18
565.54	1310.70
565.74	1271.79
565.93	1333.23
566.13	1243.12
566.32	1202.16
566.52	1300.46
566.71	1302.51
566.91	1220.59
567.11	1265.64
567.30	1224.69
567.50	1273.84
567.69	1273.84
567.89	1253.36
568.08	1282.03
568.28	1284.08
568.47	1249.26
568.67	1202.16
568.86	1294.32
569.06	1320.94
569.25	1263.60
569.45	1243.12
569.64	1273.84
569.84	1251.31
570.04	1322.99
570.23	1224.69
570.43	1224.69
570.62	1333.23
570.82	1271.79
571.01	1257.45
571.21	1279.98
571.40	1208.30
571.60	1265.64
571.79	1304.56
571.99	1329.13
572.18	1267.69
572.38	1241.07
572.57	1292.27
572.77	1312.75
572.96	1271.79
573.16	1310.70
573.35	1247.21
573.55	1230.83
573.74	1290.22
573.94	1320.94
574.13	1253.36
574.33	1316.84
574.52	1257.45
574.71	1290.22
574.91	1290.22
575.10	1271.79
575.30	1357.80
575.49	1204.21
575.69	1286.12
575.88	1282.03
576.08	1290.22
576.27	1232.88
576.47	1245.16
576.66	1288.17
576.86	1308.65
577.05	1232.88
577.25	1304.56
577.44	1265.64
577.64	1220.59
577.83	1269.74
578.02	1320.94
578.22	1228.78
578.41	1282.03
578.61	1263.60
578.80	1263.60
579.00	1322.99
579.19	1255.40
579.39	1337.32
579.58	1214.45
579.77	1288.17
579.97	1316.84
580.16	1298.41
580.36	1331.18
580.55	1329.13
580.75	1255.40
580.94	1343.47
581.13	1314.80
581.33	1292.27
581.52	1230.83
581.72	1226.73
581.91	1345.52
582.11	1239.02
582.30	1314.80
582.49	1351.66
582.69	1320.94
582.88	1259.50
583.08	1306.60
583.27	1312.75
583.47	1353.71
583.66	1263.60
583.85	1245.16
584.05	1228.78
584.24	1265.64
584.44	1241.07
584.63	1275.88
584.82	1243.12
585.02	1329.13
585.21	1265.64
585.41	1247.21
585.60	1269.74
585.79	1308.65
585.99	1193.97
586.18	1241.07
586.37	1302.51
586.57	1210.35
586.76	1351.66
586.96	1218.54
587.15	1271.79
587.34	1265.64
587.54	1335.28
587.73	1261.55
587.93	1306.60
588.12	1327.08
588.31	1267.69
588.51	1261.55
588.70	1306.60
588.89	1224.69
589.09	1284.08
589.28	1290.22
589.47	1202.16
589.67	1257.45
589.86	1320.94
590.06	1271.79
590.25	1296.36
590.44	1302.51
590.64	1318.89
590.83	1298.41
591.02	1265.64
591.22	1284.08
591.41	1300.46
591.60	1210.35
591.80	1325.04
591.99	1167.34
592.18	1382.38
592.38	1318.89
592.57	1322.99
592.76	1300.46
592.96	1296.36
593.15	1206.25
593.34	1189.87
593.54	1374.19
593.73	1273.84
593.92	1316.84
594.12	1333.23
594.31	1322.99
594.50	1279.98
594.70	1290.22
594.89	1294.32
595.08	1361.90
595.28	1339.37
595.47	1230.83
595.66	1277.93
595.86	1284.08
596.05	1259.50
596.24	1284.08
596.43	1294.32
596.63	1218.54
596.82	1226.73
597.01	1290.22
597.21	1341.42
597.40	1300.46
597.59	1349.61
597.79	1236.97
597.98	1322.99
598.17	1288.17
598.36	1353.71
598.56	1249.26
598.75	1271.79
598.94	1288.17
599.14	1333.23
599.33	1277.93
599.52	1386.47
599.71	1345.52
599.91	1306.60
600.10	1300.46
600.29	1261.55
600.48	1284.08
600.68	1345.52
600.87	1275.88
601.06	1228.78
601.26	1294.32
601.45	1302.51
601.64	1282.03
601.83	1224.69
602.03	1279.98
602.22	1304.56
602.41	1279.98
602.60	1306.60
602.80	1269.74
602.99	1245.16
603.18	1236.97
603.37	1239.02
603.57	1273.84
603.76	1243.12
603.95	1343.47
604.14	1230.83
604.34	1316.84
604.53	1243.12
604.72	1298.41
604.91	1230.83
605.10	1300.46
605.30	1331.18
605.49	1366.00
605.68	1208.30
605.87	1269.74
606.07	1347.56
606.26	1337.32
606.45	1327.08
606.64	1245.16
606.84	1228.78
607.03	1290.22
607.22	1286.12
607.41	1253.36
607.60	1265.64
607.80	1306.60
607.99	1286.12
608.18	1282.03
608.37	1333.23
608.56	1259.50
608.76	1277.93
608.95	1320.94
609.14	1290.22
609.33	1325.04
609.52	1380.33
609.72	1226.73
609.91	1259.50
610.10	1261.55
610.29	1273.84
610.48	1376.24
610.68	1247.21
610.87	1185.77
611.06	1347.56
611.25	1263.60
611.44	1243.12
611.63	1271.79
611.83	1300.46
612.02	1277.93
612.21	1298.41
612.40	1298.41
612.59	1202.16
612.79	1245.16
612.98	1353.71
613.17	1372.14
613.36	1255.40
613.55	1263.60
613.74	1230.83
613.93	1251.31
614.13	1304.56
614.32	1333.23
614.51	1265.64
614.70	1368.04
614.89	1216.49
615.08	1259.50
615.28	1236.97
615.47	1169.39
615.66	1355.76
615.85	1308.65
616.04	1261.55
616.23	1228.78
616.42	1402.86
616.62	1224.69
616.81	1222.64
617.00	1261.55
617.19	1388.52
617.38	1275.88
617.57	1339.37
617.76	1271.79
617.95	1329.13
618.15	1312.75
618.34	1265.64
618.53	1331.18
618.72	1273.84
618.91	1261.55
619.10	1247.21
619.29	1306.60
619.48	1353.71
619.68	1251.31
619.87	1294.32
620.06	1335.28
620.25	1269.74
620.44	1241.07
620.63	1269.74
620.82	1259.50
621.01	1241.07
621.20	1359.85
621.39	1273.84
621.59	1212.40
621.78	1329.13
621.97	1298.41
622.16	1257.45
622.35	1329.13
622.54	1361.90
622.73	1294.32
622.92	1300.46
623.11	1327.08
623.30	1370.09
623.49	1361.90
623.68	1325.04
623.88	1273.84
624.07	1251.31
624.26	1308.65
624.45	1265.64
624.64	1282.03
624.83	1318.89
625.02	1282.03
625.21	1271.79
625.40	1257.45
625.59	1300.46
625.78	1341.42
625.97	1316.84
626.16	1302.51
626.35	1304.56
626.54	1312.75
626.74	1345.52
626.93	1290.22
627.12	1271.79
627.31	1353.71
627.50	1355.76
627.69	1331.18
627.88	1368.04
628.07	1331.18
628.26	1261.55
628.45	1318.89
628.64	1249.26
628.83	1378.28
629.02	1325.04
629.21	1234.93
629.40	1409.00
629.59	1275.88
629.78	1269.74
629.97	1306.60
630.16	1308.65
630.35	1329.13
630.54	1361.90
630.73	1320.94
630.92	1327.08
631.11	1359.85
631.30	1363.95
631.49	1341.42
631.68	1404.91
631.87	1501.16
632.06	1433.58
632.25	1421.29
632.44	1517.54
632.63	1443.82
632.82	1417.19
633.01	1419.24
633.20	1486.83
633.39	1472.49
633.58	1347.56
633.77	1452.01
633.96	1470.44
634.15	1435.63
634.34	1447.91
634.53	1431.53
634.72	1474.54
634.91	1380.33
635.10	1406.95
635.29	1429.48
635.48	1523.69
635.67	1454.06
635.86	1396.71
636.05	1464.30
636.24	1478.63
636.43	1445.87
636.62	1462.25
636.81	1343.47
637.00	1374.19
637.19	1445.87
637.38	1329.13
637.57	1294.32
637.76	1388.52
637.95	1351.66
638.14	1370.09
638.33	1292.27
638.52	1361.90
638.71	1265.64
638.89	1310.70
639.08	1325.04
639.27	1277.93
639.46	1355.76
639.65	1255.40
639.84	1316.84
640.03	1380.33
640.22	1322.99
640.41	1247.21
640.60	1253.36
640.79	1282.03
640.98	1286.12
641.17	1320.94
641.36	1269.74
641.55	1372.14
641.74	1335.28
641.92	1275.88
642.11	1341.42
642.30	1247.21
642.49	1220.59
642.68	1308.65
642.87	1294.32
643.06	1261.55
643.25	1273.84
643.44	1308.65
643.63	1277.93
643.82	1224.69
644.00	1306.60
644.19	1316.84
644.38	1282.03
644.57	1288.17
644.76	1273.84
644.95	1220.59
645.14	1275.88
645.33	1259.50
645.52	1335.28
645.71	1196.01
645.89	1304.56
646.08	1218.54
646.27	1294.32
646.46	1236.97
646.65	1277.93
646.84	1222.64
647.03	1269.74
647.22	1314.80
647.40	1335.28
647.59	1273.84
647.78	1189.87
647.97	1273.84
648.16	1261.55
648.35	1261.55
648.54	1374.19
648.73	1228.78
648.91	1261.55
649.10	1300.46
649.29	1245.16
649.48	1282.03
649.67	1228.78
649.86	1271.79
650.05	1239.02
650.23	1267.69
650.42	1292.27
650.61	1286.12
650.80	1284.08
650.99	1261.55
651.18	1234.93
651.36	1273.84
651.55	1218.54
651.74	1279.98
651.93	1298.41
652.12	1300.46
652.31	1265.64
652.49	1320.94
652.68	1222.64
652.87	1306.60
653.06	1335.28
653.25	1277.93
653.44	1232.88
653.62	1206.25
653.81	1216.49
654.00	1292.27
654.19	1232.88
654.38	1257.45
654.56	1255.40
654.75	1210.35
654.94	1290.22
655.13	1304.56
655.32	1265.64
655.51	1286.12
655.69	1265.64
655.88	1282.03
656.07	1269.74
656.26	1292.27
656.45	1273.84
656.63	1341.42
656.82	1337.32
657.01	1325.04
657.20	1257.45
657.38	1304.56
657.57	1304.56
657.76	1241.07
657.95	1212.40
658.14	1296.36
658.32	1245.16
658.51	1304.56
658.70	1310.70
658.89	1302.51
659.08	1236.97
659.26	1298.41
659.45	1302.51
659.64	1241.07
659.83	1267.69
660.01	1345.52
660.20	1263.60
660.39	1249.26
660.58	1191.92
660.76	1273.84
660.95	1200.11
661.14	1298.41
661.33	1212.40
661.51	1267.69
661.70	1269.74
661.89	1277.93
662.08	1255.40
662.26	1249.26
662.45	1249.26
662.64	1234.93
662.83	1290.22
663.01	1302.51
663.20	1177.58
663.39	1239.02
663.58	1284.08
663.76	1193.97
663.95	1253.36
664.14	1206.25
664.32	1343.47
664.51	1208.30
664.70	1294.32
664.89	1220.59
665.07	1292.27
665.26	1275.88
665.45	1294.32
665.64	1353.71
665.82	1273.84
666.01	1243.12
666.20	1234.93
666.38	1361.90
666.57	1261.55
666.76	1284.08
666.95	1224.69
667.13	1306.60
667.32	1275.88
667.51	1230.83
667.69	1286.12
667.88	1333.23
668.07	1249.26
668.25	1275.88
668.44	1327.08
668.63	1224.69
668.81	1286.12
669.00	1333.23
669.19	1302.51
669.38	1361.90
669.56	1265.64
669.75	1298.41
669.94	1298.41
670.12	1224.69
670.31	1208.30
670.50	1286.12
670.68	1322.99
670.87	1267.69
671.06	1275.88
671.24	1341.42
671.43	1314.80
671.62	1232.88
671.80	1322.99
671.99	1304.56
672.18	1302.51
672.36	1214.45
672.55	1183.73
672.74	1222.64
672.92	1216.49
673.11	1245.16
673.29	1191.92
673.48	1339.37
673.67	1243.12
673.85	1341.42
674.04	1286.12
674.23	1277.93
674.41	1312.75
674.60	1286.12
674.79	1208.30
674.97	1198.06
675.16	1265.64
675.34	1224.69
675.53	1208.30
675.72	1269.74
675.90	1230.83
676.09	1208.30
676.28	1306.60
676.46	1310.70
676.65	1234.93
676.83	1279.98
677.02	1210.35
677.21	1245.16
677.39	1214.45
677.58	1333.23
677.77	1206.25
677.95	1273.84
678.14	1308.65
678.32	1269.74
678.51	1253.36
678.70	1226.73
678.88	1144.81
679.07	1198.06
679.25	1279.98
679.44	1210.35
679.63	1329.13
679.81	1353.71
680.00	1286.12
680.18	1249.26
680.37	1288.17
680.55	1241.07
680.74	1290.22
680.93	1288.17
681.11	1320.94
681.30	1329.13
681.48	1341.42
681.67	1290.22
681.85	1279.98
682.04	1269.74
682.23	1294.32
682.41	1310.70
682.60	1269.74
682.78	1331.18
682.97	1322.99
683.15	1200.11
683.34	1277.93
683.53	1288.17
683.71	1298.41
683.90	1261.55
684.08	1253.36
684.27	1300.46
684.45	1265.64
684.64	1302.51
684.82	1322.99
685.01	1230.83
685.19	1261.55
685.38	1228.78
685.57	1277.93
685.75	1263.60
685.94	1253.36
686.12	1296.36
686.31	1214.45
686.49	1271.79
686.68	1222.64
686.86	1302.51
687.05	1161.20
687.23	1359.85
687.42	1271.79
687.60	1185.77
687.79	1239.02
687.97	1347.56
688.16	1220.59
688.34	1279.98
688.53	1245.16
688.71	1204.21
688.90	1302.51
689.08	1271.79
689.27	1294.32
689.45	1275.88
689.64	1329.13
689.82	1232.88
690.01	1279.98
690.19	1288.17
690.38	1230.83
690.56	1255.40
690.75	1284.08
690.93	1345.52
691.12	1298.41
691.30	1279.98
691.49	1273.84
691.67	1226.73
691.86	1183.73
692.04	1318.89
692.23	1206.25
692.41	1230.83
692.60	1322.99
692.78	1271.79
692.97	1265.64
693.15	1415.15
693.34	1302.51
693.52	1214.45
693.71	1290.22
693.89	1329.13
694.08	1296.36
694.26	1331.18
694.44	1292.27
694.63	1234.93
694.81	1251.31
695.00	1269.74
695.18	1275.88
695.37	1263.60
695.55	1220.59
695.74	1284.08
695.92	1241.07
696.10	1292.27
696.29	1271.79
696.47	1275.88
696.66	1308.65
696.84	1255.40
697.03	1261.55
697.21	1175.53
697.40	1288.17
697.58	1286.12
697.76	1279.98
697.95	1275.88
698.13	1253.36
698.32	1269.74
698.50	1282.03
698.68	1318.89
698.87	1185.77
699.05	1312.75
699.24	1277.93
699.42	1294.32
699.61	1325.04
699.79	1239.02
699.97	1247.21
700.16	1251.31
700.34	1277.93
700.53	1335.28
700.71	1245.16
700.89	1312.75
701.08	1271.79
701.26	1261.55
701.45	1265.64
701.63	1204.21
701.81	1277.93
702.00	1261.55
702.18	1312.75
702.37	1275.88
702.55	1329.13
702.73	1263.60
702.92	1286.12
703.10	1243.12
703.28	1251.31
703.47	1355.76
703.65	1349.61
703.84	1288.17
704.02	1288.17
704.20	1282.03
704.39	1279.98
704.57	1220.59
704.75	1191.92
704.94	1359.85
705.12	1220.59
705.30	1271.79
705.49	1263.60
705.67	1277.93
705.86	1253.36
706.04	1277.93
706.22	1239.02
706.41	1286.12
706.59	1284.08
706.77	1298.41
706.96	1288.17
707.14	1273.84
707.32	1253.36
707.51	1273.84
707.69	1259.50
707.87	1292.27
708.06	1308.65
708.24	1304.56
708.42	1247.21
708.61	1286.12
708.79	1300.46
708.97	1294.32
709.16	1308.65
709.34	1222.64
709.52	1304.56
709.71	1339.37
709.89	1286.12
710.07	1208.30
710.26	1214.45
710.44	1327.08
710.62	1269.74
710.80	1327.08
710.99	1351.66
711.17	1249.26
711.35	1265.64
711.54	1288.17
711.72	1312.75
711.90	1288.17
712.09	1271.79
712.27	1339.37
712.45	1261.55
712.63	1239.02
712.82	1288.17
713.00	1191.92
713.18	1232.88
713.37	1224.69
713.55	1327.08
713.73	1232.88
713.91	1316.84
714.10	1249.26
714.28	1206.25
714.46	1298.41
714.65	1275.88
714.83	1273.84
715.01	1257.45
715.19	1187.82
715.38	1271.79
715.56	1288.17
715.74	1290.22
715.92	1284.08
716.11	1251.31
716.29	1275.88
716.47	1265.64
716.65	1314.80
716.84	1257.45
717.02	1249.26
717.20	1263.60
717.38	1257.45
717.57	1304.56
717.75	1222.64
717.93	1202.16
718.11	1273.84
718.30	1267.69
718.48	1208.30
718.66	1212.40
718.84	1247.21
719.03	1234.93
719.21	1347.56
719.39	1234.93
719.57	1241.07
719.75	1212.40
719.94	1279.98
720.12	1249.26
720.30	1216.49
720.48	1253.36
720.67	1345.52
720.85	1220.59
721.03	1249.26
721.21	1212.40
721.39	1290.22
721.58	1306.60
721.76	1279.98
721.94	1241.07
722.12	1320.94
722.30	1218.54
722.49	1331.18
722.67	1267.69
722.85	1261.55
723.03	1312.75
723.21	1183.73
723.40	1241.07
723.58	1253.36
723.76	1282.03
723.94	1249.26
724.12	1282.03
724.30	1261.55
724.49	1210.35
724.67	1257.45
724.85	1288.17
725.03	1314.80
725.21	1234.93
725.40	1290.22
725.58	1208.30
725.76	1279.98
725.94	1210.35
726.12	1331.18
726.30	1216.49
726.49	1249.26
726.67	1308.65
726.85	1249.26
727.03	1300.46
727.21	1257.45
727.39	1232.88
727.57	1265.64
727.76	1320.94
727.94	1236.97
728.12	1247.21
728.30	1363.95
728.48	1261.55
728.66	1292.27
728.84	1296.36
729.03	1390.57
729.21	1361.90
729.39	1337.32
729.57	1253.36
729.75	1253.36
729.93	1304.56
730.11	1271.79
730.30	1300.46
730.48	1316.84
730.66	1212.40
730.84	1298.41
731.02	1273.84
731.20	1232.88
731.38	1292.27
731.56	1302.51
731.74	1245.16
731.93	1126.38
732.11	1277.93
732.29	1284.08
732.47	1292.27
732.65	1206.25
732.83	1284.08
733.01	1292.27
733.19	1247.21
733.37	1257.45
733.56	1294.32
733.74	1251.31
733.92	1341.42
734.10	1345.52
734.28	1257.45
734.46	1212.40
734.64	1216.49
734.82	1261.55
735.00	1298.41
735.18	1251.31
735.36	1284.08
735.54	1277.93
735.73	1277.93
735.91	1318.89
736.09	1206.25
736.27	1222.64
736.45	1245.16
736.63	1253.36
736.81	1300.46
736.99	1288.17
737.17	1220.59
737.35	1294.32
737.53	1298.41
737.71	1196.01
737.89	1302.51
738.07	1327.08
738.25	1214.45
738.43	1177.58
738.61	1228.78
738.80	1214.45
738.98	1265.64
739.16	1204.21
739.34	1331.18
739.52	1269.74
739.70	1269.74
739.88	1232.88
740.06	1288.17
740.24	1286.12
740.42	1259.50
740.60	1275.88
740.78	1241.07
740.96	1261.55
741.14	1222.64
741.32	1312.75
741.50	1220.59
741.68	1241.07
741.86	1284.08
742.04	1253.36
742.22	1329.13
742.40	1251.31
742.58	1292.27
742.76	1327.08
742.94	1224.69
743.12	1255.40
743.30	1275.88
743.48	1247.21
743.66	1298.41
743.84	1243.12
744.02	1310.70
744.20	1200.11
744.38	1286.12
744.56	1271.79
744.74	1212.40
744.92	1306.60
745.10	1308.65
745.28	1304.56
745.46	1241.07
745.64	1282.03
745.82	1191.92
746.00	1198.06
746.18	1316.84
746.36	1220.59
746.54	1181.68
746.72	1253.36
746.90	1261.55
747.08	1347.56
747.26	1253.36
747.44	1255.40
747.62	1325.04
747.80	1257.45
747.98	1245.16
748.15	1206.25
748.33	1208.30
748.51	1284.08
748.69	1312.75
748.87	1320.94
749.05	1329.13
749.23	1296.36
749.41	1269.74
749.59	1191.92
749.77	1255.40
749.95	1269.74
750.13	1259.50
750.31	1327.08
750.49	1261.55
750.67	1329.13
750.85	1263.60
751.03	1251.31
751.20	1351.66
751.38	1230.83
751.56	1304.56
751.74	1259.50
751.92	1290.22
752.10	1357.80
752.28	1255.40
752.46	1282.03
752.64	1273.84
752.82	1236.97
753.00	1267.69
753.18	1286.12
753.35	1306.60
753.53	1232.88
753.71	1249.26
753.89	1255.40
754.07	1224.69
754.25	1234.93
754.43	1202.16
754.61	1226.73
754.79	1269.74
754.97	1284.08
755.14	1224.69
755.32	1314.80
755.50	1249.26
755.68	1335.28
755.86	1200.11
756.04	1253.36
756.22	1210.35
756.40	1255.40
756.57	1206.25
756.75	1255.40
756.93	1279.98
757.11	1198.06
757.29	1286.12
757.47	1308.65
757.65	1214.45
757.82	1259.50
758.00	1218.54
758.18	1255.40
758.36	1273.84
758.54	1228.78
758.72	1198.06
758.90	1306.60
759.07	1241.07
759.25	1279.98
759.43	1255.40
759.61	1310.70
759.79	1343.47
759.97	1210.35
760.15	1275.88
760.32	1302.51
760.50	1243.12
760.68	1345.52
760.86	1316.84
761.04	1263.60
761.22	1210.35
761.39	1243.12
761.57	1261.55
761.75	1302.51
761.93	1288.17
762.11	1277.93
762.28	1290.22
762.46	1204.21
762.64	1282.03
762.82	1296.36
763.00	1347.56
763.18	1245.16
763.35	1251.31
763.53	1179.63
763.71	1271.79
763.89	1298.41
764.07	1261.55
764.24	1273.84
764.42	1243.12
764.60	1279.98
764.78	1277.93
764.96	1320.94
765.13	1284.08
765.31	1243.12
765.49	1267.69
765.67	1222.64
765.84	1222.64
766.02	1339.37
766.20	1234.93
766.38	1288.17
766.56	1261.55
766.73	1333.23
766.91	1310.70
767.09	1193.97
767.27	1337.32
767.44	1265.64
767.62	1261.55
767.80	1224.69
767.98	1294.32
768.15	1314.80
768.33	1214.45
768.51	1296.36
768.69	1236.97
768.87	1249.26
769.04	1279.98
769.22	1284.08
769.40	1331.18
769.58	1253.36
769.75	1277.93
769.93	1269.74
770.11	1306.60
770.28	1228.78
770.46	1304.56
770.64	1243.12
770.82	1204.21
770.99	1247.21
771.17	1282.03
771.35	1232.88
771.53	1290.22
771.70	1282.03
771.88	1259.50
772.06	1290.22
772.23	1275.88
772.41	1253.36
772.59	1271.79
772.77	1259.50
772.94	1279.98
773.12	1302.51
773.30	1312.75
773.47	1279.98
773.65	1294.32
773.83	1310.70
774.01	1189.87
774.18	1282.03
774.36	1290.22
774.54	1263.60
774.71	1257.45
774.89	1249.26
775.07	1279.98
775.24	1234.93
775.42	1228.78
775.60	1232.88
775.78	1196.01
775.95	1230.83
776.13	1206.25
776.31	1335.28
776.48	1255.40
776.66	1239.02
776.84	1302.51
777.01	1279.98
777.19	1253.36
777.37	1222.64
777.54	1277.93
777.72	1263.60
777.90	1239.02
778.07	1249.26
778.25	1355.76
778.43	1269.74
778.60	1273.84
778.78	1329.13
778.96	1286.12
779.13	1306.60
779.31	1273.84
779.49	1288.17
779.66	1253.36
779.84	1241.07
780.01	1193.97
780.19	1292.27
780.37	1251.31
780.54	1224.69
780.72	1196.01
780.90	1275.88
781.07	1284.08
781.25	1290.22
781.43	1265.64
781.60	1312.75
781.78	1304.56
781.95	1282.03
782.13	1343.47
782.31	1261.55
782.48	1245.16
782.66	1224.69
782.83	1279.98
783.01	1294.32
783.19	1296.36
783.36	1265.64
783.54	1261.55
783.72	1247.21
783.89	1189.87
784.07	1243.12
784.24	1187.82
784.42	1273.84
784.60	1257.45
784.77	1232.88
784.95	1243.12
785.12	1269.74
785.30	1271.79
785.47	1273.84
785.65	1333.23
785.83	1288.17
786.00	1247.21
786.18	1241.07
786.35	1261.55
786.53	1245.16
786.71	1329.13
786.88	1263.60
787.06	1212.40
787.23	1243.12
787.41	1243.12
787.58	1312.75
787.76	1243.12
787.94	1239.02
788.11	1234.93
788.29	1263.60
788.46	1241.07
788.64	1282.03
788.81	1279.98
788.99	1263.60
789.16	1271.79
789.34	1224.69
789.52	1202.16
789.69	1298.41
789.87	1271.79
790.04	1282.03
790.22	1316.84
790.39	1279.98
790.57	1267.69
790.74	1251.31
790.92	1302.51
791.09	1284.08
791.27	1214.45
791.44	1320.94
791.62	1298.41
791.79	1265.64
791.97	1265.64
792.15	1296.36
792.32	1263.60
792.50	1310.70
792.67	1222.64
792.85	1310.70
793.02	1308.65
793.20	1298.41
793.37	1345.52
793.55	1232.88
793.72	1304.56
793.90	1318.89
794.07	1259.50
794.25	1226.73
794.42	1294.32
794.60	1286.12
794.77	1286.12
794.95	1294.32
795.12	1247.21
795.30	1302.51
795.47	1275.88
795.65	1257.45
795.82	1245.16
796.00	1355.76
796.17	1200.11
796.34	1271.79
796.52	1224.69
796.69	1269.74
796.87	1253.36
797.04	1202.16
797.22	1218.54
797.39	1239.02
797.57	1259.50
797.74	1267.69
797.92	1259.50
798.09	1249.26
798.27	1257.45
798.44	1298.41
798.62	1257.45
798.79	1241.07
798.96	1286.12
799.14	1273.84
799.31	1255.40
799.49	1255.40
799.66	1265.64
799.84	1273.84
800.01	1277.93
800.19	1304.56
800.36	1208.30
800.53	1247.21
800.71	1247.21
800.88	1220.59
801.06	1173.49
801.23	1308.65
801.41	1261.55
801.58	1306.60
801.75	1218.54
801.93	1269.74
802.10	1239.02
802.28	1277.93
802.45	1308.65
802.63	1257.45
802.80	1345.52
802.97	1329.13
803.15	1226.73
803.32	1236.97
803.50	1279.98
803.67	1224.69
803.84	1318.89
804.02	1337.32
804.19	1230.83
804.37	1316.84
804.54	1239.02
804.71	1200.11
804.89	1296.36
805.06	1282.03
805.24	1341.42
805.41	1337.32
805.58	1257.45
805.76	1279.98
805.93	1284.08
806.10	1253.36
806.28	1267.69
806.45	1241.07
806.63	1318.89
806.80	1269.74
806.97	1169.39
807.15	1294.32
807.32	1312.75
807.49	1249.26
807.67	1239.02
807.84	1243.12
808.01	1193.97
808.19	1327.08
808.36	1376.24
808.54	1255.40
808.71	1327.08
808.88	1329.13
809.06	1255.40
809.23	1318.89
809.40	1241.07
809.58	1187.82
809.75	1298.41
809.92	1214.45
810.10	1318.89
810.27	1355.76
810.44	1318.89
810.62	1202.16
810.79	1290.22
810.96	1247.21
811.14	1249.26
811.31	1341.42
811.48	1341.42
811.66	1282.03
811.83	1294.32
812.00	1228.78
812.18	1218.54
812.35	1263.60
812.52	1206.25
812.69	1271.79
812.87	1380.33
813.04	1234.93
813.21	1279.98
813.39	1230.83
813.56	1277.93
813.73	1251.31
813.91	1228.78
814.08	1277.93
814.25	1269.74
814.42	1277.93
814.60	1210.35
814.77	1308.65
814.94	1226.73
815.12	1261.55
815.29	1267.69
815.46	1230.83
815.63	1267.69
815.81	1255.40
815.98	1325.04
816.15	1210.35
816.33	1273.84
816.50	1261.55
816.67	1290.22
816.84	1228.78
817.02	1241.07
817.19	1239.02
817.36	1198.06
817.53	1294.32
817.71	1234.93
817.88	1279.98
818.05	1257.45
818.22	1288.17
818.40	1302.51
818.57	1216.49
818.74	1312.75
818.91	1157.10
819.09	1200.11
819.26	1288.17
819.43	1222.64
819.60	1253.36
819.78	1271.79
819.95	1300.46
820.12	1251.31
820.29	1261.55
820.47	1275.88
820.64	1263.60
820.81	1253.36
820.98	1265.64
821.15	1298.41
821.33	1245.16
821.50	1261.55
821.67	1230.83
821.84	1275.88
822.02	1331.18
822.19	1212.40
822.36	1290.22
822.53	1306.60
822.70	1259.50
822.88	1277.93
823.05	1327.08
823.22	1224.69
823.39	1253.36
823.56	1239.02
823.74	1247.21
823.91	1230.83
824.08	1312.75
824.25	1267.69
824.42	1322.99
824.60	1282.03
824.77	1290.22
824.94	1239.02
825.11	1255.40
825.28	1304.56
825.45	1265.64
825.63	1204.21
825.80	1271.79
825.97	1300.46
826.14	1318.89
826.31	1204.21
826.48	1265.64
826.66	1255.40
826.83	1232.88
827.00	1333.23
827.17	1245.16
827.34	1239.02
827.51	1214.45
827.69	1224.69
827.86	1261.55
828.03	1286.12
828.20	1298.41
828.37	1279.98
828.54	1318.89
828.71	1294.32
828.89	1288.17
829.06	1261.55
829.23	1226.73
829.40	1265.64
829.57	1282.03
829.74	1257.45
829.91	1279.98
830.09	1222.64
830.26	1288.17
830.43	1372.14
830.60	1318.89
830.77	1228.78
830.94	1288.17
831.11	1308.65
831.28	1249.26
831.46	1282.03
831.63	1263.60
831.80	1253.36
831.97	1255.40
832.14	1273.84
832.31	1232.88
832.48	1316.84
832.65	1290.22
832.82	1253.36
832.99	1279.98
833.17	1247.21
833.34	1277.93
833.51	1271.79
833.68	1282.03
833.85	1251.31
834.02	1208.30
834.19	1191.92
834.36	1255.40
834.53	1253.36
834.70	1230.83
834.87	1222.64
835.04	1304.56
835.22	1267.69
835.39	1273.84
835.56	1308.65
835.73	1232.88
835.90	1269.74
836.07	1255.40
836.24	1306.60
836.41	1265.64
836.58	1193.97
836.75	1271.79
836.92	1259.50
837.09	1183.73
837.26	1261.55
837.43	1177.58
837.60	1206.25
837.77	1302.51
837.94	1228.78
838.12	1259.50
838.29	1218.54
838.46	1288.17
838.63	1239.02
838.80	1261.55
838.97	1253.36
839.14	1339.37
839.31	1193.97
839.48	1189.87
839.65	1261.55
839.82	1255.40
839.99	1251.31
840.16	1273.84
840.33	1314.80
840.50	1222.64
840.67	1226.73
840.84	1292.27
841.01	1259.50
841.18	1251.31
841.35	1226.73
841.52	1236.97
841.69	1273.84
841.86	1269.74
842.03	1214.45
842.20	1279.98
842.37	1247.21
842.54	1273.84
842.71	1290.22
842.88	1224.69
843.05	1329.13
843.22	1263.60
843.39	1269.74
843.56	1239.02
843.73	1173.49
843.90	1257.45
844.07	1286.12
844.24	1251.31
844.41	1269.74
844.58	1296.36
844.75	1271.79
844.92	1183.73
845.09	1255.40
845.26	1273.84
845.43	1243.12
845.60	1261.55
845.77	1298.41
845.94	1288.17
846.10	1251.31
846.27	1239.02
846.44	1300.46
846.61	1259.50
846.78	1286.12
846.95	1310.70
847.12	1265.64
847.29	1282.03
847.46	1259.50
847.63	1296.36
847.80	1239.02
847.97	1300.46
848.14	1282.03
848.31	1271.79
848.48	1236.97
848.65	1318.89
848.82	1198.06
848.98	1290.22
849.15	1212.40
849.32	1261.55
849.49	1282.03
849.66	1292.27
849.83	1241.07
850.00	1263.60
850.17	1294.32
850.34	1310.70
850.51	1214.45
850.68	1325.04
850.85	1288.17
851.01	1296.36
851.18	1292.27
851.35	1318.89
851.52	1255.40
851.69	1273.84
851.86	1249.26
852.03	1292.27
852.20	1230.83
852.37	1329.13
852.53	1292.27
852.70	1247.21
852.87	1294.32
853.04	1277.93
853.21	1253.36
853.38	1273.84
853.55	1230.83
853.72	1191.92
853.89	1232.88
854.05	1290.22
854.22	1210.35
854.39	1298.41
854.56	1204.21
854.73	1249.26
854.90	1286.12
855.07	1222.64
855.23	1296.36
855.40	1316.84
855.57	1230.83
855.74	1257.45
855.91	1239.02
856.08	1257.45
856.25	1243.12
856.41	1257.45
856.58	1282.03
856.75	1212.40
856.92	1200.11
857.09	1267.69
857.26	1167.34
857.42	1239.02
857.59	1298.41
857.76	1329.13
857.93	1243.12
858.10	1329.13
858.27	1247.21
858.43	1265.64
858.60	1234.93
858.77	1249.26
858.94	1292.27
859.11	1228.78
859.27	1325.04
859.44	1228.78
859.61	1284.08
859.78	1181.68
859.95	1265.64
860.12	1251.31
860.28	1292.27
860.45	1306.60
860.62	1210.35
860.79	1349.61
860.95	1243.12
861.12	1370.09
861.29	1257.45
861.46	1275.88
861.63	1288.17
861.79	1222.64
861.96	1253.36
862.13	1247.21
862.30	1263.60
862.47	1320.94
862.63	1282.03
862.80	1288.17
862.97	1249.26
863.14	1277.93
863.30	1220.59
863.47	1269.74
863.64	1351.66
863.81	1275.88
863.97	1292.27
864.14	1284.08
864.31	1269.74
864.48	1294.32
864.65	1224.69
864.81	1267.69
864.98	1177.58
865.15	1345.52
865.32	1296.36
865.48	1259.50
865.65	1236.97
865.82	1220.59
865.98	1232.88
866.15	1279.98
866.32	1255.40
866.49	1220.59
866.65	1275.88
866.82	1325.04
866.99	1241.07
867.16	1234.93
867.32	1271.79
867.49	1327.08
867.66	1249.26
867.83	1249.26
867.99	1255.40
868.16	1290.22
868.33	1296.36
868.49	1292.27
868.66	1269.74
868.83	1318.89
868.99	1320.94
869.16	1269.74
869.33	1257.45
869.50	1282.03
869.66	1302.51
869.83	1191.92
870.00	1226.73
870.16	1275.88
870.33	1288.17
870.50	1329.13
870.66	1212.40
870.83	1253.36
871.00	1282.03
871.17	1261.55
871.33	1333.23
871.50	1216.49
871.67	1263.60
871.83	1218.54
872.00	1212.40
872.17	1265.64
872.33	1298.41
872.50	1290.22
872.67	1304.56
872.83	1325.04
873.00	1325.04
873.17	1353.71
873.33	1294.32
873.50	1198.06
873.67	1230.83
873.83	1216.49
874.00	1218.54
874.16	1173.49
874.33	1257.45
874.50	1298.41
874.66	1282.03
874.83	1277.93
875.00	1269.74
875.16	1265.64
875.33	1228.78
875.50	1320.94
875.66	1253.36
875.83	1292.27
875.99	1316.84
876.16	1292.27
876.33	1228.78
876.49	1304.56
876.66	1259.50
876.83	1312.75
876.99	1216.49
877.16	1296.36
877.32	1204.21
877.49	1290.22
877.66	1247.21
877.82	1282.03
877.99	1255.40
878.15	1275.88
878.32	1282.03
878.49	1271.79
878.65	1234.93
878.82	1247.21
878.98	1310.70
879.15	1230.83
879.32	1288.17
879.48	1294.32
879.65	1218.54
879.81	1306.60
879.98	1232.88
880.15	1253.36
880.31	1177.58
880.48	1271.79
880.64	1208.30
880.81	1218.54
880.97	1265.64
881.14	1261.55
881.31	1230.83
881.47	1343.47
881.64	1304.56
881.80	1277.93
881.97	1282.03
882.13	1208.30
882.30	1230.83
882.47	1234.93
882.63	1290.22
882.80	1249.26
882.96	1304.56
883.13	1275.88
883.29	1320.94
883.46	1269.74
883.62	1202.16
883.79	1257.45
883.95	1251.31
884.12	1273.84
884.29	1282.03
884.45	1208.30
884.62	1286.12
884.78	1292.27
884.95	1230.83
885.11	1294.32
885.28	1286.12
885.44	1288.17
885.61	1314.80
885.77	1241.07
885.94	1234.93
886.10	1208.30
886.27	1255.40
886.43	1288.17
886.60	1144.81
886.76	1243.12
886.93	1245.16
887.09	1273.84
887.26	1253.36
887.42	1220.59
887.59	1261.55
887.75	1255.40
887.92	1279.98
888.08	1212.40
888.25	1279.98
888.41	1290.22
888.58	1245.16
888.74	1247.21
888.91	1220.59
>>>>>End Processed Spectral Data<<<<<
