SpectraSuite Data File
++++++++++++++++++++++++++++++++++++
Date: Sun Apr 03 19:55:14 CEST 2016
User: root
Dark Spectrum Present: No
Reference Spectrum Present: No
Number of Sampled Component Spectra: 1
Spectrometers: USB4C02835
Integration Time (usec): 10000 (USB4C02835)
Spectra Averaged: 1 (USB4C02835)
Boxcar Smoothing: 0 (USB4C02835)
Correct for Electrical Dark: No (USB4C02835)
Strobe/Lamp Enabled: No (USB4C02835)
Correct for Detector Non-linearity: No (USB4C02835)
Correct for Stray Light: No (USB4C02835)
Number of Pixels in Processed Spectrum: 3648
>>>>>Begin Processed Spectral Data<<<<<
177.47	1245.16
177.69	1245.16
177.91	1245.16
178.13	1329.13
178.36	1228.78
178.58	1245.16
178.80	1296.36
179.02	1302.51
179.24	1216.49
179.46	1241.07
179.68	1292.27
179.90	1230.83
180.13	1239.02
180.35	1247.21
180.57	1251.31
180.79	1294.32
181.01	1183.73
181.23	1349.61
181.45	1312.75
181.67	1257.45
181.90	1290.22
182.12	1251.31
182.34	1284.08
182.56	1302.51
182.78	1304.56
183.00	1212.40
183.22	1273.84
183.44	1204.21
183.66	1300.46
183.89	1251.31
184.11	1251.31
184.33	1239.02
184.55	1398.76
184.77	1320.94
184.99	1232.88
185.21	1251.31
185.43	1314.80
185.65	1288.17
185.87	1273.84
186.10	1325.04
186.32	1257.45
186.54	1208.30
186.76	1239.02
186.98	1222.64
187.20	1306.60
187.42	1288.17
187.64	1296.36
187.86	1327.08
188.08	1279.98
188.30	1271.79
188.52	1312.75
188.75	1279.98
188.97	1214.45
189.19	1191.92
189.41	1316.84
189.63	1267.69
189.85	1337.32
190.07	1189.87
190.29	1296.36
190.51	1279.98
190.73	1277.93
190.95	1234.93
191.17	1253.36
191.39	1314.80
191.61	1341.42
191.84	1284.08
192.06	1222.64
192.28	1226.73
192.50	1286.12
192.72	1279.98
192.94	1218.54
193.16	1265.64
193.38	1286.12
193.60	1269.74
193.82	1298.41
194.04	1294.32
194.26	1300.46
194.48	1282.03
194.70	1361.90
194.92	1247.21
195.14	1245.16
195.36	1306.60
195.58	1247.21
195.80	1214.45
196.02	1228.78
196.24	1284.08
196.46	1234.93
196.69	1267.69
196.91	1267.69
197.13	1290.22
197.35	1279.98
197.57	1279.98
197.79	1200.11
198.01	1265.64
198.23	1306.60
198.45	1249.26
198.67	1335.28
198.89	1275.88
199.11	1306.60
199.33	1298.41
199.55	1294.32
199.77	1253.36
199.99	1236.97
200.21	1234.93
200.43	1318.89
200.65	1298.41
200.87	1243.12
201.09	1257.45
201.31	1222.64
201.53	1284.08
201.75	1259.50
201.97	1341.42
202.19	1273.84
202.41	1255.40
202.63	1236.97
202.85	1247.21
203.07	1253.36
203.29	1282.03
203.51	1255.40
203.73	1226.73
203.95	1286.12
204.17	1239.02
204.39	1208.30
204.61	1226.73
204.83	1239.02
205.05	1320.94
205.27	1261.55
205.49	1308.65
205.71	1341.42
205.93	1232.88
206.15	1271.79
206.37	1253.36
206.59	1282.03
206.81	1257.45
207.03	1230.83
207.25	1288.17
207.47	1284.08
207.69	1171.44
207.91	1259.50
208.13	1232.88
208.34	1279.98
208.56	1269.74
208.78	1277.93
209.00	1277.93
209.22	1251.31
209.44	1279.98
209.66	1316.84
209.88	1232.88
210.10	1290.22
210.32	1320.94
210.54	1282.03
210.76	1271.79
210.98	1308.65
211.20	1267.69
211.42	1271.79
211.64	1282.03
211.86	1296.36
212.08	1230.83
212.30	1351.66
212.52	1253.36
212.74	1232.88
212.96	1239.02
213.17	1331.18
213.39	1302.51
213.61	1275.88
213.83	1298.41
214.05	1253.36
214.27	1243.12
214.49	1265.64
214.71	1298.41
214.93	1279.98
215.15	1312.75
215.37	1282.03
215.59	1312.75
215.81	1255.40
216.03	1253.36
216.24	1267.69
216.46	1327.08
216.68	1329.13
216.90	1269.74
217.12	1169.39
217.34	1247.21
217.56	1259.50
217.78	1331.18
218.00	1294.32
218.22	1265.64
218.44	1177.58
218.66	1294.32
218.87	1288.17
219.09	1173.49
219.31	1284.08
219.53	1314.80
219.75	1253.36
219.97	1261.55
220.19	1306.60
220.41	1247.21
220.63	1259.50
220.85	1241.07
221.06	1243.12
221.28	1241.07
221.50	1218.54
221.72	1318.89
221.94	1271.79
222.16	1279.98
222.38	1228.78
222.60	1331.18
222.82	1329.13
223.03	1263.60
223.25	1337.32
223.47	1296.36
223.69	1241.07
223.91	1269.74
224.13	1302.51
224.35	1263.60
224.57	1290.22
224.78	1230.83
225.00	1224.69
225.22	1175.53
225.44	1232.88
225.66	1339.37
225.88	1259.50
226.10	1267.69
226.32	1316.84
226.53	1296.36
226.75	1216.49
226.97	1282.03
227.19	1273.84
227.41	1277.93
227.63	1279.98
227.85	1300.46
228.06	1239.02
228.28	1370.09
228.50	1306.60
228.72	1263.60
228.94	1253.36
229.16	1347.56
229.37	1282.03
229.59	1230.83
229.81	1345.52
230.03	1249.26
230.25	1196.01
230.47	1251.31
230.69	1212.40
230.90	1279.98
231.12	1294.32
231.34	1255.40
231.56	1331.18
231.78	1292.27
232.00	1277.93
232.21	1212.40
232.43	1284.08
232.65	1253.36
232.87	1292.27
233.09	1249.26
233.30	1261.55
233.52	1255.40
233.74	1253.36
233.96	1290.22
234.18	1292.27
234.40	1378.28
234.61	1304.56
234.83	1290.22
235.05	1267.69
235.27	1265.64
235.49	1253.36
235.70	1279.98
235.92	1249.26
236.14	1206.25
236.36	1347.56
236.58	1202.16
236.79	1259.50
237.01	1282.03
237.23	1290.22
237.45	1216.49
237.67	1290.22
237.88	1294.32
238.10	1269.74
238.32	1212.40
238.54	1310.70
238.76	1267.69
238.97	1312.75
239.19	1241.07
239.41	1273.84
239.63	1269.74
239.85	1284.08
240.06	1236.97
240.28	1257.45
240.50	1253.36
240.72	1263.60
240.93	1318.89
241.15	1214.45
241.37	1239.02
241.59	1218.54
241.81	1167.34
242.02	1310.70
242.24	1320.94
242.46	1277.93
242.68	1306.60
242.89	1261.55
243.11	1269.74
243.33	1284.08
243.55	1249.26
243.76	1226.73
243.98	1277.93
244.20	1304.56
244.42	1337.32
244.64	1249.26
244.85	1228.78
245.07	1269.74
245.29	1241.07
245.51	1282.03
245.72	1314.80
245.94	1259.50
246.16	1234.93
246.38	1204.21
246.59	1204.21
246.81	1343.47
247.03	1316.84
247.24	1239.02
247.46	1259.50
247.68	1232.88
247.90	1257.45
248.11	1282.03
248.33	1304.56
248.55	1273.84
248.77	1318.89
248.98	1253.36
249.20	1294.32
249.42	1282.03
249.64	1337.32
249.85	1284.08
250.07	1302.51
250.29	1282.03
250.50	1267.69
250.72	1265.64
250.94	1318.89
251.16	1294.32
251.37	1318.89
251.59	1322.99
251.81	1284.08
252.02	1296.36
252.24	1218.54
252.46	1339.37
252.68	1243.12
252.89	1232.88
253.11	1247.21
253.33	1212.40
253.54	1273.84
253.76	1228.78
253.98	1232.88
254.20	1273.84
254.41	1300.46
254.63	1306.60
254.85	1189.87
255.06	1261.55
255.28	1286.12
255.50	1279.98
255.71	1226.73
255.93	1286.12
256.15	1241.07
256.36	1316.84
256.58	1263.60
256.80	1320.94
257.02	1261.55
257.23	1206.25
257.45	1224.69
257.67	1245.16
257.88	1312.75
258.10	1290.22
258.32	1249.26
258.53	1191.92
258.75	1292.27
258.97	1279.98
259.18	1187.82
259.40	1304.56
259.62	1269.74
259.83	1302.51
260.05	1282.03
260.27	1232.88
260.48	1325.04
260.70	1314.80
260.92	1310.70
261.13	1265.64
261.35	1232.88
261.57	1263.60
261.78	1234.93
262.00	1241.07
262.22	1253.36
262.43	1267.69
262.65	1245.16
262.86	1222.64
263.08	1349.61
263.30	1279.98
263.51	1208.30
263.73	1239.02
263.95	1241.07
264.16	1335.28
264.38	1249.26
264.60	1216.49
264.81	1202.16
265.03	1288.17
265.25	1286.12
265.46	1253.36
265.68	1310.70
265.89	1275.88
266.11	1232.88
266.33	1200.11
266.54	1218.54
266.76	1288.17
266.98	1265.64
267.19	1294.32
267.41	1349.61
267.62	1198.06
267.84	1247.21
268.06	1241.07
268.27	1282.03
268.49	1282.03
268.70	1345.52
268.92	1255.40
269.14	1296.36
269.35	1296.36
269.57	1290.22
269.79	1277.93
270.00	1236.97
270.22	1329.13
270.43	1232.88
270.65	1212.40
270.87	1216.49
271.08	1282.03
271.30	1286.12
271.51	1210.35
271.73	1165.29
271.95	1208.30
272.16	1300.46
272.38	1243.12
272.59	1263.60
272.81	1241.07
273.02	1265.64
273.24	1312.75
273.46	1282.03
273.67	1267.69
273.89	1288.17
274.10	1267.69
274.32	1316.84
274.54	1232.88
274.75	1234.93
274.97	1329.13
275.18	1267.69
275.40	1226.73
275.61	1302.51
275.83	1286.12
276.05	1247.21
276.26	1306.60
276.48	1212.40
276.69	1265.64
276.91	1187.82
277.12	1249.26
277.34	1214.45
277.55	1239.02
277.77	1282.03
277.99	1255.40
278.20	1267.69
278.42	1261.55
278.63	1277.93
278.85	1322.99
279.06	1286.12
279.28	1271.79
279.49	1271.79
279.71	1245.16
279.93	1298.41
280.14	1271.79
280.36	1236.97
280.57	1345.52
280.79	1243.12
281.00	1249.26
281.22	1230.83
281.43	1200.11
281.65	1322.99
281.86	1214.45
282.08	1322.99
282.29	1218.54
282.51	1257.45
282.73	1265.64
282.94	1210.35
283.16	1269.74
283.37	1312.75
283.59	1232.88
283.80	1290.22
284.02	1251.31
284.23	1292.27
284.45	1314.80
284.66	1243.12
284.88	1212.40
285.09	1286.12
285.31	1271.79
285.52	1318.89
285.74	1325.04
285.95	1294.32
286.17	1202.16
286.38	1251.31
286.60	1292.27
286.81	1282.03
287.03	1273.84
287.24	1294.32
287.46	1265.64
287.67	1300.46
287.89	1273.84
288.10	1200.11
288.32	1304.56
288.53	1314.80
288.75	1271.79
288.96	1255.40
289.18	1255.40
289.39	1241.07
289.61	1345.52
289.82	1335.28
290.04	1255.40
290.25	1245.16
290.47	1245.16
290.68	1253.36
290.90	1284.08
291.11	1273.84
291.33	1288.17
291.54	1306.60
291.76	1239.02
291.97	1275.88
292.18	1325.04
292.40	1279.98
292.61	1282.03
292.83	1265.64
293.04	1275.88
293.26	1255.40
293.47	1239.02
293.69	1261.55
293.90	1310.70
294.12	1216.49
294.33	1275.88
294.55	1214.45
294.76	1363.95
294.97	1269.74
295.19	1304.56
295.40	1226.73
295.62	1263.60
295.83	1261.55
296.05	1296.36
296.26	1322.99
296.48	1302.51
296.69	1232.88
296.90	1298.41
297.12	1335.28
297.33	1288.17
297.55	1245.16
297.76	1257.45
297.98	1290.22
298.19	1282.03
298.41	1249.26
298.62	1255.40
298.83	1259.50
299.05	1312.75
299.26	1183.73
299.48	1261.55
299.69	1292.27
299.90	1259.50
300.12	1273.84
300.33	1370.09
300.55	1316.84
300.76	1247.21
300.98	1249.26
301.19	1255.40
301.40	1310.70
301.62	1263.60
301.83	1226.73
302.05	1275.88
302.26	1286.12
302.47	1294.32
302.69	1265.64
302.90	1327.08
303.12	1259.50
303.33	1261.55
303.54	1322.99
303.76	1157.10
303.97	1255.40
304.19	1255.40
304.40	1275.88
304.61	1226.73
304.83	1325.04
305.04	1261.55
305.26	1257.45
305.47	1198.06
305.68	1169.39
305.90	1304.56
306.11	1273.84
306.33	1236.97
306.54	1265.64
306.75	1243.12
306.97	1329.13
307.18	1273.84
307.39	1267.69
307.61	1253.36
307.82	1239.02
308.04	1355.76
308.25	1282.03
308.46	1279.98
308.68	1253.36
308.89	1269.74
309.10	1210.35
309.32	1277.93
309.53	1292.27
309.74	1288.17
309.96	1294.32
310.17	1222.64
310.39	1214.45
310.60	1269.74
310.81	1275.88
311.03	1314.80
311.24	1222.64
311.45	1228.78
311.67	1230.83
311.88	1212.40
312.09	1204.21
312.31	1271.79
312.52	1245.16
312.73	1329.13
312.95	1325.04
313.16	1288.17
313.37	1316.84
313.59	1279.98
313.80	1249.26
314.01	1273.84
314.23	1236.97
314.44	1329.13
314.65	1245.16
314.87	1296.36
315.08	1267.69
315.29	1241.07
315.51	1277.93
315.72	1265.64
315.93	1265.64
316.15	1308.65
316.36	1187.82
316.57	1216.49
316.79	1255.40
317.00	1267.69
317.21	1339.37
317.43	1255.40
317.64	1249.26
317.85	1251.31
318.07	1355.76
318.28	1265.64
318.49	1271.79
318.70	1273.84
318.92	1257.45
319.13	1325.04
319.34	1265.64
319.56	1253.36
319.77	1294.32
319.98	1333.23
320.20	1284.08
320.41	1300.46
320.62	1212.40
320.83	1277.93
321.05	1255.40
321.26	1257.45
321.47	1257.45
321.69	1286.12
321.90	1304.56
322.11	1275.88
322.32	1251.31
322.54	1306.60
322.75	1327.08
322.96	1298.41
323.18	1249.26
323.39	1239.02
323.60	1179.63
323.81	1263.60
324.03	1245.16
324.24	1294.32
324.45	1247.21
324.66	1298.41
324.88	1277.93
325.09	1247.21
325.30	1290.22
325.52	1296.36
325.73	1210.35
325.94	1279.98
326.15	1263.60
326.37	1259.50
326.58	1255.40
326.79	1294.32
327.00	1277.93
327.22	1290.22
327.43	1341.42
327.64	1300.46
327.85	1263.60
328.07	1224.69
328.28	1265.64
328.49	1253.36
328.70	1236.97
328.92	1263.60
329.13	1228.78
329.34	1232.88
329.55	1267.69
329.76	1226.73
329.98	1249.26
330.19	1298.41
330.40	1263.60
330.61	1214.45
330.83	1257.45
331.04	1325.04
331.25	1230.83
331.46	1239.02
331.68	1222.64
331.89	1241.07
332.10	1292.27
332.31	1239.02
332.52	1312.75
332.74	1263.60
332.95	1206.25
333.16	1269.74
333.37	1271.79
333.58	1253.36
333.80	1255.40
334.01	1296.36
334.22	1314.80
334.43	1206.25
334.64	1290.22
334.86	1282.03
335.07	1236.97
335.28	1222.64
335.49	1275.88
335.70	1277.93
335.92	1228.78
336.13	1241.07
336.34	1277.93
336.55	1363.95
336.76	1224.69
336.98	1208.30
337.19	1189.87
337.40	1271.79
337.61	1191.92
337.82	1279.98
338.04	1247.21
338.25	1261.55
338.46	1228.78
338.67	1310.70
338.88	1236.97
339.09	1263.60
339.31	1261.55
339.52	1183.73
339.73	1279.98
339.94	1257.45
340.15	1288.17
340.36	1271.79
340.58	1308.65
340.79	1241.07
341.00	1263.60
341.21	1343.47
341.42	1290.22
341.63	1193.97
341.85	1196.01
342.06	1298.41
342.27	1261.55
342.48	1247.21
342.69	1253.36
342.90	1249.26
343.12	1273.84
343.33	1216.49
343.54	1247.21
343.75	1386.47
343.96	1320.94
344.17	1282.03
344.38	1230.83
344.60	1267.69
344.81	1206.25
345.02	1327.08
345.23	1296.36
345.44	1284.08
345.65	1218.54
345.86	1296.36
346.07	1306.60
346.29	1322.99
346.50	1306.60
346.71	1298.41
346.92	1239.02
347.13	1263.60
347.34	1279.98
347.55	1265.64
347.76	1327.08
347.98	1302.51
348.19	1239.02
348.40	1220.59
348.61	1302.51
348.82	1300.46
349.03	1236.97
349.24	1263.60
349.45	1273.84
349.66	1271.79
349.88	1222.64
350.09	1335.28
350.30	1279.98
350.51	1253.36
350.72	1282.03
350.93	1294.32
351.14	1314.80
351.35	1269.74
351.56	1292.27
351.77	1245.16
351.99	1261.55
352.20	1292.27
352.41	1359.85
352.62	1257.45
352.83	1263.60
353.04	1351.66
353.25	1263.60
353.46	1275.88
353.67	1230.83
353.88	1263.60
354.09	1220.59
354.30	1279.98
354.52	1286.12
354.73	1279.98
354.94	1179.63
355.15	1263.60
355.36	1263.60
355.57	1212.40
355.78	1273.84
355.99	1290.22
356.20	1243.12
356.41	1263.60
356.62	1275.88
356.83	1296.36
357.04	1255.40
357.25	1249.26
357.46	1284.08
357.68	1306.60
357.89	1275.88
358.10	1263.60
358.31	1277.93
358.52	1245.16
358.73	1290.22
358.94	1196.01
359.15	1222.64
359.36	1255.40
359.57	1343.47
359.78	1196.01
359.99	1251.31
360.20	1269.74
360.41	1271.79
360.62	1271.79
360.83	1322.99
361.04	1243.12
361.25	1277.93
361.46	1259.50
361.67	1298.41
361.88	1239.02
362.09	1234.93
362.30	1282.03
362.51	1378.28
362.72	1290.22
362.93	1224.69
363.14	1296.36
363.35	1333.23
363.56	1279.98
363.78	1322.99
363.99	1300.46
364.20	1228.78
364.41	1298.41
364.62	1185.77
364.83	1222.64
365.04	1263.60
365.25	1224.69
365.46	1331.18
365.67	1327.08
365.88	1230.83
366.09	1300.46
366.30	1198.06
366.51	1249.26
366.72	1296.36
366.93	1175.53
367.14	1253.36
367.35	1234.93
367.56	1347.56
367.77	1241.07
367.98	1189.87
368.18	1245.16
368.39	1245.16
368.60	1241.07
368.81	1304.56
369.02	1241.07
369.23	1224.69
369.44	1206.25
369.65	1222.64
369.86	1284.08
370.07	1310.70
370.28	1277.93
370.49	1304.56
370.70	1286.12
370.91	1245.16
371.12	1239.02
371.33	1282.03
371.54	1320.94
371.75	1335.28
371.96	1228.78
372.17	1200.11
372.38	1329.13
372.59	1265.64
372.80	1228.78
373.01	1294.32
373.22	1361.90
373.43	1279.98
373.64	1271.79
373.85	1304.56
374.06	1290.22
374.26	1206.25
374.47	1245.16
374.68	1230.83
374.89	1232.88
375.10	1267.69
375.31	1284.08
375.52	1220.59
375.73	1294.32
375.94	1312.75
376.15	1290.22
376.36	1245.16
376.57	1306.60
376.78	1284.08
376.99	1251.31
377.20	1239.02
377.40	1366.00
377.61	1269.74
377.82	1345.52
378.03	1259.50
378.24	1296.36
378.45	1294.32
378.66	1282.03
378.87	1247.21
379.08	1261.55
379.29	1290.22
379.50	1269.74
379.71	1282.03
379.91	1310.70
380.12	1216.49
380.33	1206.25
380.54	1279.98
380.75	1282.03
380.96	1200.11
381.17	1296.36
381.38	1230.83
381.59	1298.41
381.80	1212.40
382.00	1247.21
382.21	1322.99
382.42	1302.51
382.63	1181.68
382.84	1310.70
383.05	1269.74
383.26	1290.22
383.47	1306.60
383.68	1282.03
383.88	1177.58
384.09	1241.07
384.30	1259.50
384.51	1275.88
384.72	1314.80
384.93	1249.26
385.14	1267.69
385.35	1275.88
385.55	1294.32
385.76	1218.54
385.97	1359.85
386.18	1308.65
386.39	1275.88
386.60	1189.87
386.81	1294.32
387.02	1208.30
387.22	1259.50
387.43	1224.69
387.64	1243.12
387.85	1222.64
388.06	1263.60
388.27	1363.95
388.48	1183.73
388.68	1273.84
388.89	1224.69
389.10	1253.36
389.31	1216.49
389.52	1228.78
389.73	1185.77
389.93	1257.45
390.14	1322.99
390.35	1263.60
390.56	1222.64
390.77	1296.36
390.98	1251.31
391.18	1277.93
391.39	1255.40
391.60	1239.02
391.81	1300.46
392.02	1230.83
392.23	1282.03
392.43	1275.88
392.64	1271.79
392.85	1255.40
393.06	1265.64
393.27	1306.60
393.47	1243.12
393.68	1269.74
393.89	1257.45
394.10	1263.60
394.31	1249.26
394.52	1292.27
394.72	1275.88
394.93	1241.07
395.14	1318.89
395.35	1277.93
395.56	1167.34
395.76	1245.16
395.97	1259.50
396.18	1284.08
396.39	1228.78
396.60	1226.73
396.80	1288.17
397.01	1189.87
397.22	1189.87
397.43	1263.60
397.64	1224.69
397.84	1249.26
398.05	1337.32
398.26	1247.21
398.47	1337.32
398.67	1302.51
398.88	1277.93
399.09	1310.70
399.30	1230.83
399.51	1275.88
399.71	1245.16
399.92	1216.49
400.13	1226.73
400.34	1241.07
400.54	1257.45
400.75	1286.12
400.96	1259.50
401.17	1263.60
401.37	1230.83
401.58	1263.60
401.79	1345.52
402.00	1257.45
402.21	1236.97
402.41	1230.83
402.62	1267.69
402.83	1261.55
403.04	1282.03
403.24	1298.41
403.45	1253.36
403.66	1275.88
403.87	1310.70
404.07	1308.65
404.28	1288.17
404.49	1296.36
404.70	1282.03
404.90	1294.32
405.11	1288.17
405.32	1255.40
405.52	1214.45
405.73	1263.60
405.94	1290.22
406.15	1220.59
406.35	1253.36
406.56	1245.16
406.77	1183.73
406.98	1267.69
407.18	1349.61
407.39	1345.52
407.60	1275.88
407.80	1269.74
408.01	1232.88
408.22	1251.31
408.43	1261.55
408.63	1308.65
408.84	1273.84
409.05	1314.80
409.25	1284.08
409.46	1196.01
409.67	1294.32
409.88	1253.36
410.08	1261.55
410.29	1259.50
410.50	1263.60
410.70	1230.83
410.91	1279.98
411.12	1316.84
411.32	1253.36
411.53	1196.01
411.74	1241.07
411.95	1269.74
412.15	1239.02
412.36	1329.13
412.57	1296.36
412.77	1226.73
412.98	1277.93
413.19	1251.31
413.39	1265.64
413.60	1345.52
413.81	1296.36
414.01	1245.16
414.22	1316.84
414.43	1275.88
414.63	1255.40
414.84	1284.08
415.05	1314.80
415.25	1286.12
415.46	1284.08
415.67	1292.27
415.87	1249.26
416.08	1288.17
416.29	1296.36
416.49	1204.21
416.70	1218.54
416.91	1232.88
417.11	1284.08
417.32	1251.31
417.53	1249.26
417.73	1331.18
417.94	1216.49
418.15	1249.26
418.35	1255.40
418.56	1279.98
418.77	1230.83
418.97	1265.64
419.18	1351.66
419.38	1322.99
419.59	1206.25
419.80	1261.55
420.00	1275.88
420.21	1318.89
420.42	1294.32
420.62	1271.79
420.83	1282.03
421.04	1232.88
421.24	1312.75
421.45	1271.79
421.65	1263.60
421.86	1253.36
422.07	1234.93
422.27	1218.54
422.48	1288.17
422.69	1259.50
422.89	1316.84
423.10	1243.12
423.30	1245.16
423.51	1286.12
423.72	1267.69
423.92	1269.74
424.13	1265.64
424.33	1171.44
424.54	1325.04
424.75	1290.22
424.95	1302.51
425.16	1300.46
425.36	1267.69
425.57	1202.16
425.78	1267.69
425.98	1271.79
426.19	1343.47
426.39	1294.32
426.60	1245.16
426.81	1269.74
427.01	1234.93
427.22	1241.07
427.42	1234.93
427.63	1282.03
427.83	1277.93
428.04	1269.74
428.25	1318.89
428.45	1282.03
428.66	1241.07
428.86	1257.45
429.07	1204.21
429.28	1187.82
429.48	1275.88
429.69	1189.87
429.89	1269.74
430.10	1286.12
430.30	1249.26
430.51	1247.21
430.71	1308.65
430.92	1249.26
431.13	1298.41
431.33	1318.89
431.54	1298.41
431.74	1277.93
431.95	1253.36
432.15	1187.82
432.36	1308.65
432.56	1314.80
432.77	1320.94
432.98	1245.16
433.18	1234.93
433.39	1294.32
433.59	1251.31
433.80	1198.06
434.00	1277.93
434.21	1228.78
434.41	1302.51
434.62	1288.17
434.82	1279.98
435.03	1243.12
435.23	1294.32
435.44	1243.12
435.64	1269.74
435.85	1288.17
436.06	1298.41
436.26	1302.51
436.47	1261.55
436.67	1351.66
436.88	1230.83
437.08	1294.32
437.29	1206.25
437.49	1310.70
437.70	1263.60
437.90	1212.40
438.11	1245.16
438.31	1304.56
438.52	1347.56
438.72	1282.03
438.93	1245.16
439.13	1228.78
439.34	1282.03
439.54	1337.32
439.75	1325.04
439.95	1230.83
440.16	1241.07
440.36	1273.84
440.57	1310.70
440.77	1269.74
440.98	1245.16
441.18	1290.22
441.39	1282.03
441.59	1273.84
441.80	1286.12
442.00	1234.93
442.21	1241.07
442.41	1193.97
442.62	1263.60
442.82	1249.26
443.02	1292.27
443.23	1288.17
443.43	1263.60
443.64	1263.60
443.84	1241.07
444.05	1230.83
444.25	1282.03
444.46	1296.36
444.66	1341.42
444.87	1290.22
445.07	1304.56
445.28	1239.02
445.48	1257.45
445.69	1306.60
445.89	1306.60
446.09	1331.18
446.30	1241.07
446.50	1198.06
446.71	1269.74
446.91	1273.84
447.12	1224.69
447.32	1357.80
447.53	1226.73
447.73	1314.80
447.93	1181.68
448.14	1318.89
448.34	1310.70
448.55	1243.12
448.75	1263.60
448.96	1247.21
449.16	1263.60
449.36	1265.64
449.57	1306.60
449.77	1257.45
449.98	1224.69
450.18	1300.46
450.39	1286.12
450.59	1249.26
450.79	1296.36
451.00	1308.65
451.20	1275.88
451.41	1230.83
451.61	1265.64
451.81	1257.45
452.02	1251.31
452.22	1308.65
452.43	1259.50
452.63	1312.75
452.84	1322.99
453.04	1290.22
453.24	1286.12
453.45	1271.79
453.65	1228.78
453.86	1257.45
454.06	1273.84
454.26	1290.22
454.47	1230.83
454.67	1279.98
454.87	1292.27
455.08	1322.99
455.28	1236.97
455.49	1251.31
455.69	1224.69
455.89	1273.84
456.10	1341.42
456.30	1269.74
456.51	1341.42
456.71	1253.36
456.91	1275.88
457.12	1224.69
457.32	1302.51
457.52	1294.32
457.73	1296.36
457.93	1247.21
458.14	1224.69
458.34	1282.03
458.54	1261.55
458.75	1288.17
458.95	1239.02
459.15	1255.40
459.36	1261.55
459.56	1308.65
459.76	1296.36
459.97	1224.69
460.17	1277.93
460.37	1302.51
460.58	1271.79
460.78	1255.40
460.99	1257.45
461.19	1361.90
461.39	1306.60
461.60	1245.16
461.80	1304.56
462.00	1294.32
462.21	1277.93
462.41	1275.88
462.61	1296.36
462.82	1296.36
463.02	1402.86
463.22	1296.36
463.43	1220.59
463.63	1282.03
463.83	1243.12
464.04	1320.94
464.24	1277.93
464.44	1249.26
464.64	1298.41
464.85	1298.41
465.05	1353.71
465.25	1296.36
465.46	1273.84
465.66	1284.08
465.86	1275.88
466.07	1345.52
466.27	1294.32
466.47	1345.52
466.68	1269.74
466.88	1347.56
467.08	1265.64
467.29	1341.42
467.49	1253.36
467.69	1275.88
467.89	1177.58
468.10	1279.98
468.30	1261.55
468.50	1294.32
468.71	1267.69
468.91	1273.84
469.11	1282.03
469.31	1320.94
469.52	1347.56
469.72	1232.88
469.92	1286.12
470.13	1279.98
470.33	1261.55
470.53	1208.30
470.73	1253.36
470.94	1255.40
471.14	1198.06
471.34	1331.18
471.54	1294.32
471.75	1320.94
471.95	1312.75
472.15	1327.08
472.36	1251.31
472.56	1259.50
472.76	1294.32
472.96	1265.64
473.17	1200.11
473.37	1308.65
473.57	1386.47
473.77	1335.28
473.98	1277.93
474.18	1316.84
474.38	1216.49
474.58	1275.88
474.79	1255.40
474.99	1255.40
475.19	1220.59
475.39	1222.64
475.60	1308.65
475.80	1226.73
476.00	1290.22
476.20	1306.60
476.41	1294.32
476.61	1290.22
476.81	1282.03
477.01	1251.31
477.21	1355.76
477.42	1222.64
477.62	1275.88
477.82	1275.88
478.02	1312.75
478.23	1327.08
478.43	1228.78
478.63	1202.16
478.83	1302.51
479.03	1249.26
479.24	1189.87
479.44	1222.64
479.64	1239.02
479.84	1216.49
480.04	1257.45
480.25	1333.23
480.45	1255.40
480.65	1267.69
480.85	1232.88
481.06	1335.28
481.26	1345.52
481.46	1290.22
481.66	1259.50
481.86	1286.12
482.06	1214.45
482.27	1320.94
482.47	1239.02
482.67	1222.64
482.87	1243.12
483.07	1243.12
483.28	1294.32
483.48	1245.16
483.68	1290.22
483.88	1292.27
484.08	1288.17
484.29	1286.12
484.49	1392.62
484.69	1224.69
484.89	1216.49
485.09	1273.84
485.29	1253.36
485.50	1290.22
485.70	1337.32
485.90	1232.88
486.10	1259.50
486.30	1306.60
486.50	1263.60
486.71	1198.06
486.91	1318.89
487.11	1273.84
487.31	1239.02
487.51	1304.56
487.71	1224.69
487.91	1286.12
488.12	1333.23
488.32	1239.02
488.52	1275.88
488.72	1380.33
488.92	1239.02
489.12	1243.12
489.32	1325.04
489.53	1273.84
489.73	1269.74
489.93	1277.93
490.13	1234.93
490.33	1304.56
490.53	1257.45
490.73	1277.93
490.94	1271.79
491.14	1292.27
491.34	1271.79
491.54	1359.85
491.74	1359.85
491.94	1282.03
492.14	1322.99
492.34	1267.69
492.54	1216.49
492.75	1294.32
492.95	1322.99
493.15	1322.99
493.35	1251.31
493.55	1253.36
493.75	1279.98
493.95	1245.16
494.15	1259.50
494.35	1265.64
494.56	1267.69
494.76	1279.98
494.96	1257.45
495.16	1302.51
495.36	1265.64
495.56	1251.31
495.76	1277.93
495.96	1302.51
496.16	1259.50
496.36	1249.26
496.56	1206.25
496.77	1288.17
496.97	1327.08
497.17	1372.14
497.37	1292.27
497.57	1273.84
497.77	1236.97
497.97	1220.59
498.17	1269.74
498.37	1249.26
498.57	1224.69
498.77	1273.84
498.97	1296.36
499.17	1226.73
499.38	1320.94
499.58	1257.45
499.78	1247.21
499.98	1275.88
500.18	1302.51
500.38	1298.41
500.58	1335.28
500.78	1263.60
500.98	1300.46
501.18	1312.75
501.38	1271.79
501.58	1273.84
501.78	1247.21
501.98	1253.36
502.18	1290.22
502.38	1275.88
502.58	1269.74
502.78	1277.93
502.98	1214.45
503.18	1234.93
503.38	1228.78
503.59	1249.26
503.79	1300.46
503.99	1288.17
504.19	1271.79
504.39	1329.13
504.59	1300.46
504.79	1308.65
504.99	1292.27
505.19	1206.25
505.39	1245.16
505.59	1279.98
505.79	1279.98
505.99	1232.88
506.19	1241.07
506.39	1212.40
506.59	1273.84
506.79	1290.22
506.99	1312.75
507.19	1368.04
507.39	1255.40
507.59	1251.31
507.79	1247.21
507.99	1198.06
508.19	1236.97
508.39	1247.21
508.59	1261.55
508.79	1304.56
508.99	1249.26
509.19	1292.27
509.39	1230.83
509.59	1236.97
509.79	1351.66
509.99	1255.40
510.19	1263.60
510.39	1296.36
510.59	1257.45
510.79	1294.32
510.99	1275.88
511.19	1271.79
511.39	1320.94
511.59	1304.56
511.79	1300.46
511.99	1288.17
512.19	1265.64
512.38	1239.02
512.58	1288.17
512.78	1214.45
512.98	1347.56
513.18	1247.21
513.38	1275.88
513.58	1302.51
513.78	1298.41
513.98	1273.84
514.18	1306.60
514.38	1224.69
514.58	1245.16
514.78	1294.32
514.98	1275.88
515.18	1298.41
515.38	1230.83
515.58	1255.40
515.78	1292.27
515.98	1279.98
516.18	1267.69
516.38	1271.79
516.57	1294.32
516.77	1247.21
516.97	1265.64
517.17	1284.08
517.37	1249.26
517.57	1210.35
517.77	1279.98
517.97	1271.79
518.17	1300.46
518.37	1351.66
518.57	1273.84
518.77	1279.98
518.97	1296.36
519.16	1282.03
519.36	1269.74
519.56	1372.14
519.76	1224.69
519.96	1327.08
520.16	1282.03
520.36	1320.94
520.56	1267.69
520.76	1298.41
520.96	1279.98
521.16	1290.22
521.35	1292.27
521.55	1306.60
521.75	1300.46
521.95	1343.47
522.15	1265.64
522.35	1273.84
522.55	1363.95
522.75	1271.79
522.95	1255.40
523.14	1275.88
523.34	1300.46
523.54	1277.93
523.74	1204.21
523.94	1277.93
524.14	1265.64
524.34	1327.08
524.54	1273.84
524.73	1308.65
524.93	1273.84
525.13	1329.13
525.33	1304.56
525.53	1234.93
525.73	1241.07
525.93	1259.50
526.13	1286.12
526.32	1214.45
526.52	1218.54
526.72	1267.69
526.92	1327.08
527.12	1275.88
527.32	1298.41
527.52	1214.45
527.71	1298.41
527.91	1255.40
528.11	1265.64
528.31	1222.64
528.51	1232.88
528.71	1341.42
528.90	1220.59
529.10	1187.82
529.30	1261.55
529.50	1284.08
529.70	1300.46
529.90	1208.30
530.09	1279.98
530.29	1247.21
530.49	1327.08
530.69	1306.60
530.89	1232.88
531.09	1296.36
531.28	1288.17
531.48	1282.03
531.68	1275.88
531.88	1236.97
532.08	1318.89
532.28	1310.70
532.47	1341.42
532.67	1271.79
532.87	1284.08
533.07	1200.11
533.27	1312.75
533.46	1361.90
533.66	1245.16
533.86	1298.41
534.06	1265.64
534.26	1286.12
534.45	1267.69
534.65	1279.98
534.85	1310.70
535.05	1208.30
535.25	1298.41
535.44	1253.36
535.64	1284.08
535.84	1204.21
536.04	1236.97
536.24	1277.93
536.43	1314.80
536.63	1267.69
536.83	1228.78
537.03	1259.50
537.22	1181.68
537.42	1261.55
537.62	1239.02
537.82	1224.69
538.02	1187.82
538.21	1261.55
538.41	1261.55
538.61	1292.27
538.81	1327.08
539.00	1355.76
539.20	1251.31
539.40	1271.79
539.60	1259.50
539.79	1361.90
539.99	1271.79
540.19	1279.98
540.39	1298.41
540.58	1325.04
540.78	1275.88
540.98	1296.36
541.18	1269.74
541.37	1279.98
541.57	1253.36
541.77	1265.64
541.97	1271.79
542.16	1292.27
542.36	1232.88
542.56	1335.28
542.76	1294.32
542.95	1232.88
543.15	1208.30
543.35	1277.93
543.54	1247.21
543.74	1216.49
543.94	1282.03
544.14	1296.36
544.33	1206.25
544.53	1314.80
544.73	1249.26
544.93	1273.84
545.12	1312.75
545.32	1333.23
545.52	1257.45
545.71	1241.07
545.91	1296.36
546.11	1265.64
546.30	1290.22
546.50	1284.08
546.70	1331.18
546.90	1357.80
547.09	1300.46
547.29	1263.60
547.49	1298.41
547.68	1277.93
547.88	1288.17
548.08	1308.65
548.27	1343.47
548.47	1325.04
548.67	1284.08
548.87	1327.08
549.06	1249.26
549.26	1339.37
549.46	1251.31
549.65	1335.28
549.85	1236.97
550.05	1327.08
550.24	1275.88
550.44	1363.95
550.64	1292.27
550.83	1339.37
551.03	1284.08
551.23	1259.50
551.42	1318.89
551.62	1275.88
551.82	1331.18
552.01	1298.41
552.21	1298.41
552.41	1249.26
552.60	1310.70
552.80	1396.71
553.00	1302.51
553.19	1316.84
553.39	1245.16
553.59	1216.49
553.78	1279.98
553.98	1265.64
554.17	1267.69
554.37	1320.94
554.57	1284.08
554.76	1312.75
554.96	1282.03
555.16	1325.04
555.35	1288.17
555.55	1304.56
555.75	1230.83
555.94	1239.02
556.14	1292.27
556.33	1275.88
556.53	1282.03
556.73	1271.79
556.92	1269.74
557.12	1294.32
557.32	1279.98
557.51	1353.71
557.71	1363.95
557.90	1327.08
558.10	1296.36
558.30	1314.80
558.49	1265.64
558.69	1357.80
558.88	1320.94
559.08	1284.08
559.28	1277.93
559.47	1271.79
559.67	1300.46
559.86	1279.98
560.06	1347.56
560.26	1277.93
560.45	1282.03
560.65	1359.85
560.84	1327.08
561.04	1325.04
561.24	1249.26
561.43	1249.26
561.63	1318.89
561.82	1298.41
562.02	1349.61
562.22	1200.11
562.41	1253.36
562.61	1263.60
562.80	1277.93
563.00	1339.37
563.19	1271.79
563.39	1288.17
563.59	1232.88
563.78	1357.80
563.98	1322.99
564.17	1396.71
564.37	1253.36
564.56	1210.35
564.76	1331.18
564.96	1320.94
565.15	1271.79
565.35	1329.13
565.54	1288.17
565.74	1220.59
565.93	1263.60
566.13	1282.03
566.32	1263.60
566.52	1286.12
566.71	1286.12
566.91	1322.99
567.11	1261.55
567.30	1316.84
567.50	1232.88
567.69	1277.93
567.89	1288.17
568.08	1308.65
568.28	1306.60
568.47	1255.40
568.67	1275.88
568.86	1292.27
569.06	1361.90
569.25	1257.45
569.45	1245.16
569.64	1282.03
569.84	1239.02
570.04	1370.09
570.23	1247.21
570.43	1294.32
570.62	1249.26
570.82	1304.56
571.01	1269.74
571.21	1206.25
571.40	1331.18
571.60	1308.65
571.79	1212.40
571.99	1269.74
572.18	1249.26
572.38	1314.80
572.57	1318.89
572.77	1314.80
572.96	1359.85
573.16	1269.74
573.35	1347.56
573.55	1314.80
573.74	1261.55
573.94	1331.18
574.13	1337.32
574.33	1265.64
574.52	1296.36
574.71	1200.11
574.91	1292.27
575.10	1284.08
575.30	1251.31
575.49	1236.97
575.69	1196.01
575.88	1327.08
576.08	1253.36
576.27	1316.84
576.47	1302.51
576.66	1259.50
576.86	1265.64
577.05	1210.35
577.25	1333.23
577.44	1284.08
577.64	1284.08
577.83	1329.13
578.02	1243.12
578.22	1271.79
578.41	1298.41
578.61	1304.56
578.80	1273.84
579.00	1290.22
579.19	1294.32
579.39	1325.04
579.58	1263.60
579.77	1290.22
579.97	1327.08
580.16	1282.03
580.36	1314.80
580.55	1331.18
580.75	1306.60
580.94	1296.36
581.13	1329.13
581.33	1249.26
581.52	1163.25
581.72	1331.18
581.91	1253.36
582.11	1265.64
582.30	1265.64
582.49	1267.69
582.69	1333.23
582.88	1247.21
583.08	1306.60
583.27	1247.21
583.47	1275.88
583.66	1335.28
583.85	1259.50
584.05	1239.02
584.24	1339.37
584.44	1327.08
584.63	1290.22
584.82	1312.75
585.02	1230.83
585.21	1261.55
585.41	1255.40
585.60	1273.84
585.79	1257.45
585.99	1304.56
586.18	1292.27
586.37	1337.32
586.57	1294.32
586.76	1243.12
586.96	1300.46
587.15	1331.18
587.34	1282.03
587.54	1271.79
587.73	1306.60
587.93	1335.28
588.12	1261.55
588.31	1351.66
588.51	1320.94
588.70	1361.90
588.89	1259.50
589.09	1294.32
589.28	1241.07
589.47	1290.22
589.67	1208.30
589.86	1296.36
590.06	1265.64
590.25	1271.79
590.44	1251.31
590.64	1304.56
590.83	1284.08
591.02	1286.12
591.22	1277.93
591.41	1257.45
591.60	1318.89
591.80	1298.41
591.99	1298.41
592.18	1228.78
592.38	1347.56
592.57	1279.98
592.76	1277.93
592.96	1286.12
593.15	1310.70
593.34	1222.64
593.54	1310.70
593.73	1394.67
593.92	1263.60
594.12	1300.46
594.31	1300.46
594.50	1402.86
594.70	1294.32
594.89	1265.64
595.08	1290.22
595.28	1255.40
595.47	1288.17
595.66	1286.12
595.86	1284.08
596.05	1230.83
596.24	1267.69
596.43	1265.64
596.63	1306.60
596.82	1228.78
597.01	1245.16
597.21	1325.04
597.40	1345.52
597.59	1304.56
597.79	1290.22
597.98	1259.50
598.17	1279.98
598.36	1351.66
598.56	1218.54
598.75	1263.60
598.94	1267.69
599.14	1333.23
599.33	1294.32
599.52	1337.32
599.71	1196.01
599.91	1286.12
600.10	1288.17
600.29	1306.60
600.48	1236.97
600.68	1267.69
600.87	1261.55
601.06	1314.80
601.26	1253.36
601.45	1273.84
601.64	1243.12
601.83	1322.99
602.03	1282.03
602.22	1306.60
602.41	1269.74
602.60	1361.90
602.80	1331.18
602.99	1259.50
603.18	1322.99
603.37	1243.12
603.57	1220.59
603.76	1333.23
603.95	1290.22
604.14	1298.41
604.34	1257.45
604.53	1296.36
604.72	1335.28
604.91	1327.08
605.10	1345.52
605.30	1273.84
605.49	1282.03
605.68	1314.80
605.87	1286.12
606.07	1282.03
606.26	1261.55
606.45	1310.70
606.64	1232.88
606.84	1282.03
607.03	1282.03
607.22	1302.51
607.41	1290.22
607.60	1224.69
607.80	1193.97
607.99	1247.21
608.18	1310.70
608.37	1275.88
608.56	1187.82
608.76	1239.02
608.95	1267.69
609.14	1265.64
609.33	1228.78
609.52	1271.79
609.72	1325.04
609.91	1265.64
610.10	1288.17
610.29	1273.84
610.48	1288.17
610.68	1284.08
610.87	1271.79
611.06	1298.41
611.25	1322.99
611.44	1271.79
611.63	1282.03
611.83	1282.03
612.02	1302.51
612.21	1306.60
612.40	1257.45
612.59	1286.12
612.79	1318.89
612.98	1269.74
613.17	1312.75
613.36	1347.56
613.55	1265.64
613.74	1253.36
613.93	1271.79
614.13	1282.03
614.32	1306.60
614.51	1298.41
614.70	1245.16
614.89	1322.99
615.08	1263.60
615.28	1282.03
615.47	1228.78
615.66	1296.36
615.85	1304.56
616.04	1298.41
616.23	1181.68
616.42	1298.41
616.62	1255.40
616.81	1322.99
617.00	1284.08
617.19	1361.90
617.38	1306.60
617.57	1312.75
617.76	1230.83
617.95	1232.88
618.15	1216.49
618.34	1245.16
618.53	1312.75
618.72	1243.12
618.91	1255.40
619.10	1298.41
619.29	1357.80
619.48	1259.50
619.68	1306.60
619.87	1265.64
620.06	1296.36
620.25	1329.13
620.44	1302.51
620.63	1239.02
620.82	1255.40
621.01	1222.64
621.20	1292.27
621.39	1241.07
621.59	1271.79
621.78	1196.01
621.97	1271.79
622.16	1314.80
622.35	1236.97
622.54	1314.80
622.73	1271.79
622.92	1257.45
623.11	1314.80
623.30	1206.25
623.49	1273.84
623.68	1265.64
623.88	1279.98
624.07	1337.32
624.26	1298.41
624.45	1288.17
624.64	1327.08
624.83	1265.64
625.02	1368.04
625.21	1263.60
625.40	1351.66
625.59	1339.37
625.78	1273.84
625.97	1329.13
626.16	1312.75
626.35	1286.12
626.54	1279.98
626.74	1335.28
626.93	1239.02
627.12	1275.88
627.31	1322.99
627.50	1337.32
627.69	1296.36
627.88	1279.98
628.07	1241.07
628.26	1353.71
628.45	1292.27
628.64	1277.93
628.83	1304.56
629.02	1245.16
629.21	1288.17
629.40	1308.65
629.59	1284.08
629.78	1263.60
629.97	1294.32
630.16	1284.08
630.35	1292.27
630.54	1308.65
630.73	1359.85
630.92	1279.98
631.11	1300.46
631.30	1312.75
631.49	1386.47
631.68	1601.51
631.87	2074.59
632.06	3262.41
632.25	2633.69
632.44	2928.60
632.63	2818.00
632.82	2912.21
633.01	4212.67
633.20	6754.20
633.39	8200.07
633.58	9355.12
633.77	17788.66
633.96	36240.86
634.15	59722.86
634.34	65535.00
634.53	63566.90
634.72	44823.89
634.91	26093.17
635.10	14708.51
635.29	8339.33
635.48	5038.00
635.67	3170.26
635.86	2086.88
636.05	1742.82
636.24	1554.41
636.43	1421.29
636.62	1372.14
636.81	1322.99
637.00	1382.38
637.19	1318.89
637.38	1343.47
637.57	1290.22
637.76	1316.84
637.95	1306.60
638.14	1353.71
638.33	1261.55
638.52	1239.02
638.71	1251.31
638.89	1290.22
639.08	1259.50
639.27	1339.37
639.46	1269.74
639.65	1273.84
639.84	1189.87
640.03	1347.56
640.22	1275.88
640.41	1282.03
640.60	1265.64
640.79	1335.28
640.98	1249.26
641.17	1302.51
641.36	1288.17
641.55	1265.64
641.74	1232.88
641.92	1288.17
642.11	1296.36
642.30	1298.41
642.49	1290.22
642.68	1310.70
642.87	1222.64
643.06	1302.51
643.25	1343.47
643.44	1314.80
643.63	1310.70
643.82	1347.56
644.00	1228.78
644.19	1316.84
644.38	1304.56
644.57	1296.36
644.76	1261.55
644.95	1253.36
645.14	1300.46
645.33	1368.04
645.52	1224.69
645.71	1267.69
645.89	1298.41
646.08	1265.64
646.27	1247.21
646.46	1222.64
646.65	1273.84
646.84	1243.12
647.03	1265.64
647.22	1232.88
647.40	1271.79
647.59	1265.64
647.78	1279.98
647.97	1339.37
648.16	1294.32
648.35	1210.35
648.54	1265.64
648.73	1302.51
648.91	1261.55
649.10	1257.45
649.29	1320.94
649.48	1288.17
649.67	1234.93
649.86	1290.22
650.05	1322.99
650.23	1290.22
650.42	1296.36
650.61	1290.22
650.80	1269.74
650.99	1318.89
651.18	1214.45
651.36	1255.40
651.55	1247.21
651.74	1353.71
651.93	1265.64
652.12	1296.36
652.31	1232.88
652.49	1325.04
652.68	1275.88
652.87	1378.28
653.06	1234.93
653.25	1243.12
653.44	1263.60
653.62	1306.60
653.81	1202.16
654.00	1310.70
654.19	1251.31
654.38	1282.03
654.56	1212.40
654.75	1243.12
654.94	1300.46
655.13	1339.37
655.32	1296.36
655.51	1304.56
655.69	1273.84
655.88	1214.45
656.07	1331.18
656.26	1322.99
656.45	1245.16
656.63	1275.88
656.82	1284.08
657.01	1292.27
657.20	1228.78
657.38	1265.64
657.57	1273.84
657.76	1296.36
657.95	1331.18
658.14	1230.83
658.32	1257.45
658.51	1196.01
658.70	1298.41
658.89	1277.93
659.08	1282.03
659.26	1245.16
659.45	1288.17
659.64	1288.17
659.83	1216.49
660.01	1275.88
660.20	1279.98
660.39	1284.08
660.58	1228.78
660.76	1288.17
660.95	1327.08
661.14	1275.88
661.33	1275.88
661.51	1263.60
661.70	1333.23
661.89	1351.66
662.08	1284.08
662.26	1277.93
662.45	1310.70
662.64	1304.56
662.83	1234.93
663.01	1339.37
663.20	1341.42
663.39	1357.80
663.58	1271.79
663.76	1308.65
663.95	1322.99
664.14	1277.93
664.32	1269.74
664.51	1290.22
664.70	1269.74
664.89	1265.64
665.07	1290.22
665.26	1320.94
665.45	1245.16
665.64	1335.28
665.82	1316.84
666.01	1236.97
666.20	1263.60
666.38	1351.66
666.57	1290.22
666.76	1279.98
666.95	1269.74
667.13	1263.60
667.32	1247.21
667.51	1296.36
667.69	1314.80
667.88	1306.60
668.07	1316.84
668.25	1253.36
668.44	1277.93
668.63	1249.26
668.81	1279.98
669.00	1245.16
669.19	1349.61
669.38	1312.75
669.56	1288.17
669.75	1284.08
669.94	1286.12
670.12	1308.65
670.31	1275.88
670.50	1310.70
670.68	1298.41
670.87	1325.04
671.06	1245.16
671.24	1286.12
671.43	1322.99
671.62	1314.80
671.80	1206.25
671.99	1302.51
672.18	1284.08
672.36	1275.88
672.55	1343.47
672.74	1220.59
672.92	1269.74
673.11	1288.17
673.29	1286.12
673.48	1296.36
673.67	1253.36
673.85	1239.02
674.04	1322.99
674.23	1314.80
674.41	1320.94
674.60	1214.45
674.79	1243.12
674.97	1298.41
675.16	1351.66
675.34	1322.99
675.53	1290.22
675.72	1253.36
675.90	1206.25
676.09	1310.70
676.28	1275.88
676.46	1271.79
676.65	1224.69
676.83	1284.08
677.02	1286.12
677.21	1263.60
677.39	1279.98
677.58	1265.64
677.77	1279.98
677.95	1230.83
678.14	1210.35
678.32	1247.21
678.51	1290.22
678.70	1224.69
678.88	1294.32
679.07	1251.31
679.25	1208.30
679.44	1210.35
679.63	1232.88
679.81	1308.65
680.00	1263.60
680.18	1245.16
680.37	1318.89
680.55	1288.17
680.74	1236.97
680.93	1298.41
681.11	1298.41
681.30	1216.49
681.48	1253.36
681.67	1222.64
681.85	1224.69
682.04	1353.71
682.23	1333.23
682.41	1341.42
682.60	1247.21
682.78	1282.03
682.97	1236.97
683.15	1243.12
683.34	1318.89
683.53	1249.26
683.71	1210.35
683.90	1267.69
684.08	1236.97
684.27	1282.03
684.45	1247.21
684.64	1222.64
684.82	1284.08
685.01	1249.26
685.19	1339.37
685.38	1251.31
685.57	1269.74
685.75	1306.60
685.94	1282.03
686.12	1282.03
686.31	1220.59
686.49	1230.83
686.68	1292.27
686.86	1255.40
687.05	1269.74
687.23	1306.60
687.42	1259.50
687.60	1378.28
687.79	1263.60
687.97	1198.06
688.16	1255.40
688.34	1218.54
688.53	1273.84
688.71	1318.89
688.90	1327.08
689.08	1261.55
689.27	1218.54
689.45	1312.75
689.64	1290.22
689.82	1232.88
690.01	1327.08
690.19	1245.16
690.38	1279.98
690.56	1306.60
690.75	1304.56
690.93	1275.88
691.12	1210.35
691.30	1232.88
691.49	1337.32
691.67	1271.79
691.86	1251.31
692.04	1368.04
692.23	1243.12
692.41	1277.93
692.60	1279.98
692.78	1335.28
692.97	1294.32
693.15	1277.93
693.34	1234.93
693.52	1230.83
693.71	1257.45
693.89	1271.79
694.08	1243.12
694.26	1347.56
694.44	1236.97
694.63	1290.22
694.81	1247.21
695.00	1251.31
695.18	1251.31
695.37	1206.25
695.55	1249.26
695.74	1241.07
695.92	1255.40
696.10	1282.03
696.29	1230.83
696.47	1239.02
696.66	1290.22
696.84	1279.98
697.03	1210.35
697.21	1308.65
697.40	1380.33
697.58	1294.32
697.76	1320.94
697.95	1253.36
698.13	1263.60
698.32	1282.03
698.50	1255.40
698.68	1284.08
698.87	1253.36
699.05	1284.08
699.24	1300.46
699.42	1314.80
699.61	1249.26
699.79	1267.69
699.97	1275.88
700.16	1230.83
700.34	1275.88
700.53	1224.69
700.71	1245.16
700.89	1273.84
701.08	1310.70
701.26	1273.84
701.45	1294.32
701.63	1251.31
701.81	1239.02
702.00	1228.78
702.18	1261.55
702.37	1267.69
702.55	1224.69
702.73	1368.04
702.92	1261.55
703.10	1296.36
703.28	1253.36
703.47	1245.16
703.65	1249.26
703.84	1341.42
704.02	1302.51
704.20	1267.69
704.39	1247.21
704.57	1282.03
704.75	1220.59
704.94	1271.79
705.12	1325.04
705.30	1228.78
705.49	1304.56
705.67	1210.35
705.86	1251.31
706.04	1228.78
706.22	1329.13
706.41	1261.55
706.59	1212.40
706.77	1249.26
706.96	1220.59
707.14	1310.70
707.32	1239.02
707.51	1241.07
707.69	1249.26
707.87	1216.49
708.06	1282.03
708.24	1275.88
708.42	1232.88
708.61	1251.31
708.79	1261.55
708.97	1249.26
709.16	1277.93
709.34	1325.04
709.52	1286.12
709.71	1206.25
709.89	1284.08
710.07	1329.13
710.26	1208.30
710.44	1236.97
710.62	1288.17
710.80	1265.64
710.99	1294.32
711.17	1333.23
711.35	1230.83
711.54	1277.93
711.72	1265.64
711.90	1347.56
712.09	1277.93
712.27	1312.75
712.45	1290.22
712.63	1265.64
712.82	1220.59
713.00	1339.37
713.18	1253.36
713.37	1320.94
713.55	1243.12
713.73	1296.36
713.91	1273.84
714.10	1259.50
714.28	1232.88
714.46	1284.08
714.65	1261.55
714.83	1292.27
715.01	1241.07
715.19	1277.93
715.38	1294.32
715.56	1279.98
715.74	1249.26
715.92	1306.60
716.11	1368.04
716.29	1259.50
716.47	1234.93
716.65	1218.54
716.84	1304.56
717.02	1316.84
717.20	1296.36
717.38	1187.82
717.57	1273.84
717.75	1300.46
717.93	1263.60
718.11	1259.50
718.30	1261.55
718.48	1380.33
718.66	1226.73
718.84	1222.64
719.03	1310.70
719.21	1308.65
719.39	1261.55
719.57	1267.69
719.75	1316.84
719.94	1222.64
720.12	1351.66
720.30	1298.41
720.48	1290.22
720.67	1294.32
720.85	1247.21
721.03	1288.17
721.21	1241.07
721.39	1284.08
721.58	1261.55
721.76	1282.03
721.94	1327.08
722.12	1236.97
722.30	1249.26
722.49	1257.45
722.67	1236.97
722.85	1234.93
723.03	1247.21
723.21	1253.36
723.40	1271.79
723.58	1333.23
723.76	1261.55
723.94	1273.84
724.12	1273.84
724.30	1245.16
724.49	1220.59
724.67	1298.41
724.85	1232.88
725.03	1273.84
725.21	1222.64
725.40	1263.60
725.58	1275.88
725.76	1269.74
725.94	1294.32
726.12	1247.21
726.30	1269.74
726.49	1236.97
726.67	1218.54
726.85	1320.94
727.03	1243.12
727.21	1314.80
727.39	1275.88
727.57	1273.84
727.76	1308.65
727.94	1226.73
728.12	1288.17
728.30	1308.65
728.48	1226.73
728.66	1273.84
728.84	1255.40
729.03	1320.94
729.21	1232.88
729.39	1304.56
729.57	1378.28
729.75	1241.07
729.93	1314.80
730.11	1329.13
730.30	1208.30
730.48	1267.69
730.66	1312.75
730.84	1269.74
731.02	1300.46
731.20	1241.07
731.38	1284.08
731.56	1359.85
731.74	1222.64
731.93	1322.99
732.11	1253.36
732.29	1263.60
732.47	1343.47
732.65	1304.56
732.83	1325.04
733.01	1312.75
733.19	1210.35
733.37	1290.22
733.56	1273.84
733.74	1228.78
733.92	1243.12
734.10	1288.17
734.28	1286.12
734.46	1288.17
734.64	1183.73
734.82	1275.88
735.00	1236.97
735.18	1304.56
735.36	1355.76
735.54	1208.30
735.73	1218.54
735.91	1243.12
736.09	1312.75
736.27	1247.21
736.45	1257.45
736.63	1286.12
736.81	1316.84
736.99	1208.30
737.17	1282.03
737.35	1249.26
737.53	1200.11
737.71	1292.27
737.89	1253.36
738.07	1226.73
738.25	1269.74
738.43	1265.64
738.61	1284.08
738.80	1243.12
738.98	1294.32
739.16	1294.32
739.34	1259.50
739.52	1282.03
739.70	1228.78
739.88	1271.79
740.06	1284.08
740.24	1351.66
740.42	1347.56
740.60	1300.46
740.78	1370.09
740.96	1204.21
741.14	1316.84
741.32	1312.75
741.50	1277.93
741.68	1245.16
741.86	1284.08
742.04	1290.22
742.22	1249.26
742.40	1232.88
742.58	1263.60
742.76	1206.25
742.94	1275.88
743.12	1327.08
743.30	1236.97
743.48	1200.11
743.66	1312.75
743.84	1298.41
744.02	1257.45
744.20	1249.26
744.38	1257.45
744.56	1271.79
744.74	1257.45
744.92	1331.18
745.10	1290.22
745.28	1282.03
745.46	1304.56
745.64	1249.26
745.82	1306.60
746.00	1277.93
746.18	1302.51
746.36	1241.07
746.54	1273.84
746.72	1302.51
746.90	1284.08
747.08	1257.45
747.26	1294.32
747.44	1216.49
747.62	1253.36
747.80	1353.71
747.98	1269.74
748.15	1339.37
748.33	1322.99
748.51	1236.97
748.69	1253.36
748.87	1300.46
749.05	1292.27
749.23	1339.37
749.41	1300.46
749.59	1183.73
749.77	1181.68
749.95	1290.22
750.13	1239.02
750.31	1271.79
750.49	1243.12
750.67	1290.22
750.85	1200.11
751.03	1300.46
751.20	1279.98
751.38	1267.69
751.56	1294.32
751.74	1228.78
751.92	1314.80
752.10	1339.37
752.28	1300.46
752.46	1243.12
752.64	1296.36
752.82	1210.35
753.00	1288.17
753.18	1265.64
753.35	1335.28
753.53	1302.51
753.71	1308.65
753.89	1275.88
754.07	1224.69
754.25	1322.99
754.43	1282.03
754.61	1230.83
754.79	1239.02
754.97	1236.97
755.14	1298.41
755.32	1306.60
755.50	1265.64
755.68	1294.32
755.86	1196.01
756.04	1247.21
756.22	1255.40
756.40	1241.07
756.57	1320.94
756.75	1206.25
756.93	1263.60
757.11	1306.60
757.29	1271.79
757.47	1288.17
757.65	1318.89
757.82	1218.54
758.00	1196.01
758.18	1286.12
758.36	1282.03
758.54	1318.89
758.72	1257.45
758.90	1224.69
759.07	1275.88
759.25	1232.88
759.43	1292.27
759.61	1216.49
759.79	1329.13
759.97	1241.07
760.15	1294.32
760.32	1191.92
760.50	1271.79
760.68	1228.78
760.86	1271.79
761.04	1236.97
761.22	1310.70
761.39	1302.51
761.57	1232.88
761.75	1247.21
761.93	1253.36
762.11	1249.26
762.28	1290.22
762.46	1265.64
762.64	1329.13
762.82	1347.56
763.00	1286.12
763.18	1277.93
763.35	1275.88
763.53	1239.02
763.71	1290.22
763.89	1275.88
764.07	1275.88
764.24	1191.92
764.42	1236.97
764.60	1261.55
764.78	1308.65
764.96	1279.98
765.13	1363.95
765.31	1275.88
765.49	1271.79
765.67	1224.69
765.84	1236.97
766.02	1263.60
766.20	1216.49
766.38	1322.99
766.56	1277.93
766.73	1239.02
766.91	1257.45
767.09	1224.69
767.27	1322.99
767.44	1239.02
767.62	1269.74
767.80	1345.52
767.98	1218.54
768.15	1216.49
768.33	1212.40
768.51	1279.98
768.69	1298.41
768.87	1314.80
769.04	1269.74
769.22	1228.78
769.40	1353.71
769.58	1249.26
769.75	1284.08
769.93	1304.56
770.11	1183.73
770.28	1282.03
770.46	1288.17
770.64	1265.64
770.82	1234.93
770.99	1200.11
771.17	1286.12
771.35	1279.98
771.53	1275.88
771.70	1228.78
771.88	1316.84
772.06	1259.50
772.23	1310.70
772.41	1304.56
772.59	1245.16
772.77	1206.25
772.94	1296.36
773.12	1191.92
773.30	1171.44
773.47	1261.55
773.65	1208.30
773.83	1310.70
774.01	1322.99
774.18	1284.08
774.36	1308.65
774.54	1230.83
774.71	1269.74
774.89	1327.08
775.07	1279.98
775.24	1288.17
775.42	1288.17
775.60	1189.87
775.78	1257.45
775.95	1343.47
776.13	1308.65
776.31	1308.65
776.48	1284.08
776.66	1302.51
776.84	1228.78
777.01	1206.25
777.19	1253.36
777.37	1232.88
777.54	1282.03
777.72	1296.36
777.90	1275.88
778.07	1239.02
778.25	1234.93
778.43	1241.07
778.60	1253.36
778.78	1224.69
778.96	1275.88
779.13	1271.79
779.31	1261.55
779.49	1206.25
779.66	1290.22
779.84	1206.25
780.01	1316.84
780.19	1255.40
780.37	1316.84
780.54	1214.45
780.72	1339.37
780.90	1257.45
781.07	1316.84
781.25	1263.60
781.43	1214.45
781.60	1263.60
781.78	1214.45
781.95	1288.17
782.13	1216.49
782.31	1249.26
782.48	1216.49
782.66	1273.84
782.83	1273.84
783.01	1290.22
783.19	1261.55
783.36	1273.84
783.54	1312.75
783.72	1243.12
783.89	1214.45
784.07	1282.03
784.24	1296.36
784.42	1253.36
784.60	1341.42
784.77	1290.22
784.95	1267.69
785.12	1275.88
785.30	1247.21
785.47	1286.12
785.65	1269.74
785.83	1222.64
786.00	1206.25
786.18	1304.56
786.35	1296.36
786.53	1279.98
786.71	1239.02
786.88	1255.40
787.06	1212.40
787.23	1241.07
787.41	1298.41
787.58	1234.93
787.76	1271.79
787.94	1214.45
788.11	1251.31
788.29	1310.70
788.46	1253.36
788.64	1226.73
788.81	1277.93
788.99	1236.97
789.16	1243.12
789.34	1312.75
789.52	1269.74
789.69	1290.22
789.87	1216.49
790.04	1206.25
790.22	1216.49
790.39	1288.17
790.57	1282.03
790.74	1269.74
790.92	1261.55
791.09	1228.78
791.27	1208.30
791.44	1284.08
791.62	1288.17
791.79	1232.88
791.97	1273.84
792.15	1261.55
792.32	1257.45
792.50	1298.41
792.67	1196.01
792.85	1230.83
793.02	1306.60
793.20	1243.12
793.37	1318.89
793.55	1204.21
793.72	1306.60
793.90	1265.64
794.07	1228.78
794.25	1216.49
794.42	1269.74
794.60	1279.98
794.77	1234.93
794.95	1263.60
795.12	1263.60
795.30	1263.60
795.47	1286.12
795.65	1304.56
795.82	1224.69
796.00	1298.41
796.17	1173.49
796.34	1239.02
796.52	1253.36
796.69	1243.12
796.87	1325.04
797.04	1255.40
797.22	1322.99
797.39	1265.64
797.57	1288.17
797.74	1263.60
797.92	1267.69
798.09	1179.63
798.27	1187.82
798.44	1292.27
798.62	1277.93
798.79	1296.36
798.96	1277.93
799.14	1249.26
799.31	1329.13
799.49	1265.64
799.66	1253.36
799.84	1298.41
800.01	1259.50
800.19	1286.12
800.36	1308.65
800.53	1220.59
800.71	1269.74
800.88	1222.64
801.06	1282.03
801.23	1290.22
801.41	1273.84
801.58	1247.21
801.75	1310.70
801.93	1355.76
802.10	1245.16
802.28	1255.40
802.45	1241.07
802.63	1234.93
802.80	1282.03
802.97	1271.79
803.15	1343.47
803.32	1271.79
803.50	1277.93
803.67	1230.83
803.84	1228.78
804.02	1273.84
804.19	1257.45
804.37	1279.98
804.54	1249.26
804.71	1327.08
804.89	1271.79
805.06	1265.64
805.24	1355.76
805.41	1347.56
805.58	1210.35
805.76	1357.80
805.93	1298.41
806.10	1249.26
806.28	1308.65
806.45	1226.73
806.63	1269.74
806.80	1322.99
806.97	1288.17
807.15	1310.70
807.32	1322.99
807.49	1294.32
807.67	1298.41
807.84	1306.60
808.01	1234.93
808.19	1220.59
808.36	1288.17
808.54	1257.45
808.71	1288.17
808.88	1288.17
809.06	1218.54
809.23	1218.54
809.40	1269.74
809.58	1234.93
809.75	1273.84
809.92	1206.25
810.10	1325.04
810.27	1216.49
810.44	1296.36
810.62	1263.60
810.79	1292.27
810.96	1312.75
811.14	1228.78
811.31	1198.06
811.48	1314.80
811.66	1275.88
811.83	1333.23
812.00	1290.22
812.18	1241.07
812.35	1282.03
812.52	1261.55
812.69	1255.40
812.87	1234.93
813.04	1236.97
813.21	1271.79
813.39	1318.89
813.56	1196.01
813.73	1253.36
813.91	1249.26
814.08	1318.89
814.25	1279.98
814.42	1247.21
814.60	1290.22
814.77	1290.22
814.94	1245.16
815.12	1312.75
815.29	1247.21
815.46	1308.65
815.63	1253.36
815.81	1245.16
815.98	1218.54
816.15	1380.33
816.33	1218.54
816.50	1220.59
816.67	1292.27
816.84	1306.60
817.02	1339.37
817.19	1310.70
817.36	1327.08
817.53	1290.22
817.71	1300.46
817.88	1327.08
818.05	1273.84
818.22	1292.27
818.40	1255.40
818.57	1333.23
818.74	1277.93
818.91	1230.83
819.09	1255.40
819.26	1263.60
819.43	1257.45
819.60	1239.02
819.78	1322.99
819.95	1306.60
820.12	1327.08
820.29	1234.93
820.47	1265.64
820.64	1282.03
820.81	1267.69
820.98	1290.22
821.15	1308.65
821.33	1282.03
821.50	1218.54
821.67	1259.50
821.84	1251.31
822.02	1366.00
822.19	1222.64
822.36	1241.07
822.53	1335.28
822.70	1275.88
822.88	1273.84
823.05	1339.37
823.22	1255.40
823.39	1247.21
823.56	1355.76
823.74	1210.35
823.91	1257.45
824.08	1304.56
824.25	1196.01
824.42	1288.17
824.60	1193.97
824.77	1353.71
824.94	1249.26
825.11	1224.69
825.28	1288.17
825.45	1284.08
825.63	1320.94
825.80	1228.78
825.97	1325.04
826.14	1253.36
826.31	1243.12
826.48	1286.12
826.66	1288.17
826.83	1339.37
827.00	1257.45
827.17	1232.88
827.34	1224.69
827.51	1263.60
827.69	1318.89
827.86	1347.56
828.03	1243.12
828.20	1273.84
828.37	1232.88
828.54	1300.46
828.71	1314.80
828.89	1273.84
829.06	1257.45
829.23	1290.22
829.40	1181.68
829.57	1290.22
829.74	1277.93
829.91	1271.79
830.09	1284.08
830.26	1296.36
830.43	1347.56
830.60	1241.07
830.77	1257.45
830.94	1284.08
831.11	1318.89
831.28	1255.40
831.46	1214.45
831.63	1316.84
831.80	1286.12
831.97	1304.56
832.14	1267.69
832.31	1290.22
832.48	1277.93
832.65	1257.45
832.82	1214.45
832.99	1255.40
833.17	1241.07
833.34	1177.58
833.51	1298.41
833.68	1236.97
833.85	1275.88
834.02	1273.84
834.19	1271.79
834.36	1247.21
834.53	1243.12
834.70	1251.31
834.87	1292.27
835.04	1255.40
835.22	1196.01
835.39	1331.18
835.56	1226.73
835.73	1232.88
835.90	1267.69
836.07	1294.32
836.24	1279.98
836.41	1241.07
836.58	1277.93
836.75	1312.75
836.92	1288.17
837.09	1265.64
837.26	1241.07
837.43	1343.47
837.60	1273.84
837.77	1259.50
837.94	1267.69
838.12	1241.07
838.29	1312.75
838.46	1290.22
838.63	1247.21
838.80	1261.55
838.97	1239.02
839.14	1239.02
839.31	1255.40
839.48	1171.44
839.65	1239.02
839.82	1259.50
839.99	1296.36
840.16	1290.22
840.33	1286.12
840.50	1222.64
840.67	1277.93
840.84	1216.49
841.01	1257.45
841.18	1261.55
841.35	1290.22
841.52	1253.36
841.69	1312.75
841.86	1220.59
842.03	1292.27
842.20	1236.97
842.37	1284.08
842.54	1284.08
842.71	1296.36
842.88	1241.07
843.05	1204.21
843.22	1224.69
843.39	1243.12
843.56	1228.78
843.73	1279.98
843.90	1286.12
844.07	1200.11
844.24	1370.09
844.41	1257.45
844.58	1265.64
844.75	1284.08
844.92	1271.79
845.09	1271.79
845.26	1267.69
845.43	1273.84
845.60	1263.60
845.77	1308.65
845.94	1306.60
846.10	1257.45
846.27	1212.40
846.44	1251.31
846.61	1316.84
846.78	1300.46
846.95	1265.64
847.12	1191.92
847.29	1249.26
847.46	1267.69
847.63	1263.60
847.80	1306.60
847.97	1361.90
848.14	1279.98
848.31	1228.78
848.48	1288.17
848.65	1267.69
848.82	1218.54
848.98	1273.84
849.15	1236.97
849.32	1286.12
849.49	1366.00
849.66	1249.26
849.83	1243.12
850.00	1243.12
850.17	1327.08
850.34	1290.22
850.51	1230.83
850.68	1230.83
850.85	1282.03
851.01	1300.46
851.18	1296.36
851.35	1183.73
851.52	1218.54
851.69	1204.21
851.86	1259.50
852.03	1273.84
852.20	1234.93
852.37	1259.50
852.53	1271.79
852.70	1239.02
852.87	1273.84
853.04	1257.45
853.21	1267.69
853.38	1255.40
853.55	1228.78
853.72	1247.21
853.89	1290.22
854.05	1269.74
854.22	1239.02
854.39	1282.03
854.56	1220.59
854.73	1312.75
854.90	1275.88
855.07	1339.37
855.23	1234.93
855.40	1226.73
855.57	1263.60
855.74	1198.06
855.91	1312.75
856.08	1308.65
856.25	1198.06
856.41	1249.26
856.58	1245.16
856.75	1232.88
856.92	1288.17
857.09	1335.28
857.26	1286.12
857.42	1296.36
857.59	1187.82
857.76	1263.60
857.93	1247.21
858.10	1210.35
858.27	1320.94
858.43	1265.64
858.60	1286.12
858.77	1257.45
858.94	1271.79
859.11	1294.32
859.27	1263.60
859.44	1247.21
859.61	1218.54
859.78	1265.64
859.95	1241.07
860.12	1273.84
860.28	1279.98
860.45	1275.88
860.62	1298.41
860.79	1298.41
860.95	1294.32
861.12	1243.12
861.29	1273.84
861.46	1288.17
861.63	1320.94
861.79	1245.16
861.96	1196.01
862.13	1214.45
862.30	1196.01
862.47	1331.18
862.63	1251.31
862.80	1296.36
862.97	1198.06
863.14	1306.60
863.30	1181.68
863.47	1310.70
863.64	1275.88
863.81	1224.69
863.97	1222.64
864.14	1224.69
864.31	1253.36
864.48	1255.40
864.65	1290.22
864.81	1310.70
864.98	1253.36
865.15	1271.79
865.32	1284.08
865.48	1241.07
865.65	1316.84
865.82	1253.36
865.98	1251.31
866.15	1284.08
866.32	1310.70
866.49	1277.93
866.65	1261.55
866.82	1230.83
866.99	1226.73
867.16	1257.45
867.32	1257.45
867.49	1294.32
867.66	1257.45
867.83	1322.99
867.99	1294.32
868.16	1292.27
868.33	1292.27
868.49	1259.50
868.66	1245.16
868.83	1222.64
868.99	1224.69
869.16	1261.55
869.33	1234.93
869.50	1345.52
869.66	1296.36
869.83	1234.93
870.00	1286.12
870.16	1310.70
870.33	1234.93
870.50	1327.08
870.66	1279.98
870.83	1230.83
871.00	1243.12
871.17	1288.17
871.33	1243.12
871.50	1232.88
871.67	1208.30
871.83	1220.59
872.00	1153.01
872.17	1347.56
872.33	1220.59
872.50	1224.69
872.67	1271.79
872.83	1322.99
873.00	1241.07
873.17	1312.75
873.33	1269.74
873.50	1286.12
873.67	1275.88
873.83	1269.74
874.00	1288.17
874.16	1284.08
874.33	1220.59
874.50	1271.79
874.66	1294.32
874.83	1206.25
875.00	1224.69
875.16	1216.49
875.33	1261.55
875.50	1259.50
875.66	1265.64
875.83	1206.25
875.99	1249.26
876.16	1175.53
876.33	1253.36
876.49	1269.74
876.66	1318.89
876.83	1267.69
876.99	1239.02
877.16	1224.69
877.32	1322.99
877.49	1271.79
877.66	1239.02
877.82	1234.93
877.99	1314.80
878.15	1298.41
878.32	1290.22
878.49	1288.17
878.65	1314.80
878.82	1284.08
878.98	1302.51
879.15	1290.22
879.32	1302.51
879.48	1271.79
879.65	1206.25
879.81	1298.41
879.98	1232.88
880.15	1327.08
880.31	1159.15
880.48	1304.56
880.64	1269.74
880.81	1261.55
880.97	1273.84
881.14	1314.80
881.31	1294.32
881.47	1255.40
881.64	1292.27
881.80	1320.94
881.97	1259.50
882.13	1269.74
882.30	1253.36
882.47	1292.27
882.63	1234.93
882.80	1228.78
882.96	1302.51
883.13	1228.78
883.29	1314.80
883.46	1300.46
883.62	1206.25
883.79	1279.98
883.95	1239.02
884.12	1249.26
884.29	1214.45
884.45	1312.75
884.62	1277.93
884.78	1218.54
884.95	1306.60
885.11	1245.16
885.28	1234.93
885.44	1277.93
885.61	1347.56
885.77	1284.08
885.94	1310.70
886.10	1245.16
886.27	1327.08
886.43	1212.40
886.60	1292.27
886.76	1306.60
886.93	1302.51
887.09	1255.40
887.26	1222.64
887.42	1304.56
887.59	1247.21
887.75	1298.41
887.92	1247.21
888.08	1296.36
888.25	1335.28
888.41	1341.42
888.58	1349.61
888.74	1279.98
888.91	1185.77
>>>>>End Processed Spectral Data<<<<<
