SpectraSuite Data File
++++++++++++++++++++++++++++++++++++
Date: Sun Apr 03 19:55:54 CEST 2016
User: root
Dark Spectrum Present: No
Reference Spectrum Present: No
Number of Sampled Component Spectra: 1
Spectrometers: USB4C02835
Integration Time (usec): 10000 (USB4C02835)
Spectra Averaged: 1 (USB4C02835)
Boxcar Smoothing: 0 (USB4C02835)
Correct for Electrical Dark: No (USB4C02835)
Strobe/Lamp Enabled: No (USB4C02835)
Correct for Detector Non-linearity: No (USB4C02835)
Correct for Stray Light: No (USB4C02835)
Number of Pixels in Processed Spectrum: 3648
>>>>>Begin Processed Spectral Data<<<<<
177.47	1232.88
177.69	1232.88
177.91	1232.88
178.13	1220.59
178.36	1228.78
178.58	1275.88
178.80	1292.27
179.02	1318.89
179.24	1241.07
179.46	1216.49
179.68	1259.50
179.90	1212.40
180.13	1239.02
180.35	1247.21
180.57	1257.45
180.79	1265.64
181.01	1294.32
181.23	1214.45
181.45	1255.40
181.67	1261.55
181.90	1224.69
182.12	1257.45
182.34	1335.28
182.56	1206.25
182.78	1208.30
183.00	1300.46
183.22	1232.88
183.44	1165.29
183.66	1312.75
183.89	1255.40
184.11	1200.11
184.33	1290.22
184.55	1288.17
184.77	1239.02
184.99	1292.27
185.21	1279.98
185.43	1316.84
185.65	1312.75
185.87	1306.60
186.10	1234.93
186.32	1310.70
186.54	1282.03
186.76	1271.79
186.98	1265.64
187.20	1247.21
187.42	1292.27
187.64	1320.94
187.86	1208.30
188.08	1253.36
188.30	1298.41
188.52	1370.09
188.75	1290.22
188.97	1161.20
189.19	1298.41
189.41	1279.98
189.63	1271.79
189.85	1286.12
190.07	1275.88
190.29	1259.50
190.51	1241.07
190.73	1257.45
190.95	1230.83
191.17	1300.46
191.39	1234.93
191.61	1236.97
191.84	1239.02
192.06	1304.56
192.28	1220.59
192.50	1308.65
192.72	1314.80
192.94	1200.11
193.16	1253.36
193.38	1327.08
193.60	1257.45
193.82	1200.11
194.04	1236.97
194.26	1275.88
194.48	1347.56
194.70	1275.88
194.92	1269.74
195.14	1239.02
195.36	1294.32
195.58	1288.17
195.80	1247.21
196.02	1255.40
196.24	1273.84
196.46	1282.03
196.69	1300.46
196.91	1327.08
197.13	1265.64
197.35	1253.36
197.57	1308.65
197.79	1302.51
198.01	1230.83
198.23	1290.22
198.45	1322.99
198.67	1322.99
198.89	1198.06
199.11	1253.36
199.33	1286.12
199.55	1181.68
199.77	1185.77
199.99	1255.40
200.21	1271.79
200.43	1302.51
200.65	1282.03
200.87	1279.98
201.09	1245.16
201.31	1277.93
201.53	1271.79
201.75	1234.93
201.97	1259.50
202.19	1243.12
202.41	1245.16
202.63	1212.40
202.85	1232.88
203.07	1247.21
203.29	1294.32
203.51	1247.21
203.73	1263.60
203.95	1329.13
204.17	1286.12
204.39	1288.17
204.61	1249.26
204.83	1279.98
205.05	1245.16
205.27	1257.45
205.49	1271.79
205.71	1230.83
205.93	1267.69
206.15	1347.56
206.37	1298.41
206.59	1212.40
206.81	1234.93
207.03	1241.07
207.25	1239.02
207.47	1277.93
207.69	1318.89
207.91	1257.45
208.13	1277.93
208.34	1261.55
208.56	1298.41
208.78	1331.18
209.00	1196.01
209.22	1376.24
209.44	1267.69
209.66	1259.50
209.88	1273.84
210.10	1337.32
210.32	1247.21
210.54	1261.55
210.76	1325.04
210.98	1234.93
211.20	1234.93
211.42	1308.65
211.64	1224.69
211.86	1257.45
212.08	1275.88
212.30	1286.12
212.52	1275.88
212.74	1265.64
212.96	1216.49
213.17	1212.40
213.39	1255.40
213.61	1329.13
213.83	1261.55
214.05	1245.16
214.27	1310.70
214.49	1271.79
214.71	1253.36
214.93	1200.11
215.15	1232.88
215.37	1282.03
215.59	1279.98
215.81	1361.90
216.03	1279.98
216.24	1310.70
216.46	1236.97
216.68	1226.73
216.90	1267.69
217.12	1296.36
217.34	1306.60
217.56	1224.69
217.78	1320.94
218.00	1284.08
218.22	1277.93
218.44	1320.94
218.66	1275.88
218.87	1234.93
219.09	1243.12
219.31	1253.36
219.53	1261.55
219.75	1271.79
219.97	1234.93
220.19	1232.88
220.41	1208.30
220.63	1310.70
220.85	1255.40
221.06	1226.73
221.28	1302.51
221.50	1290.22
221.72	1249.26
221.94	1327.08
222.16	1218.54
222.38	1320.94
222.60	1329.13
222.82	1300.46
223.03	1273.84
223.25	1173.49
223.47	1325.04
223.69	1265.64
223.91	1257.45
224.13	1261.55
224.35	1294.32
224.57	1273.84
224.78	1255.40
225.00	1286.12
225.22	1275.88
225.44	1296.36
225.66	1288.17
225.88	1259.50
226.10	1312.75
226.32	1275.88
226.53	1296.36
226.75	1220.59
226.97	1288.17
227.19	1314.80
227.41	1220.59
227.63	1259.50
227.85	1257.45
228.06	1255.40
228.28	1241.07
228.50	1253.36
228.72	1265.64
228.94	1265.64
229.16	1300.46
229.37	1261.55
229.59	1320.94
229.81	1245.16
230.03	1259.50
230.25	1202.16
230.47	1261.55
230.69	1263.60
230.90	1271.79
231.12	1363.95
231.34	1282.03
231.56	1249.26
231.78	1255.40
232.00	1222.64
232.21	1259.50
232.43	1271.79
232.65	1198.06
232.87	1257.45
233.09	1300.46
233.30	1226.73
233.52	1341.42
233.74	1228.78
233.96	1343.47
234.18	1298.41
234.40	1234.93
234.61	1275.88
234.83	1232.88
235.05	1279.98
235.27	1316.84
235.49	1353.71
235.70	1261.55
235.92	1308.65
236.14	1284.08
236.36	1208.30
236.58	1312.75
236.79	1279.98
237.01	1171.44
237.23	1290.22
237.45	1304.56
237.67	1265.64
237.88	1294.32
238.10	1296.36
238.32	1249.26
238.54	1304.56
238.76	1275.88
238.97	1302.51
239.19	1212.40
239.41	1245.16
239.63	1331.18
239.85	1302.51
240.06	1224.69
240.28	1269.74
240.50	1290.22
240.72	1314.80
240.93	1253.36
241.15	1282.03
241.37	1232.88
241.59	1228.78
241.81	1318.89
242.02	1284.08
242.24	1294.32
242.46	1343.47
242.68	1284.08
242.89	1290.22
243.11	1251.31
243.33	1251.31
243.55	1316.84
243.76	1253.36
243.98	1271.79
244.20	1249.26
244.42	1245.16
244.64	1243.12
244.85	1239.02
245.07	1349.61
245.29	1257.45
245.51	1282.03
245.72	1259.50
245.94	1273.84
246.16	1267.69
246.38	1296.36
246.59	1208.30
246.81	1284.08
247.03	1292.27
247.24	1263.60
247.46	1196.01
247.68	1314.80
247.90	1259.50
248.11	1241.07
248.33	1296.36
248.55	1279.98
248.77	1329.13
248.98	1261.55
249.20	1310.70
249.42	1261.55
249.64	1241.07
249.85	1306.60
250.07	1249.26
250.29	1349.61
250.50	1286.12
250.72	1216.49
250.94	1247.21
251.16	1245.16
251.37	1290.22
251.59	1236.97
251.81	1265.64
252.02	1253.36
252.24	1273.84
252.46	1273.84
252.68	1263.60
252.89	1210.35
253.11	1282.03
253.33	1304.56
253.54	1236.97
253.76	1261.55
253.98	1314.80
254.20	1255.40
254.41	1220.59
254.63	1263.60
254.85	1267.69
255.06	1232.88
255.28	1271.79
255.50	1337.32
255.71	1224.69
255.93	1290.22
256.15	1236.97
256.36	1226.73
256.58	1220.59
256.80	1249.26
257.02	1271.79
257.23	1234.93
257.45	1243.12
257.67	1243.12
257.88	1284.08
258.10	1298.41
258.32	1267.69
258.53	1196.01
258.75	1275.88
258.97	1257.45
259.18	1265.64
259.40	1296.36
259.62	1271.79
259.83	1282.03
260.05	1243.12
260.27	1249.26
260.48	1314.80
260.70	1249.26
260.92	1232.88
261.13	1273.84
261.35	1310.70
261.57	1155.05
261.78	1202.16
262.00	1282.03
262.22	1261.55
262.43	1320.94
262.65	1222.64
262.86	1234.93
263.08	1253.36
263.30	1304.56
263.51	1308.65
263.73	1275.88
263.95	1216.49
264.16	1216.49
264.38	1261.55
264.60	1327.08
264.81	1320.94
265.03	1302.51
265.25	1243.12
265.46	1316.84
265.68	1286.12
265.89	1251.31
266.11	1320.94
266.33	1308.65
266.54	1226.73
266.76	1187.82
266.98	1275.88
267.19	1273.84
267.41	1282.03
267.62	1265.64
267.84	1232.88
268.06	1312.75
268.27	1265.64
268.49	1269.74
268.70	1198.06
268.92	1296.36
269.14	1269.74
269.35	1243.12
269.57	1224.69
269.79	1226.73
270.00	1249.26
270.22	1247.21
270.43	1261.55
270.65	1312.75
270.87	1261.55
271.08	1265.64
271.30	1282.03
271.51	1255.40
271.73	1249.26
271.95	1286.12
272.16	1247.21
272.38	1316.84
272.59	1251.31
272.81	1249.26
273.02	1304.56
273.24	1353.71
273.46	1236.97
273.67	1318.89
273.89	1271.79
274.10	1271.79
274.32	1333.23
274.54	1267.69
274.75	1269.74
274.97	1302.51
275.18	1247.21
275.40	1296.36
275.61	1269.74
275.83	1333.23
276.05	1333.23
276.26	1269.74
276.48	1316.84
276.69	1204.21
276.91	1245.16
277.12	1345.52
277.34	1251.31
277.55	1212.40
277.77	1277.93
277.99	1298.41
278.20	1263.60
278.42	1259.50
278.63	1263.60
278.85	1269.74
279.06	1286.12
279.28	1234.93
279.49	1277.93
279.71	1265.64
279.93	1286.12
280.14	1302.51
280.36	1290.22
280.57	1183.73
280.79	1226.73
281.00	1224.69
281.22	1243.12
281.43	1241.07
281.65	1218.54
281.86	1282.03
282.08	1204.21
282.29	1243.12
282.51	1214.45
282.73	1257.45
282.94	1261.55
283.16	1314.80
283.37	1243.12
283.59	1269.74
283.80	1253.36
284.02	1273.84
284.23	1269.74
284.45	1214.45
284.66	1279.98
284.88	1255.40
285.09	1247.21
285.31	1288.17
285.52	1210.35
285.74	1232.88
285.95	1230.83
286.17	1249.26
286.38	1269.74
286.60	1228.78
286.81	1230.83
287.03	1277.93
287.24	1241.07
287.46	1245.16
287.67	1347.56
287.89	1241.07
288.10	1345.52
288.32	1308.65
288.53	1224.69
288.75	1214.45
288.96	1304.56
289.18	1286.12
289.39	1255.40
289.61	1296.36
289.82	1241.07
290.04	1255.40
290.25	1261.55
290.47	1216.49
290.68	1239.02
290.90	1251.31
291.11	1273.84
291.33	1273.84
291.54	1220.59
291.76	1216.49
291.97	1267.69
292.18	1255.40
292.40	1232.88
292.61	1355.76
292.83	1269.74
293.04	1265.64
293.26	1255.40
293.47	1253.36
293.69	1202.16
293.90	1222.64
294.12	1259.50
294.33	1196.01
294.55	1314.80
294.76	1239.02
294.97	1292.27
295.19	1290.22
295.40	1277.93
295.62	1273.84
295.83	1265.64
296.05	1265.64
296.26	1288.17
296.48	1298.41
296.69	1288.17
296.90	1288.17
297.12	1304.56
297.33	1253.36
297.55	1292.27
297.76	1296.36
297.98	1261.55
298.19	1355.76
298.41	1236.97
298.62	1282.03
298.83	1255.40
299.05	1175.53
299.26	1325.04
299.48	1314.80
299.69	1239.02
299.90	1193.97
300.12	1204.21
300.33	1187.82
300.55	1386.47
300.76	1304.56
300.98	1259.50
301.19	1255.40
301.40	1202.16
301.62	1314.80
301.83	1212.40
302.05	1222.64
302.26	1284.08
302.47	1216.49
302.69	1322.99
302.90	1282.03
303.12	1245.16
303.33	1247.21
303.54	1234.93
303.76	1251.31
303.97	1284.08
304.19	1275.88
304.40	1294.32
304.61	1222.64
304.83	1316.84
305.04	1198.06
305.26	1296.36
305.47	1239.02
305.68	1247.21
305.90	1204.21
306.11	1294.32
306.33	1265.64
306.54	1267.69
306.75	1292.27
306.97	1259.50
307.18	1284.08
307.39	1228.78
307.61	1290.22
307.82	1290.22
308.04	1296.36
308.25	1245.16
308.46	1277.93
308.68	1351.66
308.89	1286.12
309.10	1181.68
309.32	1273.84
309.53	1210.35
309.74	1220.59
309.96	1310.70
310.17	1292.27
310.39	1224.69
310.60	1314.80
310.81	1216.49
311.03	1255.40
311.24	1253.36
311.45	1183.73
311.67	1265.64
311.88	1271.79
312.09	1236.97
312.31	1216.49
312.52	1320.94
312.73	1208.30
312.95	1277.93
313.16	1265.64
313.37	1292.27
313.59	1257.45
313.80	1263.60
314.01	1339.37
314.23	1329.13
314.44	1234.93
314.65	1261.55
314.87	1193.97
315.08	1247.21
315.29	1218.54
315.51	1255.40
315.72	1288.17
315.93	1236.97
316.15	1380.33
316.36	1245.16
316.57	1290.22
316.79	1265.64
317.00	1368.04
317.21	1282.03
317.43	1284.08
317.64	1198.06
317.85	1337.32
318.07	1232.88
318.28	1265.64
318.49	1243.12
318.70	1306.60
318.92	1210.35
319.13	1292.27
319.34	1265.64
319.56	1302.51
319.77	1318.89
319.98	1327.08
320.20	1302.51
320.41	1347.56
320.62	1261.55
320.83	1265.64
321.05	1306.60
321.26	1259.50
321.47	1253.36
321.69	1187.82
321.90	1265.64
322.11	1351.66
322.32	1220.59
322.54	1310.70
322.75	1212.40
322.96	1282.03
323.18	1302.51
323.39	1245.16
323.60	1345.52
323.81	1288.17
324.03	1232.88
324.24	1259.50
324.45	1230.83
324.66	1259.50
324.88	1296.36
325.09	1224.69
325.30	1257.45
325.52	1273.84
325.73	1279.98
325.94	1284.08
326.15	1304.56
326.37	1273.84
326.58	1298.41
326.79	1269.74
327.00	1222.64
327.22	1226.73
327.43	1257.45
327.64	1366.00
327.85	1271.79
328.07	1310.70
328.28	1306.60
328.49	1337.32
328.70	1232.88
328.92	1318.89
329.13	1284.08
329.34	1267.69
329.55	1302.51
329.76	1271.79
329.98	1312.75
330.19	1202.16
330.40	1304.56
330.61	1302.51
330.83	1300.46
331.04	1232.88
331.25	1290.22
331.46	1247.21
331.68	1249.26
331.89	1232.88
332.10	1163.25
332.31	1255.40
332.52	1302.51
332.74	1202.16
332.95	1206.25
333.16	1181.68
333.37	1273.84
333.58	1353.71
333.80	1286.12
334.01	1247.21
334.22	1206.25
334.43	1322.99
334.64	1275.88
334.86	1210.35
335.07	1224.69
335.28	1142.77
335.49	1355.76
335.70	1251.31
335.92	1282.03
336.13	1214.45
336.34	1279.98
336.55	1286.12
336.76	1267.69
336.98	1286.12
337.19	1277.93
337.40	1241.07
337.61	1232.88
337.82	1316.84
338.04	1236.97
338.25	1284.08
338.46	1261.55
338.67	1333.23
338.88	1257.45
339.09	1234.93
339.31	1273.84
339.52	1335.28
339.73	1331.18
339.94	1232.88
340.15	1335.28
340.36	1259.50
340.58	1204.21
340.79	1292.27
341.00	1271.79
341.21	1230.83
341.42	1247.21
341.63	1298.41
341.85	1220.59
342.06	1282.03
342.27	1232.88
342.48	1232.88
342.69	1290.22
342.90	1247.21
343.12	1271.79
343.33	1271.79
343.54	1361.90
343.75	1327.08
343.96	1243.12
344.17	1251.31
344.38	1318.89
344.60	1271.79
344.81	1253.36
345.02	1181.68
345.23	1308.65
345.44	1298.41
345.65	1196.01
345.86	1267.69
346.07	1230.83
346.29	1247.21
346.50	1259.50
346.71	1284.08
346.92	1349.61
347.13	1327.08
347.34	1320.94
347.55	1259.50
347.76	1241.07
347.98	1236.97
348.19	1206.25
348.40	1232.88
348.61	1208.30
348.82	1263.60
349.03	1243.12
349.24	1279.98
349.45	1267.69
349.66	1249.26
349.88	1292.27
350.09	1259.50
350.30	1308.65
350.51	1243.12
350.72	1378.28
350.93	1198.06
351.14	1212.40
351.35	1220.59
351.56	1253.36
351.77	1220.59
351.99	1265.64
352.20	1374.19
352.41	1247.21
352.62	1314.80
352.83	1222.64
353.04	1279.98
353.25	1247.21
353.46	1236.97
353.67	1318.89
353.88	1335.28
354.09	1212.40
354.30	1312.75
354.52	1267.69
354.73	1304.56
354.94	1300.46
355.15	1279.98
355.36	1216.49
355.57	1216.49
355.78	1251.31
355.99	1351.66
356.20	1304.56
356.41	1335.28
356.62	1234.93
356.83	1302.51
357.04	1271.79
357.25	1241.07
357.46	1269.74
357.68	1200.11
357.89	1208.30
358.10	1279.98
358.31	1341.42
358.52	1267.69
358.73	1302.51
358.94	1247.21
359.15	1284.08
359.36	1282.03
359.57	1220.59
359.78	1306.60
359.99	1245.16
360.20	1290.22
360.41	1312.75
360.62	1226.73
360.83	1284.08
361.04	1265.64
361.25	1230.83
361.46	1273.84
361.67	1279.98
361.88	1300.46
362.09	1214.45
362.30	1189.87
362.51	1214.45
362.72	1273.84
362.93	1261.55
363.14	1312.75
363.35	1277.93
363.56	1271.79
363.78	1286.12
363.99	1243.12
364.20	1353.71
364.41	1282.03
364.62	1245.16
364.83	1273.84
365.04	1366.00
365.25	1198.06
365.46	1286.12
365.67	1193.97
365.88	1279.98
366.09	1329.13
366.30	1294.32
366.51	1222.64
366.72	1249.26
366.93	1265.64
367.14	1273.84
367.35	1273.84
367.56	1267.69
367.77	1245.16
367.98	1255.40
368.18	1214.45
368.39	1257.45
368.60	1312.75
368.81	1204.21
369.02	1234.93
369.23	1273.84
369.44	1275.88
369.65	1232.88
369.86	1263.60
370.07	1204.21
370.28	1290.22
370.49	1216.49
370.70	1316.84
370.91	1214.45
371.12	1263.60
371.33	1294.32
371.54	1265.64
371.75	1296.36
371.96	1255.40
372.17	1277.93
372.38	1302.51
372.59	1216.49
372.80	1314.80
373.01	1310.70
373.22	1249.26
373.43	1282.03
373.64	1290.22
373.85	1243.12
374.06	1255.40
374.26	1236.97
374.47	1314.80
374.68	1232.88
374.89	1261.55
375.10	1267.69
375.31	1232.88
375.52	1263.60
375.73	1253.36
375.94	1232.88
376.15	1216.49
376.36	1173.49
376.57	1263.60
376.78	1290.22
376.99	1320.94
377.20	1335.28
377.40	1236.97
377.61	1245.16
377.82	1304.56
378.03	1239.02
378.24	1241.07
378.45	1322.99
378.66	1282.03
378.87	1247.21
379.08	1204.21
379.29	1275.88
379.50	1277.93
379.71	1261.55
379.91	1308.65
380.12	1210.35
380.33	1300.46
380.54	1282.03
380.75	1275.88
380.96	1267.69
381.17	1230.83
381.38	1288.17
381.59	1251.31
381.80	1257.45
382.00	1296.36
382.21	1255.40
382.42	1286.12
382.63	1249.26
382.84	1292.27
383.05	1286.12
383.26	1267.69
383.47	1249.26
383.68	1243.12
383.88	1333.23
384.09	1251.31
384.30	1288.17
384.51	1273.84
384.72	1269.74
384.93	1337.32
385.14	1325.04
385.35	1370.09
385.55	1267.69
385.76	1255.40
385.97	1257.45
386.18	1263.60
386.39	1183.73
386.60	1253.36
386.81	1253.36
387.02	1359.85
387.22	1269.74
387.43	1279.98
387.64	1267.69
387.85	1341.42
388.06	1308.65
388.27	1212.40
388.48	1325.04
388.68	1273.84
388.89	1232.88
389.10	1290.22
389.31	1212.40
389.52	1271.79
389.73	1224.69
389.93	1304.56
390.14	1294.32
390.35	1296.36
390.56	1241.07
390.77	1265.64
390.98	1333.23
391.18	1284.08
391.39	1228.78
391.60	1230.83
391.81	1239.02
392.02	1243.12
392.23	1284.08
392.43	1249.26
392.64	1204.21
392.85	1251.31
393.06	1322.99
393.27	1302.51
393.47	1234.93
393.68	1255.40
393.89	1259.50
394.10	1232.88
394.31	1308.65
394.52	1239.02
394.72	1259.50
394.93	1247.21
395.14	1259.50
395.35	1306.60
395.56	1275.88
395.76	1312.75
395.97	1316.84
396.18	1288.17
396.39	1263.60
396.60	1318.89
396.80	1316.84
397.01	1228.78
397.22	1302.51
397.43	1388.52
397.64	1277.93
397.84	1308.65
398.05	1294.32
398.26	1282.03
398.47	1206.25
398.67	1288.17
398.88	1284.08
399.09	1232.88
399.30	1200.11
399.51	1271.79
399.71	1214.45
399.92	1265.64
400.13	1255.40
400.34	1216.49
400.54	1273.84
400.75	1267.69
400.96	1275.88
401.17	1204.21
401.37	1282.03
401.58	1288.17
401.79	1236.97
402.00	1204.21
402.21	1308.65
402.41	1239.02
402.62	1257.45
402.83	1302.51
403.04	1304.56
403.24	1236.97
403.45	1271.79
403.66	1294.32
403.87	1265.64
404.07	1290.22
404.28	1288.17
404.49	1316.84
404.70	1226.73
404.90	1247.21
405.11	1220.59
405.32	1249.26
405.52	1245.16
405.73	1259.50
405.94	1282.03
406.15	1253.36
406.35	1249.26
406.56	1341.42
406.77	1320.94
406.98	1290.22
407.18	1298.41
407.39	1304.56
407.60	1218.54
407.80	1269.74
408.01	1241.07
408.22	1249.26
408.43	1226.73
408.63	1277.93
408.84	1200.11
409.05	1226.73
409.25	1265.64
409.46	1273.84
409.67	1314.80
409.88	1288.17
410.08	1249.26
410.29	1302.51
410.50	1298.41
410.70	1261.55
410.91	1234.93
411.12	1226.73
411.32	1196.01
411.53	1279.98
411.74	1241.07
411.95	1265.64
412.15	1294.32
412.36	1275.88
412.57	1271.79
412.77	1228.78
412.98	1271.79
413.19	1275.88
413.39	1200.11
413.60	1267.69
413.81	1277.93
414.01	1322.99
414.22	1179.63
414.43	1277.93
414.63	1279.98
414.84	1296.36
415.05	1296.36
415.25	1288.17
415.46	1273.84
415.67	1322.99
415.87	1222.64
416.08	1259.50
416.29	1261.55
416.49	1294.32
416.70	1314.80
416.91	1294.32
417.11	1339.37
417.32	1286.12
417.53	1263.60
417.73	1288.17
417.94	1236.97
418.15	1292.27
418.35	1196.01
418.56	1226.73
418.77	1298.41
418.97	1298.41
419.18	1320.94
419.38	1296.36
419.59	1269.74
419.80	1273.84
420.00	1286.12
420.21	1288.17
420.42	1210.35
420.62	1298.41
420.83	1273.84
421.04	1214.45
421.24	1216.49
421.45	1296.36
421.65	1294.32
421.86	1263.60
422.07	1277.93
422.27	1282.03
422.48	1269.74
422.69	1267.69
422.89	1277.93
423.10	1226.73
423.30	1302.51
423.51	1243.12
423.72	1337.32
423.92	1265.64
424.13	1228.78
424.33	1243.12
424.54	1247.21
424.75	1314.80
424.95	1275.88
425.16	1271.79
425.36	1259.50
425.57	1261.55
425.78	1251.31
425.98	1271.79
426.19	1243.12
426.39	1261.55
426.60	1202.16
426.81	1220.59
427.01	1208.30
427.22	1296.36
427.42	1222.64
427.63	1269.74
427.83	1273.84
428.04	1306.60
428.25	1222.64
428.45	1277.93
428.66	1224.69
428.86	1318.89
429.07	1290.22
429.28	1327.08
429.48	1196.01
429.69	1290.22
429.89	1306.60
430.10	1290.22
430.30	1333.23
430.51	1314.80
430.71	1220.59
430.92	1277.93
431.13	1312.75
431.33	1306.60
431.54	1298.41
431.74	1214.45
431.95	1261.55
432.15	1273.84
432.36	1220.59
432.56	1271.79
432.77	1228.78
432.98	1259.50
433.18	1279.98
433.39	1275.88
433.59	1282.03
433.80	1265.64
434.00	1275.88
434.21	1253.36
434.41	1310.70
434.62	1204.21
434.82	1310.70
435.03	1261.55
435.23	1245.16
435.44	1384.43
435.64	1253.36
435.85	1286.12
436.06	1314.80
436.26	1296.36
436.47	1327.08
436.67	1265.64
436.88	1220.59
437.08	1267.69
437.29	1224.69
437.49	1257.45
437.70	1257.45
437.90	1341.42
438.11	1329.13
438.31	1279.98
438.52	1253.36
438.72	1296.36
438.93	1198.06
439.13	1304.56
439.34	1320.94
439.54	1282.03
439.75	1181.68
439.95	1300.46
440.16	1290.22
440.36	1292.27
440.57	1275.88
440.77	1187.82
440.98	1273.84
441.18	1234.93
441.39	1275.88
441.59	1230.83
441.80	1286.12
442.00	1275.88
442.21	1366.00
442.41	1286.12
442.62	1331.18
442.82	1341.42
443.02	1261.55
443.23	1306.60
443.43	1239.02
443.64	1304.56
443.84	1279.98
444.05	1290.22
444.25	1247.21
444.46	1296.36
444.66	1263.60
444.87	1288.17
445.07	1275.88
445.28	1251.31
445.48	1333.23
445.69	1341.42
445.89	1357.80
446.09	1241.07
446.30	1286.12
446.50	1310.70
446.71	1255.40
446.91	1271.79
447.12	1273.84
447.32	1245.16
447.53	1327.08
447.73	1241.07
447.93	1257.45
448.14	1325.04
448.34	1290.22
448.55	1275.88
448.75	1243.12
448.96	1347.56
449.16	1322.99
449.36	1267.69
449.57	1300.46
449.77	1308.65
449.98	1271.79
450.18	1345.52
450.39	1333.23
450.59	1257.45
450.79	1245.16
451.00	1320.94
451.20	1378.28
451.41	1316.84
451.61	1263.60
451.81	1241.07
452.02	1247.21
452.22	1249.26
452.43	1234.93
452.63	1259.50
452.84	1302.51
453.04	1294.32
453.24	1273.84
453.45	1320.94
453.65	1273.84
453.86	1206.25
454.06	1314.80
454.26	1263.60
454.47	1279.98
454.67	1304.56
454.87	1259.50
455.08	1284.08
455.28	1308.65
455.49	1259.50
455.69	1325.04
455.89	1286.12
456.10	1236.97
456.30	1282.03
456.51	1230.83
456.71	1331.18
456.91	1198.06
457.12	1214.45
457.32	1271.79
457.52	1271.79
457.73	1314.80
457.93	1239.02
458.14	1277.93
458.34	1302.51
458.54	1263.60
458.75	1359.85
458.95	1243.12
459.15	1312.75
459.36	1318.89
459.56	1239.02
459.76	1314.80
459.97	1263.60
460.17	1271.79
460.37	1320.94
460.58	1275.88
460.78	1277.93
460.99	1226.73
461.19	1257.45
461.39	1294.32
461.60	1292.27
461.80	1239.02
462.00	1236.97
462.21	1306.60
462.41	1282.03
462.61	1300.46
462.82	1284.08
463.02	1267.69
463.22	1284.08
463.43	1331.18
463.63	1269.74
463.83	1273.84
464.04	1241.07
464.24	1212.40
464.44	1314.80
464.64	1214.45
464.85	1232.88
465.05	1226.73
465.25	1292.27
465.46	1294.32
465.66	1247.21
465.86	1277.93
466.07	1290.22
466.27	1296.36
466.47	1296.36
466.68	1236.97
466.88	1279.98
467.08	1345.52
467.29	1277.93
467.49	1251.31
467.69	1247.21
467.89	1282.03
468.10	1296.36
468.30	1214.45
468.50	1255.40
468.71	1261.55
468.91	1290.22
469.11	1259.50
469.31	1296.36
469.52	1271.79
469.72	1290.22
469.92	1300.46
470.13	1294.32
470.33	1304.56
470.53	1261.55
470.73	1282.03
470.94	1228.78
471.14	1282.03
471.34	1173.49
471.54	1259.50
471.75	1255.40
471.95	1259.50
472.15	1259.50
472.36	1318.89
472.56	1312.75
472.76	1345.52
472.96	1257.45
473.17	1241.07
473.37	1353.71
473.57	1218.54
473.77	1222.64
473.98	1253.36
474.18	1288.17
474.38	1236.97
474.58	1275.88
474.79	1345.52
474.99	1214.45
475.19	1284.08
475.39	1279.98
475.60	1286.12
475.80	1279.98
476.00	1282.03
476.20	1376.24
476.41	1269.74
476.61	1224.69
476.81	1253.36
477.01	1329.13
477.21	1271.79
477.42	1228.78
477.62	1245.16
477.82	1282.03
478.02	1249.26
478.23	1271.79
478.43	1277.93
478.63	1267.69
478.83	1294.32
479.03	1259.50
479.24	1261.55
479.44	1292.27
479.64	1296.36
479.84	1232.88
480.04	1269.74
480.25	1294.32
480.45	1322.99
480.65	1247.21
480.85	1245.16
481.06	1275.88
481.26	1243.12
481.46	1304.56
481.66	1329.13
481.86	1236.97
482.06	1310.70
482.27	1226.73
482.47	1282.03
482.67	1261.55
482.87	1216.49
483.07	1298.41
483.28	1327.08
483.48	1366.00
483.68	1269.74
483.88	1249.26
484.08	1239.02
484.29	1230.83
484.49	1253.36
484.69	1314.80
484.89	1277.93
485.09	1298.41
485.29	1263.60
485.50	1206.25
485.70	1253.36
485.90	1320.94
486.10	1284.08
486.30	1277.93
486.50	1257.45
486.71	1298.41
486.91	1216.49
487.11	1302.51
487.31	1322.99
487.51	1232.88
487.71	1298.41
487.91	1347.56
488.12	1216.49
488.32	1339.37
488.52	1265.64
488.72	1310.70
488.92	1357.80
489.12	1279.98
489.32	1259.50
489.53	1234.93
489.73	1331.18
489.93	1257.45
490.13	1271.79
490.33	1298.41
490.53	1308.65
490.73	1275.88
490.94	1269.74
491.14	1282.03
491.34	1198.06
491.54	1212.40
491.74	1181.68
491.94	1255.40
492.14	1273.84
492.34	1302.51
492.54	1263.60
492.75	1224.69
492.95	1312.75
493.15	1271.79
493.35	1314.80
493.55	1269.74
493.75	1261.55
493.95	1290.22
494.15	1269.74
494.35	1249.26
494.56	1271.79
494.76	1302.51
494.96	1282.03
495.16	1341.42
495.36	1245.16
495.56	1306.60
495.76	1222.64
495.96	1322.99
496.16	1359.85
496.36	1234.93
496.56	1284.08
496.77	1292.27
496.97	1286.12
497.17	1245.16
497.37	1300.46
497.57	1294.32
497.77	1206.25
497.97	1314.80
498.17	1261.55
498.37	1322.99
498.57	1302.51
498.77	1327.08
498.97	1306.60
499.17	1310.70
499.38	1271.79
499.58	1288.17
499.78	1234.93
499.98	1196.01
500.18	1288.17
500.38	1308.65
500.58	1325.04
500.78	1290.22
500.98	1310.70
501.18	1310.70
501.38	1222.64
501.58	1230.83
501.78	1288.17
501.98	1230.83
502.18	1269.74
502.38	1255.40
502.58	1327.08
502.78	1304.56
502.98	1230.83
503.18	1279.98
503.38	1284.08
503.59	1232.88
503.79	1230.83
503.99	1265.64
504.19	1255.40
504.39	1226.73
504.59	1337.32
504.79	1306.60
504.99	1306.60
505.19	1216.49
505.39	1265.64
505.59	1282.03
505.79	1310.70
505.99	1245.16
506.19	1292.27
506.39	1320.94
506.59	1257.45
506.79	1214.45
506.99	1294.32
507.19	1263.60
507.39	1282.03
507.59	1173.49
507.79	1286.12
507.99	1253.36
508.19	1263.60
508.39	1259.50
508.59	1216.49
508.79	1372.14
508.99	1251.31
509.19	1269.74
509.39	1292.27
509.59	1284.08
509.79	1300.46
509.99	1286.12
510.19	1267.69
510.39	1261.55
510.59	1236.97
510.79	1263.60
510.99	1294.32
511.19	1302.51
511.39	1277.93
511.59	1259.50
511.79	1269.74
511.99	1298.41
512.19	1339.37
512.38	1284.08
512.58	1322.99
512.78	1257.45
512.98	1318.89
513.18	1292.27
513.38	1265.64
513.58	1247.21
513.78	1279.98
513.98	1345.52
514.18	1288.17
514.38	1261.55
514.58	1257.45
514.78	1353.71
514.98	1253.36
515.18	1206.25
515.38	1257.45
515.58	1263.60
515.78	1271.79
515.98	1294.32
516.18	1200.11
516.38	1282.03
516.57	1241.07
516.77	1251.31
516.97	1243.12
517.17	1282.03
517.37	1232.88
517.57	1347.56
517.77	1226.73
517.97	1263.60
518.17	1265.64
518.37	1312.75
518.57	1269.74
518.77	1259.50
518.97	1263.60
519.16	1290.22
519.36	1349.61
519.56	1316.84
519.76	1249.26
519.96	1316.84
520.16	1325.04
520.36	1339.37
520.56	1282.03
520.76	1232.88
520.96	1325.04
521.16	1339.37
521.35	1298.41
521.55	1255.40
521.75	1290.22
521.95	1320.94
522.15	1277.93
522.35	1202.16
522.55	1282.03
522.75	1269.74
522.95	1216.49
523.14	1239.02
523.34	1267.69
523.54	1249.26
523.74	1376.24
523.94	1253.36
524.14	1318.89
524.34	1279.98
524.54	1327.08
524.73	1308.65
524.93	1277.93
525.13	1277.93
525.33	1249.26
525.53	1316.84
525.73	1359.85
525.93	1351.66
526.13	1329.13
526.32	1286.12
526.52	1339.37
526.72	1316.84
526.92	1239.02
527.12	1218.54
527.32	1247.21
527.52	1273.84
527.71	1282.03
527.91	1306.60
528.11	1249.26
528.31	1282.03
528.51	1224.69
528.71	1282.03
528.90	1263.60
529.10	1314.80
529.30	1196.01
529.50	1263.60
529.70	1284.08
529.90	1279.98
530.09	1361.90
530.29	1341.42
530.49	1322.99
530.69	1322.99
530.89	1296.36
531.09	1376.24
531.28	1267.69
531.48	1300.46
531.68	1236.97
531.88	1359.85
532.08	1322.99
532.28	1257.45
532.47	1292.27
532.67	1290.22
532.87	1282.03
533.07	1286.12
533.27	1282.03
533.46	1335.28
533.66	1292.27
533.86	1282.03
534.06	1314.80
534.26	1277.93
534.45	1269.74
534.65	1339.37
534.85	1257.45
535.05	1347.56
535.25	1318.89
535.44	1282.03
535.64	1228.78
535.84	1214.45
536.04	1259.50
536.24	1275.88
536.43	1292.27
536.63	1275.88
536.83	1378.28
537.03	1298.41
537.22	1177.58
537.42	1253.36
537.62	1288.17
537.82	1376.24
538.02	1347.56
538.21	1279.98
538.41	1333.23
538.61	1331.18
538.81	1327.08
539.00	1357.80
539.20	1255.40
539.40	1318.89
539.60	1318.89
539.79	1284.08
539.99	1294.32
540.19	1273.84
540.39	1261.55
540.58	1316.84
540.78	1218.54
540.98	1302.51
541.18	1298.41
541.37	1249.26
541.57	1196.01
541.77	1318.89
541.97	1316.84
542.16	1310.70
542.36	1312.75
542.56	1249.26
542.76	1322.99
542.95	1329.13
543.15	1290.22
543.35	1290.22
543.54	1226.73
543.74	1267.69
543.94	1316.84
544.14	1263.60
544.33	1263.60
544.53	1279.98
544.73	1265.64
544.93	1265.64
545.12	1269.74
545.32	1282.03
545.52	1308.65
545.71	1253.36
545.91	1257.45
546.11	1284.08
546.30	1257.45
546.50	1286.12
546.70	1290.22
546.90	1277.93
547.09	1279.98
547.29	1249.26
547.49	1234.93
547.68	1265.64
547.88	1339.37
548.08	1247.21
548.27	1292.27
548.47	1290.22
548.67	1275.88
548.87	1304.56
549.06	1302.51
549.26	1296.36
549.46	1282.03
549.65	1339.37
549.85	1259.50
550.05	1230.83
550.24	1327.08
550.44	1306.60
550.64	1353.71
550.83	1253.36
551.03	1187.82
551.23	1304.56
551.42	1284.08
551.62	1308.65
551.82	1300.46
552.01	1275.88
552.21	1269.74
552.41	1286.12
552.60	1282.03
552.80	1255.40
553.00	1224.69
553.19	1273.84
553.39	1275.88
553.59	1241.07
553.78	1320.94
553.98	1267.69
554.17	1318.89
554.37	1302.51
554.57	1284.08
554.76	1263.60
554.96	1265.64
555.16	1284.08
555.35	1255.40
555.55	1314.80
555.75	1286.12
555.94	1296.36
556.14	1294.32
556.33	1368.04
556.53	1284.08
556.73	1335.28
556.92	1275.88
557.12	1273.84
557.32	1294.32
557.51	1325.04
557.71	1400.81
557.90	1314.80
558.10	1245.16
558.30	1253.36
558.49	1265.64
558.69	1265.64
558.88	1282.03
559.08	1282.03
559.28	1273.84
559.47	1204.21
559.67	1345.52
559.86	1300.46
560.06	1259.50
560.26	1288.17
560.45	1282.03
560.65	1230.83
560.84	1325.04
561.04	1316.84
561.24	1302.51
561.43	1333.23
561.63	1284.08
561.82	1271.79
562.02	1318.89
562.22	1228.78
562.41	1247.21
562.61	1255.40
562.80	1265.64
563.00	1312.75
563.19	1236.97
563.39	1286.12
563.59	1290.22
563.78	1218.54
563.98	1298.41
564.17	1284.08
564.37	1302.51
564.56	1345.52
564.76	1265.64
564.96	1288.17
565.15	1288.17
565.35	1308.65
565.54	1200.11
565.74	1345.52
565.93	1282.03
566.13	1318.89
566.32	1220.59
566.52	1318.89
566.71	1220.59
566.91	1251.31
567.11	1290.22
567.30	1339.37
567.50	1257.45
567.69	1327.08
567.89	1271.79
568.08	1298.41
568.28	1275.88
568.47	1234.93
568.67	1241.07
568.86	1302.51
569.06	1257.45
569.25	1337.32
569.45	1286.12
569.64	1288.17
569.84	1335.28
570.04	1333.23
570.23	1284.08
570.43	1298.41
570.62	1245.16
570.82	1273.84
571.01	1275.88
571.21	1290.22
571.40	1294.32
571.60	1290.22
571.79	1294.32
571.99	1251.31
572.18	1282.03
572.38	1249.26
572.57	1269.74
572.77	1273.84
572.96	1298.41
573.16	1322.99
573.35	1318.89
573.55	1318.89
573.74	1343.47
573.94	1230.83
574.13	1212.40
574.33	1322.99
574.52	1341.42
574.71	1290.22
574.91	1325.04
575.10	1294.32
575.30	1261.55
575.49	1241.07
575.69	1239.02
575.88	1318.89
576.08	1286.12
576.27	1341.42
576.47	1261.55
576.66	1279.98
576.86	1314.80
577.05	1208.30
577.25	1345.52
577.44	1294.32
577.64	1230.83
577.83	1331.18
578.02	1249.26
578.22	1245.16
578.41	1286.12
578.61	1273.84
578.80	1214.45
579.00	1288.17
579.19	1259.50
579.39	1202.16
579.58	1232.88
579.77	1279.98
579.97	1292.27
580.16	1308.65
580.36	1302.51
580.55	1312.75
580.75	1384.43
580.94	1249.26
581.13	1316.84
581.33	1325.04
581.52	1249.26
581.72	1308.65
581.91	1218.54
582.11	1314.80
582.30	1279.98
582.49	1224.69
582.69	1224.69
582.88	1363.95
583.08	1296.36
583.27	1247.21
583.47	1314.80
583.66	1312.75
583.85	1259.50
584.05	1230.83
584.24	1327.08
584.44	1273.84
584.63	1263.60
584.82	1290.22
585.02	1314.80
585.21	1249.26
585.41	1247.21
585.60	1288.17
585.79	1249.26
585.99	1339.37
586.18	1230.83
586.37	1300.46
586.57	1286.12
586.76	1335.28
586.96	1202.16
587.15	1333.23
587.34	1251.31
587.54	1271.79
587.73	1361.90
587.93	1273.84
588.12	1239.02
588.31	1325.04
588.51	1306.60
588.70	1241.07
588.89	1316.84
589.09	1200.11
589.28	1312.75
589.47	1232.88
589.67	1271.79
589.86	1275.88
590.06	1314.80
590.25	1214.45
590.44	1288.17
590.64	1322.99
590.83	1368.04
591.02	1263.60
591.22	1259.50
591.41	1312.75
591.60	1322.99
591.80	1269.74
591.99	1265.64
592.18	1214.45
592.38	1265.64
592.57	1265.64
592.76	1257.45
592.96	1218.54
593.15	1359.85
593.34	1288.17
593.54	1304.56
593.73	1349.61
593.92	1253.36
594.12	1216.49
594.31	1263.60
594.50	1277.93
594.70	1255.40
594.89	1259.50
595.08	1265.64
595.28	1265.64
595.47	1282.03
595.66	1253.36
595.86	1255.40
596.05	1302.51
596.24	1247.21
596.43	1294.32
596.63	1302.51
596.82	1282.03
597.01	1292.27
597.21	1249.26
597.40	1269.74
597.59	1275.88
597.79	1296.36
597.98	1265.64
598.17	1226.73
598.36	1255.40
598.56	1298.41
598.75	1243.12
598.94	1216.49
599.14	1292.27
599.33	1316.84
599.52	1331.18
599.71	1279.98
599.91	1273.84
600.10	1249.26
600.29	1306.60
600.48	1284.08
600.68	1314.80
600.87	1316.84
601.06	1294.32
601.26	1294.32
601.45	1314.80
601.64	1329.13
601.83	1245.16
602.03	1298.41
602.22	1249.26
602.41	1206.25
602.60	1318.89
602.80	1310.70
602.99	1273.84
603.18	1282.03
603.37	1312.75
603.57	1292.27
603.76	1241.07
603.95	1249.26
604.14	1196.01
604.34	1325.04
604.53	1298.41
604.72	1284.08
604.91	1259.50
605.10	1277.93
605.30	1241.07
605.49	1261.55
605.68	1267.69
605.87	1249.26
606.07	1294.32
606.26	1300.46
606.45	1265.64
606.64	1204.21
606.84	1234.93
607.03	1294.32
607.22	1277.93
607.41	1247.21
607.60	1341.42
607.80	1234.93
607.99	1259.50
608.18	1329.13
608.37	1284.08
608.56	1189.87
608.76	1292.27
608.95	1263.60
609.14	1322.99
609.33	1282.03
609.52	1304.56
609.72	1230.83
609.91	1249.26
610.10	1249.26
610.29	1255.40
610.48	1243.12
610.68	1300.46
610.87	1263.60
611.06	1316.84
611.25	1208.30
611.44	1204.21
611.63	1294.32
611.83	1275.88
612.02	1372.14
612.21	1277.93
612.40	1265.64
612.59	1279.98
612.79	1251.31
612.98	1306.60
613.17	1304.56
613.36	1275.88
613.55	1239.02
613.74	1329.13
613.93	1320.94
614.13	1298.41
614.32	1232.88
614.51	1306.60
614.70	1230.83
614.89	1353.71
615.08	1273.84
615.28	1310.70
615.47	1273.84
615.66	1249.26
615.85	1288.17
616.04	1327.08
616.23	1257.45
616.42	1296.36
616.62	1284.08
616.81	1251.31
617.00	1273.84
617.19	1306.60
617.38	1249.26
617.57	1357.80
617.76	1226.73
617.95	1300.46
618.15	1191.92
618.34	1282.03
618.53	1241.07
618.72	1361.90
618.91	1325.04
619.10	1308.65
619.29	1296.36
619.48	1310.70
619.68	1265.64
619.87	1210.35
620.06	1333.23
620.25	1282.03
620.44	1337.32
620.63	1296.36
620.82	1261.55
621.01	1316.84
621.20	1310.70
621.39	1265.64
621.59	1294.32
621.78	1390.57
621.97	1343.47
622.16	1218.54
622.35	1355.76
622.54	1243.12
622.73	1249.26
622.92	1279.98
623.11	1286.12
623.30	1271.79
623.49	1286.12
623.68	1273.84
623.88	1298.41
624.07	1263.60
624.26	1304.56
624.45	1247.21
624.64	1347.56
624.83	1353.71
625.02	1339.37
625.21	1325.04
625.40	1277.93
625.59	1282.03
625.78	1329.13
625.97	1255.40
626.16	1304.56
626.35	1335.28
626.54	1386.47
626.74	1269.74
626.93	1329.13
627.12	1243.12
627.31	1366.00
627.50	1269.74
627.69	1288.17
627.88	1312.75
628.07	1245.16
628.26	1296.36
628.45	1245.16
628.64	1300.46
628.83	1396.71
629.02	1327.08
629.21	1282.03
629.40	1286.12
629.59	1302.51
629.78	1263.60
629.97	1351.66
630.16	1306.60
630.35	1310.70
630.54	1286.12
630.73	1333.23
630.92	1378.28
631.11	1230.83
631.30	1308.65
631.49	1380.33
631.68	1515.50
631.87	1853.41
632.06	2402.27
632.25	2093.02
632.44	2260.96
632.63	2265.05
632.82	3776.45
633.01	5441.45
633.20	3114.96
633.39	4102.08
633.58	6840.22
633.77	8324.99
633.96	5189.55
634.15	5105.59
634.34	7223.19
634.53	7937.93
634.72	6981.53
634.91	5685.16
635.10	4685.75
635.29	3590.09
635.48	3026.90
635.67	2539.48
635.86	2156.51
636.05	1869.80
636.24	1560.55
636.43	1507.30
636.62	1396.71
636.81	1376.24
637.00	1386.47
637.19	1400.81
637.38	1476.59
637.57	1308.65
637.76	1355.76
637.95	1327.08
638.14	1335.28
638.33	1337.32
638.52	1290.22
638.71	1300.46
638.89	1386.47
639.08	1288.17
639.27	1284.08
639.46	1331.18
639.65	1279.98
639.84	1253.36
640.03	1265.64
640.22	1288.17
640.41	1284.08
640.60	1249.26
640.79	1294.32
640.98	1316.84
641.17	1279.98
641.36	1284.08
641.55	1347.56
641.74	1296.36
641.92	1271.79
642.11	1333.23
642.30	1282.03
642.49	1247.21
642.68	1322.99
642.87	1269.74
643.06	1290.22
643.25	1265.64
643.44	1271.79
643.63	1273.84
643.82	1288.17
644.00	1267.69
644.19	1247.21
644.38	1355.76
644.57	1279.98
644.76	1331.18
644.95	1277.93
645.14	1243.12
645.33	1222.64
645.52	1302.51
645.71	1325.04
645.89	1261.55
646.08	1277.93
646.27	1273.84
646.46	1298.41
646.65	1290.22
646.84	1300.46
647.03	1214.45
647.22	1208.30
647.40	1269.74
647.59	1214.45
647.78	1263.60
647.97	1265.64
648.16	1249.26
648.35	1312.75
648.54	1277.93
648.73	1247.21
648.91	1239.02
649.10	1200.11
649.29	1292.27
649.48	1273.84
649.67	1265.64
649.86	1232.88
650.05	1331.18
650.23	1308.65
650.42	1284.08
650.61	1198.06
650.80	1325.04
650.99	1279.98
651.18	1368.04
651.36	1277.93
651.55	1220.59
651.74	1202.16
651.93	1257.45
652.12	1239.02
652.31	1232.88
652.49	1290.22
652.68	1284.08
652.87	1331.18
653.06	1351.66
653.25	1343.47
653.44	1220.59
653.62	1394.67
653.81	1236.97
654.00	1294.32
654.19	1359.85
654.38	1347.56
654.56	1234.93
654.75	1271.79
654.94	1230.83
655.13	1239.02
655.32	1228.78
655.51	1308.65
655.69	1261.55
655.88	1292.27
656.07	1239.02
656.26	1310.70
656.45	1286.12
656.63	1339.37
656.82	1236.97
657.01	1259.50
657.20	1187.82
657.38	1279.98
657.57	1216.49
657.76	1302.51
657.95	1329.13
658.14	1239.02
658.32	1226.73
658.51	1277.93
658.70	1253.36
658.89	1196.01
659.08	1208.30
659.26	1249.26
659.45	1259.50
659.64	1329.13
659.83	1314.80
660.01	1304.56
660.20	1298.41
660.39	1282.03
660.58	1241.07
660.76	1257.45
660.95	1265.64
661.14	1279.98
661.33	1245.16
661.51	1292.27
661.70	1267.69
661.89	1232.88
662.08	1296.36
662.26	1277.93
662.45	1267.69
662.64	1286.12
662.83	1300.46
663.01	1273.84
663.20	1294.32
663.39	1302.51
663.58	1212.40
663.76	1370.09
663.95	1247.21
664.14	1320.94
664.32	1247.21
664.51	1302.51
664.70	1216.49
664.89	1312.75
665.07	1277.93
665.26	1226.73
665.45	1314.80
665.64	1277.93
665.82	1316.84
666.01	1230.83
666.20	1292.27
666.38	1216.49
666.57	1284.08
666.76	1296.36
666.95	1288.17
667.13	1331.18
667.32	1273.84
667.51	1290.22
667.69	1269.74
667.88	1239.02
668.07	1226.73
668.25	1333.23
668.44	1277.93
668.63	1294.32
668.81	1320.94
669.00	1286.12
669.19	1284.08
669.38	1277.93
669.56	1255.40
669.75	1257.45
669.94	1230.83
670.12	1173.49
670.31	1298.41
670.50	1255.40
670.68	1353.71
670.87	1253.36
671.06	1320.94
671.24	1261.55
671.43	1243.12
671.62	1255.40
671.80	1273.84
671.99	1282.03
672.18	1257.45
672.36	1259.50
672.55	1245.16
672.74	1236.97
672.92	1226.73
673.11	1312.75
673.29	1267.69
673.48	1257.45
673.67	1282.03
673.85	1292.27
674.04	1253.36
674.23	1294.32
674.41	1216.49
674.60	1314.80
674.79	1300.46
674.97	1208.30
675.16	1185.77
675.34	1267.69
675.53	1279.98
675.72	1275.88
675.90	1331.18
676.09	1196.01
676.28	1298.41
676.46	1322.99
676.65	1273.84
676.83	1279.98
677.02	1173.49
677.21	1241.07
677.39	1239.02
677.58	1253.36
677.77	1267.69
677.95	1241.07
678.14	1267.69
678.32	1261.55
678.51	1322.99
678.70	1269.74
678.88	1296.36
679.07	1261.55
679.25	1212.40
679.44	1294.32
679.63	1187.82
679.81	1294.32
680.00	1286.12
680.18	1312.75
680.37	1189.87
680.55	1277.93
680.74	1282.03
680.93	1329.13
681.11	1257.45
681.30	1216.49
681.48	1325.04
681.67	1347.56
681.85	1277.93
682.04	1257.45
682.23	1263.60
682.41	1271.79
682.60	1216.49
682.78	1296.36
682.97	1345.52
683.15	1265.64
683.34	1247.21
683.53	1263.60
683.71	1249.26
683.90	1294.32
684.08	1265.64
684.27	1271.79
684.45	1288.17
684.64	1249.26
684.82	1318.89
685.01	1357.80
685.19	1218.54
685.38	1310.70
685.57	1304.56
685.75	1329.13
685.94	1249.26
686.12	1296.36
686.31	1298.41
686.49	1312.75
686.68	1288.17
686.86	1298.41
687.05	1263.60
687.23	1220.59
687.42	1302.51
687.60	1251.31
687.79	1279.98
687.97	1288.17
688.16	1265.64
688.34	1241.07
688.53	1333.23
688.71	1359.85
688.90	1288.17
689.08	1318.89
689.27	1202.16
689.45	1200.11
689.64	1245.16
689.82	1259.50
690.01	1218.54
690.19	1271.79
690.38	1224.69
690.56	1267.69
690.75	1263.60
690.93	1284.08
691.12	1214.45
691.30	1230.83
691.49	1255.40
691.67	1288.17
691.86	1314.80
692.04	1232.88
692.23	1249.26
692.41	1234.93
692.60	1349.61
692.78	1257.45
692.97	1300.46
693.15	1214.45
693.34	1204.21
693.52	1322.99
693.71	1200.11
693.89	1298.41
694.08	1292.27
694.26	1232.88
694.44	1265.64
694.63	1267.69
694.81	1288.17
695.00	1312.75
695.18	1257.45
695.37	1298.41
695.55	1306.60
695.74	1255.40
695.92	1255.40
696.10	1277.93
696.29	1259.50
696.47	1279.98
696.66	1308.65
696.84	1249.26
697.03	1296.36
697.21	1282.03
697.40	1314.80
697.58	1298.41
697.76	1265.64
697.95	1249.26
698.13	1153.01
698.32	1279.98
698.50	1198.06
698.68	1247.21
698.87	1251.31
699.05	1269.74
699.24	1292.27
699.42	1279.98
699.61	1310.70
699.79	1259.50
699.97	1212.40
700.16	1261.55
700.34	1161.20
700.53	1271.79
700.71	1286.12
700.89	1341.42
701.08	1263.60
701.26	1337.32
701.45	1200.11
701.63	1259.50
701.81	1259.50
702.00	1306.60
702.18	1249.26
702.37	1259.50
702.55	1290.22
702.73	1314.80
702.92	1322.99
703.10	1314.80
703.28	1282.03
703.47	1290.22
703.65	1368.04
703.84	1312.75
704.02	1232.88
704.20	1282.03
704.39	1239.02
704.57	1277.93
704.75	1294.32
704.94	1349.61
705.12	1271.79
705.30	1288.17
705.49	1288.17
705.67	1290.22
705.86	1286.12
706.04	1257.45
706.22	1331.18
706.41	1271.79
706.59	1316.84
706.77	1302.51
706.96	1185.77
707.14	1257.45
707.32	1212.40
707.51	1216.49
707.69	1218.54
707.87	1282.03
708.06	1300.46
708.24	1247.21
708.42	1255.40
708.61	1267.69
708.79	1183.73
708.97	1230.83
709.16	1220.59
709.34	1239.02
709.52	1224.69
709.71	1187.82
709.89	1265.64
710.07	1282.03
710.26	1222.64
710.44	1282.03
710.62	1282.03
710.80	1284.08
710.99	1331.18
711.17	1273.84
711.35	1275.88
711.54	1288.17
711.72	1267.69
711.90	1312.75
712.09	1322.99
712.27	1255.40
712.45	1245.16
712.63	1206.25
712.82	1275.88
713.00	1282.03
713.18	1322.99
713.37	1296.36
713.55	1202.16
713.73	1267.69
713.91	1279.98
714.10	1298.41
714.28	1267.69
714.46	1267.69
714.65	1304.56
714.83	1247.21
715.01	1198.06
715.19	1226.73
715.38	1245.16
715.56	1263.60
715.74	1298.41
715.92	1325.04
716.11	1314.80
716.29	1290.22
716.47	1284.08
716.65	1277.93
716.84	1292.27
717.02	1275.88
717.20	1220.59
717.38	1232.88
717.57	1310.70
717.75	1241.07
717.93	1310.70
718.11	1290.22
718.30	1279.98
718.48	1236.97
718.66	1300.46
718.84	1189.87
719.03	1265.64
719.21	1279.98
719.39	1239.02
719.57	1228.78
719.75	1273.84
719.94	1245.16
720.12	1234.93
720.30	1306.60
720.48	1226.73
720.67	1243.12
720.85	1312.75
721.03	1273.84
721.21	1189.87
721.39	1253.36
721.58	1239.02
721.76	1259.50
721.94	1265.64
722.12	1316.84
722.30	1306.60
722.49	1277.93
722.67	1204.21
722.85	1325.04
723.03	1271.79
723.21	1327.08
723.40	1302.51
723.58	1261.55
723.76	1359.85
723.94	1269.74
724.12	1279.98
724.30	1306.60
724.49	1232.88
724.67	1247.21
724.85	1275.88
725.03	1292.27
725.21	1224.69
725.40	1273.84
725.58	1320.94
725.76	1286.12
725.94	1230.83
726.12	1296.36
726.30	1265.64
726.49	1294.32
726.67	1226.73
726.85	1226.73
727.03	1265.64
727.21	1261.55
727.39	1286.12
727.57	1257.45
727.76	1224.69
727.94	1222.64
728.12	1253.36
728.30	1271.79
728.48	1279.98
728.66	1232.88
728.84	1271.79
729.03	1263.60
729.21	1212.40
729.39	1210.35
729.57	1265.64
729.75	1310.70
729.93	1271.79
730.11	1353.71
730.30	1271.79
730.48	1290.22
730.66	1279.98
730.84	1228.78
731.02	1294.32
731.20	1226.73
731.38	1257.45
731.56	1243.12
731.74	1284.08
731.93	1273.84
732.11	1267.69
732.29	1171.44
732.47	1204.21
732.65	1329.13
732.83	1214.45
733.01	1273.84
733.19	1200.11
733.37	1267.69
733.56	1241.07
733.74	1282.03
733.92	1343.47
734.10	1353.71
734.28	1247.21
734.46	1306.60
734.64	1247.21
734.82	1265.64
735.00	1257.45
735.18	1243.12
735.36	1290.22
735.54	1310.70
735.73	1298.41
735.91	1322.99
736.09	1222.64
736.27	1355.76
736.45	1296.36
736.63	1282.03
736.81	1224.69
736.99	1320.94
737.17	1306.60
737.35	1261.55
737.53	1310.70
737.71	1273.84
737.89	1257.45
738.07	1255.40
738.25	1273.84
738.43	1300.46
738.61	1253.36
738.80	1300.46
738.98	1263.60
739.16	1241.07
739.34	1212.40
739.52	1327.08
739.70	1232.88
739.88	1304.56
740.06	1310.70
740.24	1306.60
740.42	1277.93
740.60	1239.02
740.78	1247.21
740.96	1230.83
741.14	1249.26
741.32	1304.56
741.50	1286.12
741.68	1210.35
741.86	1251.31
742.04	1255.40
742.22	1261.55
742.40	1251.31
742.58	1308.65
742.76	1261.55
742.94	1224.69
743.12	1247.21
743.30	1200.11
743.48	1331.18
743.66	1275.88
743.84	1253.36
744.02	1282.03
744.20	1220.59
744.38	1314.80
744.56	1224.69
744.74	1261.55
744.92	1302.51
745.10	1243.12
745.28	1249.26
745.46	1196.01
745.64	1253.36
745.82	1325.04
746.00	1239.02
746.18	1265.64
746.36	1284.08
746.54	1279.98
746.72	1320.94
746.90	1267.69
747.08	1341.42
747.26	1298.41
747.44	1284.08
747.62	1232.88
747.80	1322.99
747.98	1294.32
748.15	1310.70
748.33	1304.56
748.51	1286.12
748.69	1257.45
748.87	1275.88
749.05	1230.83
749.23	1277.93
749.41	1236.97
749.59	1173.49
749.77	1325.04
749.95	1218.54
750.13	1267.69
750.31	1226.73
750.49	1314.80
750.67	1208.30
750.85	1210.35
751.03	1341.42
751.20	1279.98
751.38	1241.07
751.56	1269.74
751.74	1302.51
751.92	1261.55
752.10	1243.12
752.28	1292.27
752.46	1296.36
752.64	1302.51
752.82	1263.60
753.00	1253.36
753.18	1282.03
753.35	1273.84
753.53	1314.80
753.71	1243.12
753.89	1239.02
754.07	1282.03
754.25	1239.02
754.43	1294.32
754.61	1253.36
754.79	1224.69
754.97	1243.12
755.14	1222.64
755.32	1284.08
755.50	1300.46
755.68	1331.18
755.86	1234.93
756.04	1273.84
756.22	1286.12
756.40	1310.70
756.57	1249.26
756.75	1249.26
756.93	1269.74
757.11	1222.64
757.29	1284.08
757.47	1312.75
757.65	1218.54
757.82	1290.22
758.00	1302.51
758.18	1245.16
758.36	1267.69
758.54	1282.03
758.72	1294.32
758.90	1353.71
759.07	1269.74
759.25	1288.17
759.43	1220.59
759.61	1368.04
759.79	1273.84
759.97	1255.40
760.15	1267.69
760.32	1284.08
760.50	1234.93
760.68	1279.98
760.86	1286.12
761.04	1312.75
761.22	1310.70
761.39	1314.80
761.57	1314.80
761.75	1265.64
761.93	1200.11
762.11	1288.17
762.28	1185.77
762.46	1294.32
762.64	1243.12
762.82	1259.50
763.00	1228.78
763.18	1230.83
763.35	1269.74
763.53	1314.80
763.71	1263.60
763.89	1267.69
764.07	1304.56
764.24	1257.45
764.42	1212.40
764.60	1296.36
764.78	1249.26
764.96	1228.78
765.13	1222.64
765.31	1292.27
765.49	1282.03
765.67	1243.12
765.84	1236.97
766.02	1298.41
766.20	1290.22
766.38	1224.69
766.56	1308.65
766.73	1243.12
766.91	1290.22
767.09	1230.83
767.27	1210.35
767.44	1306.60
767.62	1218.54
767.80	1271.79
767.98	1236.97
768.15	1230.83
768.33	1284.08
768.51	1245.16
768.69	1261.55
768.87	1279.98
769.04	1249.26
769.22	1341.42
769.40	1251.31
769.58	1255.40
769.75	1310.70
769.93	1236.97
770.11	1255.40
770.28	1241.07
770.46	1224.69
770.64	1253.36
770.82	1265.64
770.99	1241.07
771.17	1286.12
771.35	1255.40
771.53	1239.02
771.70	1222.64
771.88	1298.41
772.06	1255.40
772.23	1228.78
772.41	1273.84
772.59	1331.18
772.77	1284.08
772.94	1284.08
773.12	1267.69
773.30	1241.07
773.47	1298.41
773.65	1292.27
773.83	1273.84
774.01	1249.26
774.18	1294.32
774.36	1247.21
774.54	1232.88
774.71	1277.93
774.89	1216.49
775.07	1224.69
775.24	1273.84
775.42	1337.32
775.60	1312.75
775.78	1224.69
775.95	1318.89
776.13	1286.12
776.31	1247.21
776.48	1376.24
776.66	1337.32
776.84	1257.45
777.01	1339.37
777.19	1196.01
777.37	1275.88
777.54	1220.59
777.72	1277.93
777.90	1175.53
778.07	1241.07
778.25	1230.83
778.43	1355.76
778.60	1288.17
778.78	1220.59
778.96	1185.77
779.13	1273.84
779.31	1243.12
779.49	1267.69
779.66	1257.45
779.84	1241.07
780.01	1251.31
780.19	1200.11
780.37	1255.40
780.54	1224.69
780.72	1265.64
780.90	1208.30
781.07	1275.88
781.25	1325.04
781.43	1224.69
781.60	1222.64
781.78	1265.64
781.95	1320.94
782.13	1366.00
782.31	1261.55
782.48	1224.69
782.66	1290.22
782.83	1263.60
783.01	1277.93
783.19	1206.25
783.36	1312.75
783.54	1308.65
783.72	1294.32
783.89	1265.64
784.07	1298.41
784.24	1282.03
784.42	1257.45
784.60	1263.60
784.77	1304.56
784.95	1202.16
785.12	1290.22
785.30	1239.02
785.47	1296.36
785.65	1210.35
785.83	1302.51
786.00	1284.08
786.18	1259.50
786.35	1222.64
786.53	1206.25
786.71	1271.79
786.88	1245.16
787.06	1261.55
787.23	1337.32
787.41	1249.26
787.58	1245.16
787.76	1273.84
787.94	1312.75
788.11	1282.03
788.29	1288.17
788.46	1292.27
788.64	1234.93
788.81	1224.69
788.99	1249.26
789.16	1236.97
789.34	1279.98
789.52	1224.69
789.69	1222.64
789.87	1249.26
790.04	1322.99
790.22	1296.36
790.39	1329.13
790.57	1277.93
790.74	1234.93
790.92	1253.36
791.09	1228.78
791.27	1343.47
791.44	1294.32
791.62	1234.93
791.79	1255.40
791.97	1253.36
792.15	1345.52
792.32	1314.80
792.50	1255.40
792.67	1269.74
792.85	1292.27
793.02	1265.64
793.20	1269.74
793.37	1271.79
793.55	1220.59
793.72	1196.01
793.90	1310.70
794.07	1257.45
794.25	1226.73
794.42	1288.17
794.60	1220.59
794.77	1294.32
794.95	1294.32
795.12	1310.70
795.30	1325.04
795.47	1255.40
795.65	1298.41
795.82	1232.88
796.00	1277.93
796.17	1318.89
796.34	1253.36
796.52	1236.97
796.69	1343.47
796.87	1251.31
797.04	1282.03
797.22	1325.04
797.39	1308.65
797.57	1247.21
797.74	1263.60
797.92	1292.27
798.09	1243.12
798.27	1232.88
798.44	1279.98
798.62	1214.45
798.79	1263.60
798.96	1271.79
799.14	1277.93
799.31	1284.08
799.49	1226.73
799.66	1232.88
799.84	1329.13
800.01	1212.40
800.19	1296.36
800.36	1284.08
800.53	1214.45
800.71	1261.55
800.88	1269.74
801.06	1220.59
801.23	1261.55
801.41	1267.69
801.58	1228.78
801.75	1236.97
801.93	1318.89
802.10	1257.45
802.28	1200.11
802.45	1236.97
802.63	1322.99
802.80	1198.06
802.97	1204.21
803.15	1218.54
803.32	1245.16
803.50	1232.88
803.67	1216.49
803.84	1302.51
804.02	1302.51
804.19	1255.40
804.37	1263.60
804.54	1261.55
804.71	1179.63
804.89	1247.21
805.06	1251.31
805.24	1243.12
805.41	1300.46
805.58	1298.41
805.76	1320.94
805.93	1189.87
806.10	1234.93
806.28	1251.31
806.45	1236.97
806.63	1294.32
806.80	1239.02
806.97	1265.64
807.15	1282.03
807.32	1253.36
807.49	1376.24
807.67	1275.88
807.84	1253.36
808.01	1284.08
808.19	1263.60
808.36	1249.26
808.54	1232.88
808.71	1296.36
808.88	1290.22
809.06	1273.84
809.23	1314.80
809.40	1236.97
809.58	1257.45
809.75	1261.55
809.92	1249.26
810.10	1251.31
810.27	1249.26
810.44	1224.69
810.62	1234.93
810.79	1204.21
810.96	1261.55
811.14	1243.12
811.31	1322.99
811.48	1247.21
811.66	1263.60
811.83	1265.64
812.00	1236.97
812.18	1294.32
812.35	1357.80
812.52	1327.08
812.69	1290.22
812.87	1286.12
813.04	1259.50
813.21	1294.32
813.39	1245.16
813.56	1265.64
813.73	1296.36
813.91	1220.59
814.08	1335.28
814.25	1275.88
814.42	1271.79
814.60	1249.26
814.77	1224.69
814.94	1200.11
815.12	1282.03
815.29	1267.69
815.46	1241.07
815.63	1204.21
815.81	1265.64
815.98	1318.89
816.15	1228.78
816.33	1259.50
816.50	1318.89
816.67	1300.46
816.84	1282.03
817.02	1308.65
817.19	1310.70
817.36	1265.64
817.53	1249.26
817.71	1298.41
817.88	1202.16
818.05	1288.17
818.22	1216.49
818.40	1241.07
818.57	1255.40
818.74	1273.84
818.91	1282.03
819.09	1282.03
819.26	1243.12
819.43	1230.83
819.60	1243.12
819.78	1232.88
819.95	1286.12
820.12	1298.41
820.29	1224.69
820.47	1259.50
820.64	1282.03
820.81	1304.56
820.98	1200.11
821.15	1263.60
821.33	1282.03
821.50	1263.60
821.67	1247.21
821.84	1267.69
822.02	1232.88
822.19	1265.64
822.36	1267.69
822.53	1241.07
822.70	1222.64
822.88	1247.21
823.05	1206.25
823.22	1294.32
823.39	1282.03
823.56	1269.74
823.74	1310.70
823.91	1243.12
824.08	1224.69
824.25	1279.98
824.42	1312.75
824.60	1253.36
824.77	1255.40
824.94	1308.65
825.11	1296.36
825.28	1220.59
825.45	1208.30
825.63	1206.25
825.80	1302.51
825.97	1310.70
826.14	1302.51
826.31	1277.93
826.48	1263.60
826.66	1302.51
826.83	1282.03
827.00	1267.69
827.17	1222.64
827.34	1282.03
827.51	1263.60
827.69	1343.47
827.86	1241.07
828.03	1279.98
828.20	1265.64
828.37	1277.93
828.54	1294.32
828.71	1216.49
828.89	1347.56
829.06	1179.63
829.23	1298.41
829.40	1257.45
829.57	1202.16
829.74	1251.31
829.91	1232.88
830.09	1247.21
830.26	1261.55
830.43	1271.79
830.60	1247.21
830.77	1288.17
830.94	1212.40
831.11	1300.46
831.28	1286.12
831.46	1226.73
831.63	1239.02
831.80	1273.84
831.97	1159.15
832.14	1292.27
832.31	1247.21
832.48	1333.23
832.65	1191.92
832.82	1357.80
832.99	1230.83
833.17	1247.21
833.34	1216.49
833.51	1269.74
833.68	1265.64
833.85	1288.17
834.02	1288.17
834.19	1245.16
834.36	1228.78
834.53	1261.55
834.70	1232.88
834.87	1196.01
835.04	1265.64
835.22	1298.41
835.39	1286.12
835.56	1335.28
835.73	1314.80
835.90	1208.30
836.07	1275.88
836.24	1234.93
836.41	1294.32
836.58	1187.82
836.75	1230.83
836.92	1245.16
837.09	1267.69
837.26	1341.42
837.43	1255.40
837.60	1306.60
837.77	1279.98
837.94	1282.03
838.12	1265.64
838.29	1300.46
838.46	1267.69
838.63	1275.88
838.80	1298.41
838.97	1314.80
839.14	1306.60
839.31	1265.64
839.48	1226.73
839.65	1173.49
839.82	1325.04
839.99	1245.16
840.16	1294.32
840.33	1267.69
840.50	1277.93
840.67	1228.78
840.84	1216.49
841.01	1247.21
841.18	1249.26
841.35	1245.16
841.52	1271.79
841.69	1290.22
841.86	1269.74
842.03	1236.97
842.20	1314.80
842.37	1239.02
842.54	1282.03
842.71	1161.20
842.88	1222.64
843.05	1298.41
843.22	1204.21
843.39	1296.36
843.56	1271.79
843.73	1232.88
843.90	1249.26
844.07	1243.12
844.24	1327.08
844.41	1292.27
844.58	1337.32
844.75	1290.22
844.92	1253.36
845.09	1212.40
845.26	1159.15
845.43	1288.17
845.60	1300.46
845.77	1312.75
845.94	1224.69
846.10	1253.36
846.27	1320.94
846.44	1331.18
846.61	1255.40
846.78	1257.45
846.95	1239.02
847.12	1277.93
847.29	1290.22
847.46	1251.31
847.63	1296.36
847.80	1382.38
847.97	1267.69
848.14	1312.75
848.31	1269.74
848.48	1210.35
848.65	1296.36
848.82	1232.88
848.98	1198.06
849.15	1296.36
849.32	1292.27
849.49	1286.12
849.66	1263.60
849.83	1259.50
850.00	1288.17
850.17	1249.26
850.34	1292.27
850.51	1226.73
850.68	1204.21
850.85	1232.88
851.01	1273.84
851.18	1230.83
851.35	1296.36
851.52	1279.98
851.69	1265.64
851.86	1202.16
852.03	1220.59
852.20	1286.12
852.37	1247.21
852.53	1279.98
852.70	1275.88
852.87	1273.84
853.04	1300.46
853.21	1277.93
853.38	1271.79
853.55	1273.84
853.72	1222.64
853.89	1269.74
854.05	1243.12
854.22	1265.64
854.39	1253.36
854.56	1306.60
854.73	1361.90
854.90	1210.35
855.07	1310.70
855.23	1261.55
855.40	1210.35
855.57	1236.97
855.74	1239.02
855.91	1263.60
856.08	1214.45
856.25	1257.45
856.41	1263.60
856.58	1345.52
856.75	1232.88
856.92	1214.45
857.09	1265.64
857.26	1275.88
857.42	1247.21
857.59	1236.97
857.76	1187.82
857.93	1212.40
858.10	1216.49
858.27	1245.16
858.43	1263.60
858.60	1320.94
858.77	1306.60
858.94	1247.21
859.11	1302.51
859.27	1253.36
859.44	1304.56
859.61	1241.07
859.78	1310.70
859.95	1306.60
860.12	1308.65
860.28	1245.16
860.45	1259.50
860.62	1308.65
860.79	1279.98
860.95	1253.36
861.12	1282.03
861.29	1284.08
861.46	1251.31
861.63	1187.82
861.79	1275.88
861.96	1265.64
862.13	1273.84
862.30	1263.60
862.47	1329.13
862.63	1286.12
862.80	1226.73
862.97	1259.50
863.14	1212.40
863.30	1216.49
863.47	1249.26
863.64	1245.16
863.81	1331.18
863.97	1292.27
864.14	1241.07
864.31	1306.60
864.48	1259.50
864.65	1241.07
864.81	1288.17
864.98	1302.51
865.15	1357.80
865.32	1282.03
865.48	1288.17
865.65	1275.88
865.82	1243.12
865.98	1253.36
866.15	1279.98
866.32	1206.25
866.49	1312.75
866.65	1234.93
866.82	1298.41
866.99	1306.60
867.16	1206.25
867.32	1245.16
867.49	1325.04
867.66	1277.93
867.83	1271.79
867.99	1234.93
868.16	1232.88
868.33	1267.69
868.49	1251.31
868.66	1261.55
868.83	1259.50
868.99	1286.12
869.16	1306.60
869.33	1210.35
869.50	1230.83
869.66	1230.83
869.83	1277.93
870.00	1292.27
870.16	1290.22
870.33	1230.83
870.50	1189.87
870.66	1279.98
870.83	1253.36
871.00	1288.17
871.17	1366.00
871.33	1273.84
871.50	1298.41
871.67	1220.59
871.83	1226.73
872.00	1265.64
872.17	1234.93
872.33	1273.84
872.50	1200.11
872.67	1284.08
872.83	1255.40
873.00	1257.45
873.17	1196.01
873.33	1263.60
873.50	1261.55
873.67	1318.89
873.83	1234.93
874.00	1234.93
874.16	1296.36
874.33	1298.41
874.50	1236.97
874.66	1345.52
874.83	1245.16
875.00	1255.40
875.16	1212.40
875.33	1255.40
875.50	1341.42
875.66	1249.26
875.83	1247.21
875.99	1245.16
876.16	1290.22
876.33	1216.49
876.49	1271.79
876.66	1263.60
876.83	1259.50
876.99	1249.26
877.16	1298.41
877.32	1302.51
877.49	1230.83
877.66	1296.36
877.82	1282.03
877.99	1322.99
878.15	1325.04
878.32	1249.26
878.49	1247.21
878.65	1239.02
878.82	1255.40
878.98	1271.79
879.15	1249.26
879.32	1263.60
879.48	1353.71
879.65	1257.45
879.81	1159.15
879.98	1234.93
880.15	1284.08
880.31	1300.46
880.48	1298.41
880.64	1275.88
880.81	1255.40
880.97	1282.03
881.14	1288.17
881.31	1208.30
881.47	1247.21
881.64	1310.70
881.80	1357.80
881.97	1232.88
882.13	1232.88
882.30	1277.93
882.47	1210.35
882.63	1193.97
882.80	1275.88
882.96	1241.07
883.13	1294.32
883.29	1294.32
883.46	1239.02
883.62	1302.51
883.79	1292.27
883.95	1249.26
884.12	1288.17
884.29	1212.40
884.45	1288.17
884.62	1214.45
884.78	1294.32
884.95	1210.35
885.11	1239.02
885.28	1251.31
885.44	1181.68
885.61	1218.54
885.77	1337.32
885.94	1232.88
886.10	1329.13
886.27	1296.36
886.43	1282.03
886.60	1249.26
886.76	1214.45
886.93	1198.06
887.09	1228.78
887.26	1255.40
887.42	1267.69
887.59	1310.70
887.75	1241.07
887.92	1296.36
888.08	1234.93
888.25	1243.12
888.41	1245.16
888.58	1232.88
888.74	1294.32
888.91	1316.84
>>>>>End Processed Spectral Data<<<<<
