SpectraSuite Data File
++++++++++++++++++++++++++++++++++++
Date: Sun Apr 03 19:55:19 CEST 2016
User: root
Dark Spectrum Present: No
Reference Spectrum Present: No
Number of Sampled Component Spectra: 1
Spectrometers: USB4C02835
Integration Time (usec): 10000 (USB4C02835)
Spectra Averaged: 1 (USB4C02835)
Boxcar Smoothing: 0 (USB4C02835)
Correct for Electrical Dark: No (USB4C02835)
Strobe/Lamp Enabled: No (USB4C02835)
Correct for Detector Non-linearity: No (USB4C02835)
Correct for Stray Light: No (USB4C02835)
Number of Pixels in Processed Spectrum: 3648
>>>>>Begin Processed Spectral Data<<<<<
177.47	1212.40
177.69	1212.40
177.91	1212.40
178.13	1271.79
178.36	1241.07
178.58	1251.31
178.80	1212.40
179.02	1171.44
179.24	1245.16
179.46	1300.46
179.68	1212.40
179.90	1193.97
180.13	1286.12
180.35	1284.08
180.57	1239.02
180.79	1282.03
181.01	1304.56
181.23	1267.69
181.45	1220.59
181.67	1269.74
181.90	1296.36
182.12	1275.88
182.34	1224.69
182.56	1271.79
182.78	1271.79
183.00	1234.93
183.22	1304.56
183.44	1253.36
183.66	1300.46
183.89	1230.83
184.11	1282.03
184.33	1259.50
184.55	1206.25
184.77	1263.60
184.99	1273.84
185.21	1290.22
185.43	1247.21
185.65	1253.36
185.87	1206.25
186.10	1253.36
186.32	1177.58
186.54	1279.98
186.76	1306.60
186.98	1318.89
187.20	1316.84
187.42	1198.06
187.64	1247.21
187.86	1284.08
188.08	1214.45
188.30	1253.36
188.52	1312.75
188.75	1241.07
188.97	1228.78
189.19	1257.45
189.41	1292.27
189.63	1222.64
189.85	1325.04
190.07	1210.35
190.29	1333.23
190.51	1257.45
190.73	1173.49
190.95	1204.21
191.17	1232.88
191.39	1200.11
191.61	1241.07
191.84	1245.16
192.06	1249.26
192.28	1204.21
192.50	1230.83
192.72	1296.36
192.94	1329.13
193.16	1312.75
193.38	1212.40
193.60	1253.36
193.82	1273.84
194.04	1218.54
194.26	1251.31
194.48	1245.16
194.70	1294.32
194.92	1200.11
195.14	1273.84
195.36	1228.78
195.58	1314.80
195.80	1196.01
196.02	1273.84
196.24	1208.30
196.46	1273.84
196.69	1286.12
196.91	1216.49
197.13	1257.45
197.35	1265.64
197.57	1226.73
197.79	1275.88
198.01	1294.32
198.23	1329.13
198.45	1265.64
198.67	1216.49
198.89	1230.83
199.11	1239.02
199.33	1298.41
199.55	1292.27
199.77	1239.02
199.99	1290.22
200.21	1226.73
200.43	1333.23
200.65	1302.51
200.87	1257.45
201.09	1263.60
201.31	1339.37
201.53	1267.69
201.75	1300.46
201.97	1298.41
202.19	1228.78
202.41	1314.80
202.63	1236.97
202.85	1327.08
203.07	1236.97
203.29	1257.45
203.51	1275.88
203.73	1247.21
203.95	1273.84
204.17	1257.45
204.39	1304.56
204.61	1245.16
204.83	1222.64
205.05	1282.03
205.27	1347.56
205.49	1275.88
205.71	1288.17
205.93	1275.88
206.15	1263.60
206.37	1288.17
206.59	1245.16
206.81	1253.36
207.03	1253.36
207.25	1292.27
207.47	1279.98
207.69	1224.69
207.91	1257.45
208.13	1228.78
208.34	1282.03
208.56	1296.36
208.78	1273.84
209.00	1267.69
209.22	1171.44
209.44	1277.93
209.66	1208.30
209.88	1241.07
210.10	1277.93
210.32	1290.22
210.54	1234.93
210.76	1273.84
210.98	1177.58
211.20	1279.98
211.42	1206.25
211.64	1189.87
211.86	1290.22
212.08	1288.17
212.30	1353.71
212.52	1279.98
212.74	1306.60
212.96	1245.16
213.17	1300.46
213.39	1255.40
213.61	1335.28
213.83	1345.52
214.05	1245.16
214.27	1253.36
214.49	1234.93
214.71	1234.93
214.93	1241.07
215.15	1249.26
215.37	1322.99
215.59	1273.84
215.81	1308.65
216.03	1296.36
216.24	1259.50
216.46	1239.02
216.68	1249.26
216.90	1251.31
217.12	1296.36
217.34	1298.41
217.56	1288.17
217.78	1253.36
218.00	1331.18
218.22	1255.40
218.44	1224.69
218.66	1290.22
218.87	1318.89
219.09	1300.46
219.31	1257.45
219.53	1325.04
219.75	1288.17
219.97	1310.70
220.19	1232.88
220.41	1308.65
220.63	1304.56
220.85	1322.99
221.06	1300.46
221.28	1232.88
221.50	1314.80
221.72	1251.31
221.94	1271.79
222.16	1290.22
222.38	1243.12
222.60	1306.60
222.82	1263.60
223.03	1255.40
223.25	1284.08
223.47	1298.41
223.69	1275.88
223.91	1269.74
224.13	1294.32
224.35	1265.64
224.57	1343.47
224.78	1255.40
225.00	1198.06
225.22	1241.07
225.44	1318.89
225.66	1306.60
225.88	1249.26
226.10	1327.08
226.32	1218.54
226.53	1236.97
226.75	1275.88
226.97	1220.59
227.19	1271.79
227.41	1269.74
227.63	1288.17
227.85	1294.32
228.06	1345.52
228.28	1286.12
228.50	1265.64
228.72	1279.98
228.94	1269.74
229.16	1245.16
229.37	1277.93
229.59	1255.40
229.81	1286.12
230.03	1253.36
230.25	1269.74
230.47	1232.88
230.69	1333.23
230.90	1259.50
231.12	1210.35
231.34	1253.36
231.56	1271.79
231.78	1206.25
232.00	1296.36
232.21	1310.70
232.43	1312.75
232.65	1292.27
232.87	1230.83
233.09	1267.69
233.30	1298.41
233.52	1331.18
233.74	1300.46
233.96	1277.93
234.18	1187.82
234.40	1271.79
234.61	1286.12
234.83	1298.41
235.05	1284.08
235.27	1206.25
235.49	1394.67
235.70	1253.36
235.92	1314.80
236.14	1196.01
236.36	1271.79
236.58	1232.88
236.79	1224.69
237.01	1214.45
237.23	1218.54
237.45	1288.17
237.67	1206.25
237.88	1267.69
238.10	1292.27
238.32	1302.51
238.54	1255.40
238.76	1271.79
238.97	1277.93
239.19	1284.08
239.41	1232.88
239.63	1282.03
239.85	1236.97
240.06	1257.45
240.28	1224.69
240.50	1243.12
240.72	1314.80
240.93	1249.26
241.15	1210.35
241.37	1265.64
241.59	1279.98
241.81	1331.18
242.02	1316.84
242.24	1245.16
242.46	1320.94
242.68	1286.12
242.89	1300.46
243.11	1216.49
243.33	1279.98
243.55	1255.40
243.76	1294.32
243.98	1290.22
244.20	1370.09
244.42	1310.70
244.64	1222.64
244.85	1273.84
245.07	1259.50
245.29	1269.74
245.51	1310.70
245.72	1236.97
245.94	1320.94
246.16	1253.36
246.38	1269.74
246.59	1308.65
246.81	1247.21
247.03	1243.12
247.24	1292.27
247.46	1322.99
247.68	1228.78
247.90	1241.07
248.11	1202.16
248.33	1224.69
248.55	1351.66
248.77	1290.22
248.98	1294.32
249.20	1249.26
249.42	1245.16
249.64	1271.79
249.85	1193.97
250.07	1257.45
250.29	1296.36
250.50	1300.46
250.72	1331.18
250.94	1306.60
251.16	1271.79
251.37	1320.94
251.59	1228.78
251.81	1263.60
252.02	1228.78
252.24	1277.93
252.46	1179.63
252.68	1296.36
252.89	1318.89
253.11	1228.78
253.33	1269.74
253.54	1222.64
253.76	1327.08
253.98	1249.26
254.20	1279.98
254.41	1269.74
254.63	1245.16
254.85	1275.88
255.06	1257.45
255.28	1347.56
255.50	1259.50
255.71	1261.55
255.93	1304.56
256.15	1294.32
256.36	1239.02
256.58	1290.22
256.80	1230.83
257.02	1206.25
257.23	1322.99
257.45	1179.63
257.67	1322.99
257.88	1220.59
258.10	1220.59
258.32	1232.88
258.53	1318.89
258.75	1290.22
258.97	1273.84
259.18	1341.42
259.40	1259.50
259.62	1269.74
259.83	1232.88
260.05	1257.45
260.27	1204.21
260.48	1271.79
260.70	1226.73
260.92	1282.03
261.13	1255.40
261.35	1298.41
261.57	1339.37
261.78	1345.52
262.00	1245.16
262.22	1331.18
262.43	1298.41
262.65	1288.17
262.86	1241.07
263.08	1329.13
263.30	1255.40
263.51	1261.55
263.73	1255.40
263.95	1302.51
264.16	1304.56
264.38	1255.40
264.60	1224.69
264.81	1282.03
265.03	1304.56
265.25	1306.60
265.46	1370.09
265.68	1277.93
265.89	1273.84
266.11	1298.41
266.33	1241.07
266.54	1216.49
266.76	1345.52
266.98	1282.03
267.19	1214.45
267.41	1290.22
267.62	1273.84
267.84	1312.75
268.06	1296.36
268.27	1257.45
268.49	1232.88
268.70	1275.88
268.92	1279.98
269.14	1222.64
269.35	1290.22
269.57	1216.49
269.79	1259.50
270.00	1290.22
270.22	1196.01
270.43	1290.22
270.65	1273.84
270.87	1261.55
271.08	1298.41
271.30	1257.45
271.51	1230.83
271.73	1290.22
271.95	1241.07
272.16	1202.16
272.38	1275.88
272.59	1245.16
272.81	1243.12
273.02	1269.74
273.24	1224.69
273.46	1236.97
273.67	1234.93
273.89	1292.27
274.10	1316.84
274.32	1228.78
274.54	1273.84
274.75	1204.21
274.97	1265.64
275.18	1279.98
275.40	1239.02
275.61	1310.70
275.83	1269.74
276.05	1279.98
276.26	1208.30
276.48	1275.88
276.69	1339.37
276.91	1253.36
277.12	1290.22
277.34	1290.22
277.55	1341.42
277.77	1259.50
277.99	1200.11
278.20	1302.51
278.42	1279.98
278.63	1263.60
278.85	1265.64
279.06	1290.22
279.28	1265.64
279.49	1196.01
279.71	1259.50
279.93	1271.79
280.14	1296.36
280.36	1306.60
280.57	1224.69
280.79	1275.88
281.00	1214.45
281.22	1224.69
281.43	1251.31
281.65	1241.07
281.86	1241.07
282.08	1220.59
282.29	1189.87
282.51	1273.84
282.73	1279.98
282.94	1269.74
283.16	1306.60
283.37	1239.02
283.59	1239.02
283.80	1228.78
284.02	1294.32
284.23	1212.40
284.45	1255.40
284.66	1259.50
284.88	1298.41
285.09	1220.59
285.31	1267.69
285.52	1380.33
285.74	1271.79
285.95	1253.36
286.17	1284.08
286.38	1277.93
286.60	1257.45
286.81	1261.55
287.03	1298.41
287.24	1263.60
287.46	1232.88
287.67	1316.84
287.89	1290.22
288.10	1243.12
288.32	1263.60
288.53	1296.36
288.75	1288.17
288.96	1239.02
289.18	1245.16
289.39	1226.73
289.61	1282.03
289.82	1245.16
290.04	1286.12
290.25	1239.02
290.47	1243.12
290.68	1239.02
290.90	1228.78
291.11	1284.08
291.33	1282.03
291.54	1255.40
291.76	1273.84
291.97	1290.22
292.18	1302.51
292.40	1218.54
292.61	1306.60
292.83	1228.78
293.04	1226.73
293.26	1239.02
293.47	1257.45
293.69	1294.32
293.90	1314.80
294.12	1333.23
294.33	1304.56
294.55	1222.64
294.76	1259.50
294.97	1298.41
295.19	1265.64
295.40	1249.26
295.62	1282.03
295.83	1228.78
296.05	1212.40
296.26	1218.54
296.48	1210.35
296.69	1312.75
296.90	1279.98
297.12	1243.12
297.33	1296.36
297.55	1241.07
297.76	1300.46
297.98	1243.12
298.19	1277.93
298.41	1259.50
298.62	1290.22
298.83	1279.98
299.05	1265.64
299.26	1257.45
299.48	1320.94
299.69	1277.93
299.90	1288.17
300.12	1282.03
300.33	1296.36
300.55	1370.09
300.76	1314.80
300.98	1298.41
301.19	1259.50
301.40	1212.40
301.62	1339.37
301.83	1257.45
302.05	1257.45
302.26	1236.97
302.47	1222.64
302.69	1241.07
302.90	1286.12
303.12	1196.01
303.33	1263.60
303.54	1275.88
303.76	1216.49
303.97	1269.74
304.19	1239.02
304.40	1249.26
304.61	1236.97
304.83	1228.78
305.04	1290.22
305.26	1224.69
305.47	1275.88
305.68	1339.37
305.90	1269.74
306.11	1253.36
306.33	1204.21
306.54	1251.31
306.75	1368.04
306.97	1232.88
307.18	1214.45
307.39	1275.88
307.61	1306.60
307.82	1214.45
308.04	1210.35
308.25	1304.56
308.46	1290.22
308.68	1220.59
308.89	1249.26
309.10	1277.93
309.32	1255.40
309.53	1320.94
309.74	1269.74
309.96	1361.90
310.17	1245.16
310.39	1320.94
310.60	1239.02
310.81	1249.26
311.03	1269.74
311.24	1273.84
311.45	1331.18
311.67	1335.28
311.88	1220.59
312.09	1261.55
312.31	1265.64
312.52	1241.07
312.73	1298.41
312.95	1232.88
313.16	1273.84
313.37	1234.93
313.59	1347.56
313.80	1220.59
314.01	1239.02
314.23	1257.45
314.44	1282.03
314.65	1232.88
314.87	1288.17
315.08	1279.98
315.29	1263.60
315.51	1236.97
315.72	1275.88
315.93	1310.70
316.15	1347.56
316.36	1177.58
316.57	1236.97
316.79	1263.60
317.00	1253.36
317.21	1261.55
317.43	1232.88
317.64	1196.01
317.85	1290.22
318.07	1320.94
318.28	1310.70
318.49	1263.60
318.70	1306.60
318.92	1191.92
319.13	1306.60
319.34	1239.02
319.56	1263.60
319.77	1245.16
319.98	1243.12
320.20	1251.31
320.41	1290.22
320.62	1171.44
320.83	1177.58
321.05	1265.64
321.26	1226.73
321.47	1296.36
321.69	1224.69
321.90	1247.21
322.11	1226.73
322.32	1253.36
322.54	1314.80
322.75	1310.70
322.96	1296.36
323.18	1310.70
323.39	1325.04
323.60	1251.31
323.81	1216.49
324.03	1306.60
324.24	1263.60
324.45	1255.40
324.66	1279.98
324.88	1288.17
325.09	1269.74
325.30	1318.89
325.52	1243.12
325.73	1259.50
325.94	1249.26
326.15	1282.03
326.37	1300.46
326.58	1259.50
326.79	1146.86
327.00	1187.82
327.22	1257.45
327.43	1236.97
327.64	1216.49
327.85	1185.77
328.07	1312.75
328.28	1222.64
328.49	1284.08
328.70	1263.60
328.92	1253.36
329.13	1286.12
329.34	1312.75
329.55	1243.12
329.76	1277.93
329.98	1261.55
330.19	1322.99
330.40	1236.97
330.61	1277.93
330.83	1239.02
331.04	1312.75
331.25	1208.30
331.46	1279.98
331.68	1220.59
331.89	1304.56
332.10	1245.16
332.31	1251.31
332.52	1300.46
332.74	1232.88
332.95	1261.55
333.16	1298.41
333.37	1300.46
333.58	1304.56
333.80	1255.40
334.01	1179.63
334.22	1202.16
334.43	1294.32
334.64	1224.69
334.86	1232.88
335.07	1337.32
335.28	1269.74
335.49	1236.97
335.70	1236.97
335.92	1251.31
336.13	1296.36
336.34	1290.22
336.55	1279.98
336.76	1300.46
336.98	1286.12
337.19	1243.12
337.40	1339.37
337.61	1210.35
337.82	1249.26
338.04	1279.98
338.25	1253.36
338.46	1269.74
338.67	1300.46
338.88	1236.97
339.09	1312.75
339.31	1337.32
339.52	1294.32
339.73	1159.15
339.94	1275.88
340.15	1286.12
340.36	1304.56
340.58	1284.08
340.79	1253.36
341.00	1275.88
341.21	1216.49
341.42	1298.41
341.63	1322.99
341.85	1277.93
342.06	1327.08
342.27	1288.17
342.48	1273.84
342.69	1275.88
342.90	1245.16
343.12	1224.69
343.33	1204.21
343.54	1298.41
343.75	1341.42
343.96	1282.03
344.17	1286.12
344.38	1271.79
344.60	1228.78
344.81	1282.03
345.02	1234.93
345.23	1239.02
345.44	1263.60
345.65	1253.36
345.86	1234.93
346.07	1322.99
346.29	1226.73
346.50	1257.45
346.71	1308.65
346.92	1298.41
347.13	1296.36
347.34	1177.58
347.55	1275.88
347.76	1300.46
347.98	1282.03
348.19	1263.60
348.40	1257.45
348.61	1247.21
348.82	1206.25
349.03	1288.17
349.24	1253.36
349.45	1239.02
349.66	1282.03
349.88	1214.45
350.09	1245.16
350.30	1230.83
350.51	1312.75
350.72	1243.12
350.93	1279.98
351.14	1292.27
351.35	1218.54
351.56	1279.98
351.77	1253.36
351.99	1255.40
352.20	1327.08
352.41	1200.11
352.62	1273.84
352.83	1298.41
353.04	1212.40
353.25	1245.16
353.46	1271.79
353.67	1290.22
353.88	1257.45
354.09	1263.60
354.30	1275.88
354.52	1292.27
354.73	1251.31
354.94	1288.17
355.15	1247.21
355.36	1275.88
355.57	1232.88
355.78	1241.07
355.99	1245.16
356.20	1361.90
356.41	1187.82
356.62	1312.75
356.83	1347.56
357.04	1257.45
357.25	1228.78
357.46	1220.59
357.68	1312.75
357.89	1288.17
358.10	1245.16
358.31	1327.08
358.52	1275.88
358.73	1269.74
358.94	1318.89
359.15	1308.65
359.36	1239.02
359.57	1259.50
359.78	1312.75
359.99	1257.45
360.20	1265.64
360.41	1187.82
360.62	1220.59
360.83	1224.69
361.04	1257.45
361.25	1241.07
361.46	1224.69
361.67	1255.40
361.88	1267.69
362.09	1279.98
362.30	1282.03
362.51	1302.51
362.72	1224.69
362.93	1277.93
363.14	1249.26
363.35	1294.32
363.56	1230.83
363.78	1282.03
363.99	1337.32
364.20	1273.84
364.41	1200.11
364.62	1249.26
364.83	1302.51
365.04	1329.13
365.25	1269.74
365.46	1196.01
365.67	1249.26
365.88	1277.93
366.09	1308.65
366.30	1273.84
366.51	1302.51
366.72	1273.84
366.93	1331.18
367.14	1245.16
367.35	1341.42
367.56	1302.51
367.77	1255.40
367.98	1277.93
368.18	1273.84
368.39	1310.70
368.60	1302.51
368.81	1214.45
369.02	1282.03
369.23	1273.84
369.44	1249.26
369.65	1296.36
369.86	1273.84
370.07	1284.08
370.28	1208.30
370.49	1251.31
370.70	1216.49
370.91	1226.73
371.12	1279.98
371.33	1222.64
371.54	1249.26
371.75	1288.17
371.96	1282.03
372.17	1343.47
372.38	1212.40
372.59	1247.21
372.80	1226.73
373.01	1296.36
373.22	1239.02
373.43	1189.87
373.64	1306.60
373.85	1257.45
374.06	1253.36
374.26	1320.94
374.47	1267.69
374.68	1298.41
374.89	1304.56
375.10	1263.60
375.31	1228.78
375.52	1290.22
375.73	1267.69
375.94	1230.83
376.15	1329.13
376.36	1187.82
376.57	1265.64
376.78	1243.12
376.99	1308.65
377.20	1245.16
377.40	1277.93
377.61	1286.12
377.82	1232.88
378.03	1259.50
378.24	1304.56
378.45	1314.80
378.66	1286.12
378.87	1329.13
379.08	1224.69
379.29	1286.12
379.50	1333.23
379.71	1275.88
379.91	1298.41
380.12	1253.36
380.33	1214.45
380.54	1265.64
380.75	1249.26
380.96	1224.69
381.17	1255.40
381.38	1228.78
381.59	1335.28
381.80	1312.75
382.00	1288.17
382.21	1234.93
382.42	1261.55
382.63	1271.79
382.84	1224.69
383.05	1286.12
383.26	1236.97
383.47	1243.12
383.68	1251.31
383.88	1300.46
384.09	1277.93
384.30	1236.97
384.51	1259.50
384.72	1171.44
384.93	1292.27
385.14	1288.17
385.35	1290.22
385.55	1259.50
385.76	1230.83
385.97	1218.54
386.18	1339.37
386.39	1312.75
386.60	1247.21
386.81	1300.46
387.02	1265.64
387.22	1255.40
387.43	1216.49
387.64	1251.31
387.85	1243.12
388.06	1308.65
388.27	1259.50
388.48	1279.98
388.68	1255.40
388.89	1259.50
389.10	1282.03
389.31	1288.17
389.52	1271.79
389.73	1216.49
389.93	1318.89
390.14	1245.16
390.35	1255.40
390.56	1245.16
390.77	1275.88
390.98	1251.31
391.18	1273.84
391.39	1206.25
391.60	1239.02
391.81	1257.45
392.02	1175.53
392.23	1359.85
392.43	1277.93
392.64	1265.64
392.85	1302.51
393.06	1224.69
393.27	1277.93
393.47	1331.18
393.68	1304.56
393.89	1277.93
394.10	1206.25
394.31	1267.69
394.52	1277.93
394.72	1241.07
394.93	1298.41
395.14	1288.17
395.35	1224.69
395.56	1282.03
395.76	1230.83
395.97	1290.22
396.18	1251.31
396.39	1204.21
396.60	1304.56
396.80	1343.47
397.01	1269.74
397.22	1275.88
397.43	1261.55
397.64	1245.16
397.84	1249.26
398.05	1277.93
398.26	1261.55
398.47	1234.93
398.67	1257.45
398.88	1302.51
399.09	1298.41
399.30	1257.45
399.51	1236.97
399.71	1314.80
399.92	1255.40
400.13	1236.97
400.34	1298.41
400.54	1327.08
400.75	1265.64
400.96	1259.50
401.17	1298.41
401.37	1185.77
401.58	1331.18
401.79	1245.16
402.00	1224.69
402.21	1265.64
402.41	1173.49
402.62	1294.32
402.83	1243.12
403.04	1204.21
403.24	1275.88
403.45	1239.02
403.66	1275.88
403.87	1273.84
404.07	1251.31
404.28	1232.88
404.49	1239.02
404.70	1359.85
404.90	1284.08
405.11	1271.79
405.32	1277.93
405.52	1243.12
405.73	1189.87
405.94	1212.40
406.15	1314.80
406.35	1222.64
406.56	1243.12
406.77	1269.74
406.98	1255.40
407.18	1300.46
407.39	1282.03
407.60	1284.08
407.80	1282.03
408.01	1320.94
408.22	1310.70
408.43	1232.88
408.63	1257.45
408.84	1318.89
409.05	1267.69
409.25	1220.59
409.46	1236.97
409.67	1222.64
409.88	1339.37
410.08	1234.93
410.29	1200.11
410.50	1284.08
410.70	1226.73
410.91	1200.11
411.12	1206.25
411.32	1275.88
411.53	1288.17
411.74	1306.60
411.95	1282.03
412.15	1302.51
412.36	1292.27
412.57	1200.11
412.77	1267.69
412.98	1306.60
413.19	1230.83
413.39	1277.93
413.60	1273.84
413.81	1320.94
414.01	1239.02
414.22	1284.08
414.43	1228.78
414.63	1241.07
414.84	1310.70
415.05	1259.50
415.25	1249.26
415.46	1263.60
415.67	1306.60
415.87	1331.18
416.08	1220.59
416.29	1214.45
416.49	1302.51
416.70	1232.88
416.91	1282.03
417.11	1300.46
417.32	1257.45
417.53	1232.88
417.73	1245.16
417.94	1239.02
418.15	1345.52
418.35	1269.74
418.56	1236.97
418.77	1310.70
418.97	1230.83
419.18	1204.21
419.38	1294.32
419.59	1288.17
419.80	1282.03
420.00	1296.36
420.21	1251.31
420.42	1261.55
420.62	1263.60
420.83	1243.12
421.04	1228.78
421.24	1247.21
421.45	1191.92
421.65	1251.31
421.86	1284.08
422.07	1302.51
422.27	1220.59
422.48	1191.92
422.69	1243.12
422.89	1273.84
423.10	1308.65
423.30	1322.99
423.51	1310.70
423.72	1245.16
423.92	1304.56
424.13	1259.50
424.33	1239.02
424.54	1310.70
424.75	1226.73
424.95	1304.56
425.16	1239.02
425.36	1277.93
425.57	1236.97
425.78	1312.75
425.98	1327.08
426.19	1269.74
426.39	1241.07
426.60	1282.03
426.81	1253.36
427.01	1322.99
427.22	1200.11
427.42	1282.03
427.63	1265.64
427.83	1185.77
428.04	1198.06
428.25	1322.99
428.45	1243.12
428.66	1269.74
428.86	1216.49
429.07	1245.16
429.28	1271.79
429.48	1261.55
429.69	1249.26
429.89	1239.02
430.10	1200.11
430.30	1177.58
430.51	1204.21
430.71	1273.84
430.92	1234.93
431.13	1277.93
431.33	1308.65
431.54	1277.93
431.74	1343.47
431.95	1288.17
432.15	1294.32
432.36	1247.21
432.56	1263.60
432.77	1267.69
432.98	1267.69
433.18	1337.32
433.39	1214.45
433.59	1286.12
433.80	1239.02
434.00	1263.60
434.21	1228.78
434.41	1257.45
434.62	1327.08
434.82	1200.11
435.03	1249.26
435.23	1230.83
435.44	1273.84
435.64	1228.78
435.85	1236.97
436.06	1236.97
436.26	1306.60
436.47	1296.36
436.67	1257.45
436.88	1218.54
437.08	1304.56
437.29	1286.12
437.49	1320.94
437.70	1259.50
437.90	1306.60
438.11	1214.45
438.31	1261.55
438.52	1236.97
438.72	1292.27
438.93	1222.64
439.13	1304.56
439.34	1275.88
439.54	1267.69
439.75	1191.92
439.95	1306.60
440.16	1304.56
440.36	1245.16
440.57	1265.64
440.77	1325.04
440.98	1329.13
441.18	1232.88
441.39	1308.65
441.59	1277.93
441.80	1304.56
442.00	1300.46
442.21	1318.89
442.41	1245.16
442.62	1212.40
442.82	1191.92
443.02	1320.94
443.23	1333.23
443.43	1216.49
443.64	1310.70
443.84	1232.88
444.05	1273.84
444.25	1185.77
444.46	1263.60
444.66	1269.74
444.87	1249.26
445.07	1187.82
445.28	1261.55
445.48	1253.36
445.69	1263.60
445.89	1191.92
446.09	1208.30
446.30	1279.98
446.50	1212.40
446.71	1269.74
446.91	1282.03
447.12	1247.21
447.32	1314.80
447.53	1310.70
447.73	1316.84
447.93	1349.61
448.14	1249.26
448.34	1261.55
448.55	1224.69
448.75	1271.79
448.96	1288.17
449.16	1286.12
449.36	1345.52
449.57	1300.46
449.77	1318.89
449.98	1294.32
450.18	1310.70
450.39	1294.32
450.59	1306.60
450.79	1206.25
451.00	1222.64
451.20	1251.31
451.41	1282.03
451.61	1241.07
451.81	1298.41
452.02	1300.46
452.22	1290.22
452.43	1290.22
452.63	1249.26
452.84	1286.12
453.04	1304.56
453.24	1183.73
453.45	1292.27
453.65	1325.04
453.86	1288.17
454.06	1286.12
454.26	1273.84
454.47	1249.26
454.67	1273.84
454.87	1202.16
455.08	1279.98
455.28	1308.65
455.49	1259.50
455.69	1312.75
455.89	1337.32
456.10	1271.79
456.30	1273.84
456.51	1236.97
456.71	1302.51
456.91	1337.32
457.12	1241.07
457.32	1230.83
457.52	1337.32
457.73	1286.12
457.93	1259.50
458.14	1277.93
458.34	1288.17
458.54	1271.79
458.75	1239.02
458.95	1243.12
459.15	1314.80
459.36	1247.21
459.56	1181.68
459.76	1327.08
459.97	1335.28
460.17	1214.45
460.37	1333.23
460.58	1298.41
460.78	1335.28
460.99	1304.56
461.19	1284.08
461.39	1236.97
461.60	1239.02
461.80	1286.12
462.00	1314.80
462.21	1210.35
462.41	1306.60
462.61	1202.16
462.82	1251.31
463.02	1337.32
463.22	1224.69
463.43	1284.08
463.63	1167.34
463.83	1222.64
464.04	1320.94
464.24	1296.36
464.44	1357.80
464.64	1271.79
464.85	1327.08
465.05	1279.98
465.25	1294.32
465.46	1241.07
465.66	1312.75
465.86	1189.87
466.07	1265.64
466.27	1236.97
466.47	1239.02
466.68	1279.98
466.88	1320.94
467.08	1200.11
467.29	1245.16
467.49	1308.65
467.69	1288.17
467.89	1290.22
468.10	1212.40
468.30	1267.69
468.50	1275.88
468.71	1298.41
468.91	1236.97
469.11	1284.08
469.31	1263.60
469.52	1267.69
469.72	1304.56
469.92	1251.31
470.13	1224.69
470.33	1247.21
470.53	1228.78
470.73	1304.56
470.94	1269.74
471.14	1298.41
471.34	1236.97
471.54	1275.88
471.75	1232.88
471.95	1230.83
472.15	1290.22
472.36	1282.03
472.56	1318.89
472.76	1210.35
472.96	1204.21
473.17	1263.60
473.37	1247.21
473.57	1245.16
473.77	1206.25
473.98	1351.66
474.18	1304.56
474.38	1288.17
474.58	1320.94
474.79	1265.64
474.99	1255.40
475.19	1288.17
475.39	1296.36
475.60	1218.54
475.80	1261.55
476.00	1273.84
476.20	1320.94
476.41	1267.69
476.61	1333.23
476.81	1236.97
477.01	1259.50
477.21	1257.45
477.42	1249.26
477.62	1353.71
477.82	1277.93
478.02	1243.12
478.23	1228.78
478.43	1267.69
478.63	1298.41
478.83	1302.51
479.03	1329.13
479.24	1226.73
479.44	1265.64
479.64	1263.60
479.84	1286.12
480.04	1245.16
480.25	1339.37
480.45	1253.36
480.65	1277.93
480.85	1267.69
481.06	1288.17
481.26	1275.88
481.46	1243.12
481.66	1298.41
481.86	1277.93
482.06	1263.60
482.27	1241.07
482.47	1222.64
482.67	1306.60
482.87	1191.92
483.07	1216.49
483.28	1325.04
483.48	1253.36
483.68	1243.12
483.88	1314.80
484.08	1253.36
484.29	1300.46
484.49	1355.76
484.69	1282.03
484.89	1247.21
485.09	1232.88
485.29	1228.78
485.50	1259.50
485.70	1216.49
485.90	1243.12
486.10	1300.46
486.30	1241.07
486.50	1218.54
486.71	1282.03
486.91	1265.64
487.11	1304.56
487.31	1275.88
487.51	1228.78
487.71	1263.60
487.91	1308.65
488.12	1331.18
488.32	1273.84
488.52	1214.45
488.72	1253.36
488.92	1261.55
489.12	1175.53
489.32	1247.21
489.53	1302.51
489.73	1271.79
489.93	1302.51
490.13	1253.36
490.33	1241.07
490.53	1267.69
490.73	1290.22
490.94	1273.84
491.14	1228.78
491.34	1335.28
491.54	1267.69
491.74	1302.51
491.94	1292.27
492.14	1236.97
492.34	1263.60
492.54	1312.75
492.75	1273.84
492.95	1308.65
493.15	1173.49
493.35	1343.47
493.55	1310.70
493.75	1290.22
493.95	1339.37
494.15	1251.31
494.35	1337.32
494.56	1220.59
494.76	1239.02
494.96	1247.21
495.16	1255.40
495.36	1316.84
495.56	1232.88
495.76	1310.70
495.96	1277.93
496.16	1228.78
496.36	1224.69
496.56	1302.51
496.77	1298.41
496.97	1230.83
497.17	1249.26
497.37	1286.12
497.57	1230.83
497.77	1290.22
497.97	1263.60
498.17	1257.45
498.37	1341.42
498.57	1212.40
498.77	1204.21
498.97	1300.46
499.17	1304.56
499.38	1353.71
499.58	1279.98
499.78	1210.35
499.98	1298.41
500.18	1263.60
500.38	1320.94
500.58	1261.55
500.78	1277.93
500.98	1257.45
501.18	1282.03
501.38	1265.64
501.58	1275.88
501.78	1273.84
501.98	1302.51
502.18	1314.80
502.38	1267.69
502.58	1257.45
502.78	1308.65
502.98	1308.65
503.18	1345.52
503.38	1316.84
503.59	1294.32
503.79	1284.08
503.99	1288.17
504.19	1302.51
504.39	1245.16
504.59	1292.27
504.79	1300.46
504.99	1298.41
505.19	1271.79
505.39	1259.50
505.59	1269.74
505.79	1265.64
505.99	1257.45
506.19	1241.07
506.39	1273.84
506.59	1294.32
506.79	1198.06
506.99	1249.26
507.19	1284.08
507.39	1202.16
507.59	1236.97
507.79	1294.32
507.99	1265.64
508.19	1279.98
508.39	1251.31
508.59	1218.54
508.79	1263.60
508.99	1226.73
509.19	1298.41
509.39	1245.16
509.59	1306.60
509.79	1265.64
509.99	1335.28
510.19	1318.89
510.39	1343.47
510.59	1212.40
510.79	1290.22
510.99	1228.78
511.19	1339.37
511.39	1261.55
511.59	1320.94
511.79	1259.50
511.99	1243.12
512.19	1306.60
512.38	1257.45
512.58	1279.98
512.78	1234.93
512.98	1296.36
513.18	1302.51
513.38	1226.73
513.58	1382.38
513.78	1296.36
513.98	1247.21
514.18	1267.69
514.38	1298.41
514.58	1222.64
514.78	1279.98
514.98	1294.32
515.18	1271.79
515.38	1236.97
515.58	1316.84
515.78	1341.42
515.98	1337.32
516.18	1275.88
516.38	1300.46
516.57	1241.07
516.77	1222.64
516.97	1212.40
517.17	1241.07
517.37	1296.36
517.57	1302.51
517.77	1269.74
517.97	1302.51
518.17	1273.84
518.37	1241.07
518.57	1257.45
518.77	1228.78
518.97	1279.98
519.16	1388.52
519.36	1255.40
519.56	1249.26
519.76	1304.56
519.96	1294.32
520.16	1232.88
520.36	1251.31
520.56	1249.26
520.76	1222.64
520.96	1282.03
521.16	1296.36
521.35	1345.52
521.55	1275.88
521.75	1257.45
521.95	1349.61
522.15	1247.21
522.35	1333.23
522.55	1302.51
522.75	1265.64
522.95	1300.46
523.14	1224.69
523.34	1290.22
523.54	1247.21
523.74	1284.08
523.94	1327.08
524.14	1263.60
524.34	1261.55
524.54	1277.93
524.73	1239.02
524.93	1247.21
525.13	1214.45
525.33	1263.60
525.53	1255.40
525.73	1298.41
525.93	1253.36
526.13	1322.99
526.32	1253.36
526.52	1306.60
526.72	1298.41
526.92	1279.98
527.12	1292.27
527.32	1261.55
527.52	1282.03
527.71	1286.12
527.91	1320.94
528.11	1290.22
528.31	1271.79
528.51	1298.41
528.71	1261.55
528.90	1247.21
529.10	1298.41
529.30	1314.80
529.50	1312.75
529.70	1212.40
529.90	1312.75
530.09	1302.51
530.29	1263.60
530.49	1349.61
530.69	1320.94
530.89	1286.12
531.09	1302.51
531.28	1269.74
531.48	1329.13
531.68	1249.26
531.88	1243.12
532.08	1355.76
532.28	1247.21
532.47	1265.64
532.67	1292.27
532.87	1290.22
533.07	1208.30
533.27	1355.76
533.46	1226.73
533.66	1335.28
533.86	1306.60
534.06	1347.56
534.26	1308.65
534.45	1333.23
534.65	1335.28
534.85	1302.51
535.05	1292.27
535.25	1286.12
535.44	1261.55
535.64	1232.88
535.84	1290.22
536.04	1288.17
536.24	1251.31
536.43	1298.41
536.63	1261.55
536.83	1253.36
537.03	1335.28
537.22	1277.93
537.42	1275.88
537.62	1251.31
537.82	1292.27
538.02	1298.41
538.21	1257.45
538.41	1296.36
538.61	1304.56
538.81	1320.94
539.00	1343.47
539.20	1257.45
539.40	1292.27
539.60	1325.04
539.79	1312.75
539.99	1312.75
540.19	1243.12
540.39	1241.07
540.58	1181.68
540.78	1353.71
540.98	1273.84
541.18	1300.46
541.37	1306.60
541.57	1286.12
541.77	1329.13
541.97	1226.73
542.16	1216.49
542.36	1366.00
542.56	1232.88
542.76	1230.83
542.95	1259.50
543.15	1257.45
543.35	1249.26
543.54	1251.31
543.74	1269.74
543.94	1279.98
544.14	1318.89
544.33	1296.36
544.53	1306.60
544.73	1267.69
544.93	1288.17
545.12	1214.45
545.32	1290.22
545.52	1300.46
545.71	1271.79
545.91	1355.76
546.11	1200.11
546.30	1275.88
546.50	1290.22
546.70	1259.50
546.90	1257.45
547.09	1206.25
547.29	1318.89
547.49	1251.31
547.68	1288.17
547.88	1286.12
548.08	1298.41
548.27	1316.84
548.47	1259.50
548.67	1316.84
548.87	1261.55
549.06	1216.49
549.26	1308.65
549.46	1337.32
549.65	1273.84
549.85	1284.08
550.05	1267.69
550.24	1314.80
550.44	1327.08
550.64	1314.80
550.83	1228.78
551.03	1308.65
551.23	1277.93
551.42	1239.02
551.62	1249.26
551.82	1331.18
552.01	1265.64
552.21	1310.70
552.41	1361.90
552.60	1341.42
552.80	1247.21
553.00	1204.21
553.19	1210.35
553.39	1300.46
553.59	1232.88
553.78	1167.34
553.98	1214.45
554.17	1327.08
554.37	1253.36
554.57	1331.18
554.76	1218.54
554.96	1259.50
555.16	1282.03
555.35	1286.12
555.55	1282.03
555.75	1314.80
555.94	1251.31
556.14	1314.80
556.33	1222.64
556.53	1320.94
556.73	1224.69
556.92	1189.87
557.12	1329.13
557.32	1261.55
557.51	1265.64
557.71	1257.45
557.90	1302.51
558.10	1329.13
558.30	1214.45
558.49	1288.17
558.69	1263.60
558.88	1216.49
559.08	1255.40
559.28	1292.27
559.47	1322.99
559.67	1269.74
559.86	1284.08
560.06	1249.26
560.26	1236.97
560.45	1249.26
560.65	1339.37
560.84	1273.84
561.04	1277.93
561.24	1327.08
561.43	1222.64
561.63	1325.04
561.82	1320.94
562.02	1275.88
562.22	1263.60
562.41	1288.17
562.61	1275.88
562.80	1282.03
563.00	1318.89
563.19	1257.45
563.39	1300.46
563.59	1282.03
563.78	1325.04
563.98	1343.47
564.17	1384.43
564.37	1302.51
564.56	1210.35
564.76	1296.36
564.96	1269.74
565.15	1288.17
565.35	1333.23
565.54	1406.95
565.74	1355.76
565.93	1249.26
566.13	1234.93
566.32	1341.42
566.52	1331.18
566.71	1294.32
566.91	1316.84
567.11	1347.56
567.30	1286.12
567.50	1275.88
567.69	1282.03
567.89	1314.80
568.08	1282.03
568.28	1325.04
568.47	1251.31
568.67	1333.23
568.86	1273.84
569.06	1300.46
569.25	1327.08
569.45	1257.45
569.64	1247.21
569.84	1308.65
570.04	1339.37
570.23	1228.78
570.43	1263.60
570.62	1222.64
570.82	1306.60
571.01	1265.64
571.21	1249.26
571.40	1292.27
571.60	1318.89
571.79	1273.84
571.99	1359.85
572.18	1275.88
572.38	1267.69
572.57	1335.28
572.77	1300.46
572.96	1216.49
573.16	1343.47
573.35	1288.17
573.55	1288.17
573.74	1288.17
573.94	1271.79
574.13	1236.97
574.33	1327.08
574.52	1271.79
574.71	1267.69
574.91	1327.08
575.10	1304.56
575.30	1271.79
575.49	1261.55
575.69	1241.07
575.88	1259.50
576.08	1286.12
576.27	1265.64
576.47	1310.70
576.66	1290.22
576.86	1310.70
577.05	1308.65
577.25	1296.36
577.44	1339.37
577.64	1308.65
577.83	1282.03
578.02	1269.74
578.22	1333.23
578.41	1267.69
578.61	1288.17
578.80	1275.88
579.00	1261.55
579.19	1243.12
579.39	1288.17
579.58	1314.80
579.77	1333.23
579.97	1255.40
580.16	1273.84
580.36	1236.97
580.55	1298.41
580.75	1222.64
580.94	1310.70
581.13	1308.65
581.33	1331.18
581.52	1247.21
581.72	1245.16
581.91	1372.14
582.11	1269.74
582.30	1257.45
582.49	1251.31
582.69	1241.07
582.88	1347.56
583.08	1214.45
583.27	1255.40
583.47	1302.51
583.66	1236.97
583.85	1253.36
584.05	1300.46
584.24	1243.12
584.44	1232.88
584.63	1265.64
584.82	1243.12
585.02	1255.40
585.21	1269.74
585.41	1228.78
585.60	1277.93
585.79	1290.22
585.99	1343.47
586.18	1210.35
586.37	1269.74
586.57	1275.88
586.76	1271.79
586.96	1173.49
587.15	1249.26
587.34	1271.79
587.54	1282.03
587.73	1232.88
587.93	1294.32
588.12	1261.55
588.31	1255.40
588.51	1306.60
588.70	1183.73
588.89	1245.16
589.09	1372.14
589.28	1304.56
589.47	1300.46
589.67	1267.69
589.86	1239.02
590.06	1282.03
590.25	1310.70
590.44	1243.12
590.64	1245.16
590.83	1322.99
591.02	1271.79
591.22	1306.60
591.41	1320.94
591.60	1273.84
591.80	1255.40
591.99	1261.55
592.18	1271.79
592.38	1249.26
592.57	1296.36
592.76	1243.12
592.96	1335.28
593.15	1263.60
593.34	1290.22
593.54	1255.40
593.73	1286.12
593.92	1284.08
594.12	1277.93
594.31	1308.65
594.50	1288.17
594.70	1273.84
594.89	1251.31
595.08	1320.94
595.28	1265.64
595.47	1255.40
595.66	1222.64
595.86	1232.88
596.05	1265.64
596.24	1261.55
596.43	1304.56
596.63	1302.51
596.82	1263.60
597.01	1214.45
597.21	1298.41
597.40	1275.88
597.59	1265.64
597.79	1304.56
597.98	1236.97
598.17	1249.26
598.36	1288.17
598.56	1255.40
598.75	1298.41
598.94	1279.98
599.14	1239.02
599.33	1316.84
599.52	1314.80
599.71	1302.51
599.91	1306.60
600.10	1251.31
600.29	1257.45
600.48	1306.60
600.68	1347.56
600.87	1331.18
601.06	1316.84
601.26	1337.32
601.45	1271.79
601.64	1257.45
601.83	1300.46
602.03	1296.36
602.22	1267.69
602.41	1265.64
602.60	1245.16
602.80	1298.41
602.99	1241.07
603.18	1333.23
603.37	1298.41
603.57	1308.65
603.76	1296.36
603.95	1290.22
604.14	1282.03
604.34	1308.65
604.53	1255.40
604.72	1290.22
604.91	1290.22
605.10	1314.80
605.30	1212.40
605.49	1290.22
605.68	1294.32
605.87	1245.16
606.07	1339.37
606.26	1284.08
606.45	1224.69
606.64	1249.26
606.84	1239.02
607.03	1232.88
607.22	1320.94
607.41	1249.26
607.60	1296.36
607.80	1282.03
607.99	1212.40
608.18	1286.12
608.37	1314.80
608.56	1271.79
608.76	1347.56
608.95	1292.27
609.14	1290.22
609.33	1288.17
609.52	1294.32
609.72	1269.74
609.91	1368.04
610.10	1155.05
610.29	1273.84
610.48	1224.69
610.68	1286.12
610.87	1310.70
611.06	1239.02
611.25	1257.45
611.44	1277.93
611.63	1183.73
611.83	1304.56
612.02	1286.12
612.21	1347.56
612.40	1370.09
612.59	1253.36
612.79	1288.17
612.98	1292.27
613.17	1257.45
613.36	1185.77
613.55	1333.23
613.74	1314.80
613.93	1380.33
614.13	1304.56
614.32	1284.08
614.51	1273.84
614.70	1259.50
614.89	1265.64
615.08	1296.36
615.28	1249.26
615.47	1265.64
615.66	1193.97
615.85	1265.64
616.04	1286.12
616.23	1265.64
616.42	1277.93
616.62	1310.70
616.81	1304.56
617.00	1300.46
617.19	1355.76
617.38	1265.64
617.57	1255.40
617.76	1298.41
617.95	1279.98
618.15	1363.95
618.34	1249.26
618.53	1363.95
618.72	1320.94
618.91	1249.26
619.10	1353.71
619.29	1288.17
619.48	1298.41
619.68	1245.16
619.87	1271.79
620.06	1308.65
620.25	1308.65
620.44	1214.45
620.63	1224.69
620.82	1267.69
621.01	1312.75
621.20	1230.83
621.39	1275.88
621.59	1300.46
621.78	1327.08
621.97	1298.41
622.16	1236.97
622.35	1269.74
622.54	1271.79
622.73	1216.49
622.92	1214.45
623.11	1345.52
623.30	1306.60
623.49	1200.11
623.68	1249.26
623.88	1316.84
624.07	1200.11
624.26	1302.51
624.45	1351.66
624.64	1298.41
624.83	1263.60
625.02	1359.85
625.21	1253.36
625.40	1261.55
625.59	1288.17
625.78	1257.45
625.97	1312.75
626.16	1282.03
626.35	1322.99
626.54	1306.60
626.74	1271.79
626.93	1277.93
627.12	1220.59
627.31	1312.75
627.50	1288.17
627.69	1400.81
627.88	1265.64
628.07	1290.22
628.26	1296.36
628.45	1271.79
628.64	1314.80
628.83	1320.94
629.02	1304.56
629.21	1308.65
629.40	1216.49
629.59	1255.40
629.78	1337.32
629.97	1265.64
630.16	1302.51
630.35	1284.08
630.54	1308.65
630.73	1322.99
630.92	1296.36
631.11	1320.94
631.30	1329.13
631.49	1302.51
631.68	1435.63
631.87	1832.93
632.06	3117.01
632.25	2430.94
632.44	2899.92
632.63	3809.22
632.82	6565.79
633.01	7845.77
633.20	12955.45
633.39	26709.61
633.58	39196.07
633.77	50961.65
633.96	57089.18
634.15	51653.87
634.34	35999.19
634.53	21857.97
634.72	13322.04
634.91	7479.18
635.10	4808.63
635.29	3373.00
635.48	2566.10
635.67	2248.67
635.86	1978.34
636.05	1816.55
636.24	1535.98
636.43	1462.25
636.62	1425.39
636.81	1402.86
637.00	1353.71
637.19	1341.42
637.38	1310.70
637.57	1361.90
637.76	1257.45
637.95	1296.36
638.14	1286.12
638.33	1335.28
638.52	1327.08
638.71	1308.65
638.89	1347.56
639.08	1298.41
639.27	1222.64
639.46	1366.00
639.65	1249.26
639.84	1296.36
640.03	1284.08
640.22	1318.89
640.41	1255.40
640.60	1267.69
640.79	1210.35
640.98	1212.40
641.17	1255.40
641.36	1273.84
641.55	1243.12
641.74	1316.84
641.92	1230.83
642.11	1284.08
642.30	1288.17
642.49	1322.99
642.68	1220.59
642.87	1318.89
643.06	1320.94
643.25	1341.42
643.44	1273.84
643.63	1224.69
643.82	1337.32
644.00	1212.40
644.19	1294.32
644.38	1247.21
644.57	1341.42
644.76	1318.89
644.95	1236.97
645.14	1327.08
645.33	1249.26
645.52	1275.88
645.71	1234.93
645.89	1255.40
646.08	1286.12
646.27	1298.41
646.46	1337.32
646.65	1236.97
646.84	1308.65
647.03	1249.26
647.22	1249.26
647.40	1282.03
647.59	1282.03
647.78	1374.19
647.97	1288.17
648.16	1241.07
648.35	1259.50
648.54	1234.93
648.73	1308.65
648.91	1196.01
649.10	1200.11
649.29	1277.93
649.48	1241.07
649.67	1275.88
649.86	1263.60
650.05	1251.31
650.23	1306.60
650.42	1300.46
650.61	1271.79
650.80	1310.70
650.99	1308.65
651.18	1243.12
651.36	1230.83
651.55	1261.55
651.74	1314.80
651.93	1261.55
652.12	1259.50
652.31	1189.87
652.49	1298.41
652.68	1296.36
652.87	1300.46
653.06	1329.13
653.25	1312.75
653.44	1214.45
653.62	1277.93
653.81	1243.12
654.00	1282.03
654.19	1208.30
654.38	1302.51
654.56	1308.65
654.75	1255.40
654.94	1316.84
655.13	1304.56
655.32	1290.22
655.51	1224.69
655.69	1245.16
655.88	1300.46
656.07	1320.94
656.26	1320.94
656.45	1224.69
656.63	1269.74
656.82	1253.36
657.01	1361.90
657.20	1247.21
657.38	1257.45
657.57	1343.47
657.76	1341.42
657.95	1241.07
658.14	1325.04
658.32	1304.56
658.51	1224.69
658.70	1259.50
658.89	1265.64
659.08	1290.22
659.26	1187.82
659.45	1263.60
659.64	1331.18
659.83	1210.35
660.01	1243.12
660.20	1277.93
660.39	1284.08
660.58	1288.17
660.76	1228.78
660.95	1290.22
661.14	1312.75
661.33	1318.89
661.51	1259.50
661.70	1234.93
661.89	1312.75
662.08	1273.84
662.26	1257.45
662.45	1343.47
662.64	1292.27
662.83	1294.32
663.01	1308.65
663.20	1284.08
663.39	1245.16
663.58	1265.64
663.76	1286.12
663.95	1226.73
664.14	1245.16
664.32	1269.74
664.51	1224.69
664.70	1290.22
664.89	1288.17
665.07	1251.31
665.26	1255.40
665.45	1347.56
665.64	1255.40
665.82	1253.36
666.01	1269.74
666.20	1275.88
666.38	1308.65
666.57	1300.46
666.76	1218.54
666.95	1300.46
667.13	1271.79
667.32	1228.78
667.51	1318.89
667.69	1290.22
667.88	1226.73
668.07	1257.45
668.25	1310.70
668.44	1253.36
668.63	1290.22
668.81	1282.03
669.00	1267.69
669.19	1277.93
669.38	1300.46
669.56	1284.08
669.75	1269.74
669.94	1290.22
670.12	1325.04
670.31	1257.45
670.50	1327.08
670.68	1335.28
670.87	1261.55
671.06	1329.13
671.24	1298.41
671.43	1220.59
671.62	1169.39
671.80	1277.93
671.99	1292.27
672.18	1230.83
672.36	1220.59
672.55	1241.07
672.74	1255.40
672.92	1288.17
673.11	1206.25
673.29	1292.27
673.48	1257.45
673.67	1335.28
673.85	1253.36
674.04	1191.92
674.23	1228.78
674.41	1251.31
674.60	1290.22
674.79	1187.82
674.97	1249.26
675.16	1286.12
675.34	1257.45
675.53	1196.01
675.72	1292.27
675.90	1327.08
676.09	1279.98
676.28	1337.32
676.46	1232.88
676.65	1284.08
676.83	1304.56
677.02	1294.32
677.21	1247.21
677.39	1263.60
677.58	1302.51
677.77	1306.60
677.95	1275.88
678.14	1277.93
678.32	1249.26
678.51	1234.93
678.70	1265.64
678.88	1267.69
679.07	1290.22
679.25	1218.54
679.44	1300.46
679.63	1310.70
679.81	1275.88
680.00	1314.80
680.18	1232.88
680.37	1232.88
680.55	1259.50
680.74	1277.93
680.93	1220.59
681.11	1286.12
681.30	1292.27
681.48	1212.40
681.67	1232.88
681.85	1329.13
682.04	1271.79
682.23	1222.64
682.41	1204.21
682.60	1267.69
682.78	1251.31
682.97	1257.45
683.15	1282.03
683.34	1236.97
683.53	1306.60
683.71	1220.59
683.90	1282.03
684.08	1267.69
684.27	1230.83
684.45	1245.16
684.64	1224.69
684.82	1294.32
685.01	1241.07
685.19	1216.49
685.38	1357.80
685.57	1247.21
685.75	1257.45
685.94	1245.16
686.12	1222.64
686.31	1202.16
686.49	1243.12
686.68	1210.35
686.86	1239.02
687.05	1322.99
687.23	1292.27
687.42	1282.03
687.60	1204.21
687.79	1286.12
687.97	1265.64
688.16	1282.03
688.34	1284.08
688.53	1271.79
688.71	1282.03
688.90	1284.08
689.08	1265.64
689.27	1263.60
689.45	1214.45
689.64	1236.97
689.82	1292.27
690.01	1302.51
690.19	1271.79
690.38	1265.64
690.56	1308.65
690.75	1275.88
690.93	1302.51
691.12	1236.97
691.30	1333.23
691.49	1210.35
691.67	1243.12
691.86	1312.75
692.04	1300.46
692.23	1257.45
692.41	1243.12
692.60	1271.79
692.78	1263.60
692.97	1312.75
693.15	1288.17
693.34	1265.64
693.52	1300.46
693.71	1245.16
693.89	1200.11
694.08	1261.55
694.26	1267.69
694.44	1234.93
694.63	1247.21
694.81	1257.45
695.00	1312.75
695.18	1245.16
695.37	1265.64
695.55	1284.08
695.74	1224.69
695.92	1304.56
696.10	1322.99
696.29	1171.44
696.47	1275.88
696.66	1286.12
696.84	1251.31
697.03	1257.45
697.21	1241.07
697.40	1316.84
697.58	1249.26
697.76	1255.40
697.95	1269.74
698.13	1204.21
698.32	1247.21
698.50	1288.17
698.68	1290.22
698.87	1300.46
699.05	1249.26
699.24	1300.46
699.42	1298.41
699.61	1251.31
699.79	1339.37
699.97	1196.01
700.16	1322.99
700.34	1310.70
700.53	1232.88
700.71	1269.74
700.89	1282.03
701.08	1234.93
701.26	1208.30
701.45	1333.23
701.63	1263.60
701.81	1247.21
702.00	1249.26
702.18	1216.49
702.37	1333.23
702.55	1255.40
702.73	1230.83
702.92	1286.12
703.10	1263.60
703.28	1202.16
703.47	1273.84
703.65	1279.98
703.84	1214.45
704.02	1253.36
704.20	1220.59
704.39	1265.64
704.57	1351.66
704.75	1282.03
704.94	1249.26
705.12	1298.41
705.30	1241.07
705.49	1239.02
705.67	1271.79
705.86	1261.55
706.04	1245.16
706.22	1193.97
706.41	1277.93
706.59	1275.88
706.77	1300.46
706.96	1251.31
707.14	1269.74
707.32	1269.74
707.51	1196.01
707.69	1290.22
707.87	1290.22
708.06	1245.16
708.24	1265.64
708.42	1236.97
708.61	1286.12
708.79	1284.08
708.97	1251.31
709.16	1296.36
709.34	1325.04
709.52	1247.21
709.71	1261.55
709.89	1345.52
710.07	1282.03
710.26	1267.69
710.44	1261.55
710.62	1273.84
710.80	1282.03
710.99	1284.08
711.17	1320.94
711.35	1263.60
711.54	1316.84
711.72	1216.49
711.90	1212.40
712.09	1302.51
712.27	1175.53
712.45	1265.64
712.63	1325.04
712.82	1183.73
713.00	1259.50
713.18	1267.69
713.37	1284.08
713.55	1320.94
713.73	1228.78
713.91	1277.93
714.10	1241.07
714.28	1265.64
714.46	1257.45
714.65	1327.08
714.83	1140.72
715.01	1234.93
715.19	1294.32
715.38	1204.21
715.56	1249.26
715.74	1236.97
715.92	1253.36
716.11	1290.22
716.29	1277.93
716.47	1275.88
716.65	1290.22
716.84	1265.64
717.02	1234.93
717.20	1261.55
717.38	1247.21
717.57	1220.59
717.75	1222.64
717.93	1210.35
718.11	1269.74
718.30	1257.45
718.48	1298.41
718.66	1177.58
718.84	1243.12
719.03	1275.88
719.21	1351.66
719.39	1300.46
719.57	1212.40
719.75	1253.36
719.94	1298.41
720.12	1220.59
720.30	1263.60
720.48	1312.75
720.67	1288.17
720.85	1251.31
721.03	1306.60
721.21	1265.64
721.39	1298.41
721.58	1279.98
721.76	1302.51
721.94	1202.16
722.12	1265.64
722.30	1265.64
722.49	1288.17
722.67	1257.45
722.85	1251.31
723.03	1234.93
723.21	1304.56
723.40	1282.03
723.58	1292.27
723.76	1265.64
723.94	1234.93
724.12	1224.69
724.30	1255.40
724.49	1290.22
724.67	1245.16
724.85	1273.84
725.03	1304.56
725.21	1179.63
725.40	1282.03
725.58	1234.93
725.76	1288.17
725.94	1208.30
726.12	1337.32
726.30	1275.88
726.49	1216.49
726.67	1292.27
726.85	1189.87
727.03	1288.17
727.21	1261.55
727.39	1314.80
727.57	1200.11
727.76	1288.17
727.94	1343.47
728.12	1245.16
728.30	1206.25
728.48	1216.49
728.66	1265.64
728.84	1273.84
729.03	1288.17
729.21	1294.32
729.39	1322.99
729.57	1269.74
729.75	1269.74
729.93	1202.16
730.11	1312.75
730.30	1234.93
730.48	1304.56
730.66	1282.03
730.84	1304.56
731.02	1263.60
731.20	1232.88
731.38	1259.50
731.56	1202.16
731.74	1265.64
731.93	1284.08
732.11	1239.02
732.29	1257.45
732.47	1226.73
732.65	1306.60
732.83	1179.63
733.01	1255.40
733.19	1239.02
733.37	1267.69
733.56	1257.45
733.74	1236.97
733.92	1257.45
734.10	1277.93
734.28	1241.07
734.46	1245.16
734.64	1273.84
734.82	1325.04
735.00	1216.49
735.18	1300.46
735.36	1241.07
735.54	1322.99
735.73	1212.40
735.91	1294.32
736.09	1212.40
736.27	1261.55
736.45	1200.11
736.63	1241.07
736.81	1220.59
736.99	1279.98
737.17	1265.64
737.35	1275.88
737.53	1204.21
737.71	1249.26
737.89	1329.13
738.07	1304.56
738.25	1185.77
738.43	1273.84
738.61	1210.35
738.80	1224.69
738.98	1247.21
739.16	1310.70
739.34	1261.55
739.52	1298.41
739.70	1312.75
739.88	1265.64
740.06	1253.36
740.24	1234.93
740.42	1302.51
740.60	1339.37
740.78	1349.61
740.96	1255.40
741.14	1286.12
741.32	1245.16
741.50	1249.26
741.68	1300.46
741.86	1157.10
742.04	1288.17
742.22	1214.45
742.40	1263.60
742.58	1230.83
742.76	1234.93
742.94	1320.94
743.12	1267.69
743.30	1239.02
743.48	1277.93
743.66	1277.93
743.84	1257.45
744.02	1314.80
744.20	1308.65
744.38	1388.52
744.56	1245.16
744.74	1196.01
744.92	1243.12
745.10	1288.17
745.28	1191.92
745.46	1275.88
745.64	1202.16
745.82	1191.92
746.00	1292.27
746.18	1222.64
746.36	1230.83
746.54	1255.40
746.72	1263.60
746.90	1308.65
747.08	1296.36
747.26	1306.60
747.44	1249.26
747.62	1282.03
747.80	1296.36
747.98	1329.13
748.15	1310.70
748.33	1265.64
748.51	1292.27
748.69	1253.36
748.87	1232.88
749.05	1298.41
749.23	1331.18
749.41	1263.60
749.59	1257.45
749.77	1228.78
749.95	1300.46
750.13	1279.98
750.31	1288.17
750.49	1189.87
750.67	1271.79
750.85	1320.94
751.03	1232.88
751.20	1279.98
751.38	1288.17
751.56	1333.23
751.74	1204.21
751.92	1234.93
752.10	1298.41
752.28	1306.60
752.46	1277.93
752.64	1273.84
752.82	1230.83
753.00	1261.55
753.18	1339.37
753.35	1226.73
753.53	1265.64
753.71	1294.32
753.89	1286.12
754.07	1288.17
754.25	1247.21
754.43	1314.80
754.61	1200.11
754.79	1304.56
754.97	1163.25
755.14	1366.00
755.32	1247.21
755.50	1290.22
755.68	1288.17
755.86	1206.25
756.04	1163.25
756.22	1310.70
756.40	1271.79
756.57	1269.74
756.75	1222.64
756.93	1267.69
757.11	1282.03
757.29	1239.02
757.47	1271.79
757.65	1228.78
757.82	1206.25
758.00	1286.12
758.18	1273.84
758.36	1224.69
758.54	1292.27
758.72	1294.32
758.90	1247.21
759.07	1279.98
759.25	1259.50
759.43	1249.26
759.61	1265.64
759.79	1390.57
759.97	1208.30
760.15	1253.36
760.32	1226.73
760.50	1290.22
760.68	1277.93
760.86	1320.94
761.04	1245.16
761.22	1296.36
761.39	1257.45
761.57	1216.49
761.75	1255.40
761.93	1183.73
762.11	1288.17
762.28	1275.88
762.46	1175.53
762.64	1249.26
762.82	1271.79
763.00	1255.40
763.18	1286.12
763.35	1269.74
763.53	1234.93
763.71	1222.64
763.89	1304.56
764.07	1243.12
764.24	1200.11
764.42	1277.93
764.60	1243.12
764.78	1218.54
764.96	1277.93
765.13	1259.50
765.31	1251.31
765.49	1314.80
765.67	1228.78
765.84	1263.60
766.02	1265.64
766.20	1230.83
766.38	1298.41
766.56	1257.45
766.73	1241.07
766.91	1282.03
767.09	1210.35
767.27	1247.21
767.44	1273.84
767.62	1282.03
767.80	1288.17
767.98	1204.21
768.15	1249.26
768.33	1296.36
768.51	1253.36
768.69	1298.41
768.87	1249.26
769.04	1275.88
769.22	1282.03
769.40	1286.12
769.58	1286.12
769.75	1271.79
769.93	1247.21
770.11	1249.26
770.28	1282.03
770.46	1331.18
770.64	1265.64
770.82	1261.55
770.99	1271.79
771.17	1261.55
771.35	1253.36
771.53	1191.92
771.70	1298.41
771.88	1226.73
772.06	1325.04
772.23	1236.97
772.41	1314.80
772.59	1214.45
772.77	1292.27
772.94	1263.60
773.12	1265.64
773.30	1251.31
773.47	1208.30
773.65	1255.40
773.83	1263.60
774.01	1271.79
774.18	1279.98
774.36	1241.07
774.54	1216.49
774.71	1284.08
774.89	1253.36
775.07	1282.03
775.24	1292.27
775.42	1331.18
775.60	1288.17
775.78	1247.21
775.95	1265.64
776.13	1259.50
776.31	1198.06
776.48	1296.36
776.66	1312.75
776.84	1253.36
777.01	1189.87
777.19	1275.88
777.37	1257.45
777.54	1302.51
777.72	1286.12
777.90	1284.08
778.07	1286.12
778.25	1234.93
778.43	1236.97
778.60	1265.64
778.78	1273.84
778.96	1255.40
779.13	1198.06
779.31	1310.70
779.49	1216.49
779.66	1257.45
779.84	1257.45
780.01	1255.40
780.19	1316.84
780.37	1298.41
780.54	1234.93
780.72	1253.36
780.90	1232.88
781.07	1312.75
781.25	1234.93
781.43	1308.65
781.60	1265.64
781.78	1239.02
781.95	1200.11
782.13	1257.45
782.31	1214.45
782.48	1171.44
782.66	1200.11
782.83	1320.94
783.01	1265.64
783.19	1275.88
783.36	1249.26
783.54	1247.21
783.72	1191.92
783.89	1279.98
784.07	1257.45
784.24	1288.17
784.42	1249.26
784.60	1263.60
784.77	1267.69
784.95	1212.40
785.12	1263.60
785.30	1310.70
785.47	1306.60
785.65	1265.64
785.83	1259.50
786.00	1306.60
786.18	1304.56
786.35	1257.45
786.53	1337.32
786.71	1247.21
786.88	1298.41
787.06	1249.26
787.23	1232.88
787.41	1275.88
787.58	1269.74
787.76	1302.51
787.94	1304.56
788.11	1208.30
788.29	1277.93
788.46	1239.02
788.64	1245.16
788.81	1230.83
788.99	1236.97
789.16	1173.49
789.34	1267.69
789.52	1253.36
789.69	1247.21
789.87	1179.63
790.04	1220.59
790.22	1286.12
790.39	1292.27
790.57	1325.04
790.74	1216.49
790.92	1308.65
791.09	1220.59
791.27	1220.59
791.44	1286.12
791.62	1263.60
791.79	1304.56
791.97	1290.22
792.15	1329.13
792.32	1234.93
792.50	1245.16
792.67	1290.22
792.85	1292.27
793.02	1296.36
793.20	1273.84
793.37	1216.49
793.55	1208.30
793.72	1198.06
793.90	1294.32
794.07	1243.12
794.25	1300.46
794.42	1173.49
794.60	1306.60
794.77	1216.49
794.95	1306.60
795.12	1222.64
795.30	1288.17
795.47	1204.21
795.65	1234.93
795.82	1255.40
796.00	1249.26
796.17	1210.35
796.34	1259.50
796.52	1292.27
796.69	1271.79
796.87	1267.69
797.04	1302.51
797.22	1316.84
797.39	1224.69
797.57	1220.59
797.74	1243.12
797.92	1308.65
798.09	1288.17
798.27	1312.75
798.44	1191.92
798.62	1263.60
798.79	1314.80
798.96	1279.98
799.14	1267.69
799.31	1261.55
799.49	1216.49
799.66	1220.59
799.84	1302.51
800.01	1353.71
800.19	1216.49
800.36	1288.17
800.53	1314.80
800.71	1290.22
800.88	1277.93
801.06	1318.89
801.23	1331.18
801.41	1239.02
801.58	1234.93
801.75	1232.88
801.93	1370.09
802.10	1284.08
802.28	1249.26
802.45	1183.73
802.63	1273.84
802.80	1322.99
802.97	1228.78
803.15	1228.78
803.32	1241.07
803.50	1300.46
803.67	1216.49
803.84	1290.22
804.02	1204.21
804.19	1257.45
804.37	1218.54
804.54	1243.12
804.71	1282.03
804.89	1191.92
805.06	1337.32
805.24	1298.41
805.41	1288.17
805.58	1300.46
805.76	1226.73
805.93	1304.56
806.10	1214.45
806.28	1273.84
806.45	1232.88
806.63	1282.03
806.80	1366.00
806.97	1255.40
807.15	1261.55
807.32	1267.69
807.49	1230.83
807.67	1267.69
807.84	1257.45
808.01	1339.37
808.19	1228.78
808.36	1331.18
808.54	1288.17
808.71	1253.36
808.88	1249.26
809.06	1263.60
809.23	1265.64
809.40	1196.01
809.58	1292.27
809.75	1261.55
809.92	1277.93
810.10	1271.79
810.27	1306.60
810.44	1286.12
810.62	1273.84
810.79	1290.22
810.96	1279.98
811.14	1282.03
811.31	1228.78
811.48	1251.31
811.66	1290.22
811.83	1339.37
812.00	1210.35
812.18	1325.04
812.35	1284.08
812.52	1204.21
812.69	1282.03
812.87	1230.83
813.04	1275.88
813.21	1298.41
813.39	1220.59
813.56	1210.35
813.73	1241.07
813.91	1286.12
814.08	1273.84
814.25	1185.77
814.42	1220.59
814.60	1322.99
814.77	1265.64
814.94	1267.69
815.12	1302.51
815.29	1230.83
815.46	1226.73
815.63	1214.45
815.81	1290.22
815.98	1220.59
816.15	1206.25
816.33	1312.75
816.50	1298.41
816.67	1310.70
816.84	1187.82
817.02	1269.74
817.19	1282.03
817.36	1284.08
817.53	1279.98
817.71	1308.65
817.88	1286.12
818.05	1232.88
818.22	1277.93
818.40	1329.13
818.57	1275.88
818.74	1296.36
818.91	1308.65
819.09	1216.49
819.26	1290.22
819.43	1206.25
819.60	1241.07
819.78	1226.73
819.95	1261.55
820.12	1273.84
820.29	1210.35
820.47	1236.97
820.64	1236.97
820.81	1232.88
820.98	1275.88
821.15	1243.12
821.33	1247.21
821.50	1208.30
821.67	1302.51
821.84	1308.65
822.02	1282.03
822.19	1253.36
822.36	1380.33
822.53	1259.50
822.70	1157.10
822.88	1177.58
823.05	1232.88
823.22	1198.06
823.39	1263.60
823.56	1300.46
823.74	1263.60
823.91	1271.79
824.08	1255.40
824.25	1257.45
824.42	1306.60
824.60	1292.27
824.77	1265.64
824.94	1298.41
825.11	1294.32
825.28	1214.45
825.45	1277.93
825.63	1298.41
825.80	1228.78
825.97	1306.60
826.14	1198.06
826.31	1290.22
826.48	1245.16
826.66	1288.17
826.83	1239.02
827.00	1282.03
827.17	1259.50
827.34	1282.03
827.51	1320.94
827.69	1284.08
827.86	1267.69
828.03	1255.40
828.20	1208.30
828.37	1261.55
828.54	1247.21
828.71	1308.65
828.89	1249.26
829.06	1247.21
829.23	1245.16
829.40	1243.12
829.57	1243.12
829.74	1292.27
829.91	1279.98
830.09	1241.07
830.26	1329.13
830.43	1306.60
830.60	1212.40
830.77	1286.12
830.94	1284.08
831.11	1251.31
831.28	1224.69
831.46	1236.97
831.63	1232.88
831.80	1273.84
831.97	1269.74
832.14	1288.17
832.31	1239.02
832.48	1312.75
832.65	1220.59
832.82	1255.40
832.99	1226.73
833.17	1202.16
833.34	1296.36
833.51	1298.41
833.68	1236.97
833.85	1259.50
834.02	1243.12
834.19	1204.21
834.36	1208.30
834.53	1327.08
834.70	1288.17
834.87	1247.21
835.04	1288.17
835.22	1214.45
835.39	1316.84
835.56	1257.45
835.73	1312.75
835.90	1267.69
836.07	1161.20
836.24	1200.11
836.41	1271.79
836.58	1271.79
836.75	1210.35
836.92	1224.69
837.09	1249.26
837.26	1202.16
837.43	1325.04
837.60	1304.56
837.77	1271.79
837.94	1286.12
838.12	1265.64
838.29	1288.17
838.46	1230.83
838.63	1259.50
838.80	1247.21
838.97	1214.45
839.14	1261.55
839.31	1392.62
839.48	1150.96
839.65	1261.55
839.82	1259.50
839.99	1226.73
840.16	1290.22
840.33	1288.17
840.50	1208.30
840.67	1267.69
840.84	1273.84
841.01	1290.22
841.18	1314.80
841.35	1234.93
841.52	1239.02
841.69	1267.69
841.86	1279.98
842.03	1234.93
842.20	1261.55
842.37	1316.84
842.54	1226.73
842.71	1257.45
842.88	1288.17
843.05	1224.69
843.22	1236.97
843.39	1296.36
843.56	1261.55
843.73	1284.08
843.90	1318.89
844.07	1214.45
844.24	1308.65
844.41	1259.50
844.58	1196.01
844.75	1259.50
844.92	1236.97
845.09	1191.92
845.26	1331.18
845.43	1255.40
845.60	1261.55
845.77	1247.21
845.94	1243.12
846.10	1230.83
846.27	1218.54
846.44	1206.25
846.61	1286.12
846.78	1214.45
846.95	1296.36
847.12	1331.18
847.29	1263.60
847.46	1273.84
847.63	1288.17
847.80	1239.02
847.97	1251.31
848.14	1249.26
848.31	1249.26
848.48	1210.35
848.65	1243.12
848.82	1265.64
848.98	1210.35
849.15	1263.60
849.32	1300.46
849.49	1236.97
849.66	1345.52
849.83	1320.94
850.00	1273.84
850.17	1286.12
850.34	1316.84
850.51	1255.40
850.68	1185.77
850.85	1286.12
851.01	1265.64
851.18	1308.65
851.35	1304.56
851.52	1316.84
851.69	1292.27
851.86	1261.55
852.03	1224.69
852.20	1290.22
852.37	1257.45
852.53	1243.12
852.70	1275.88
852.87	1294.32
853.04	1265.64
853.21	1257.45
853.38	1232.88
853.55	1224.69
853.72	1257.45
853.89	1271.79
854.05	1275.88
854.22	1224.69
854.39	1294.32
854.56	1277.93
854.73	1282.03
854.90	1284.08
855.07	1241.07
855.23	1265.64
855.40	1337.32
855.57	1282.03
855.74	1210.35
855.91	1282.03
856.08	1239.02
856.25	1310.70
856.41	1234.93
856.58	1196.01
856.75	1228.78
856.92	1335.28
857.09	1261.55
857.26	1296.36
857.42	1261.55
857.59	1271.79
857.76	1222.64
857.93	1282.03
858.10	1230.83
858.27	1251.31
858.43	1288.17
858.60	1230.83
858.77	1204.21
858.94	1265.64
859.11	1249.26
859.27	1275.88
859.44	1284.08
859.61	1273.84
859.78	1259.50
859.95	1200.11
860.12	1273.84
860.28	1296.36
860.45	1220.59
860.62	1265.64
860.79	1245.16
860.95	1282.03
861.12	1249.26
861.29	1241.07
861.46	1277.93
861.63	1243.12
861.79	1282.03
861.96	1245.16
862.13	1335.28
862.30	1271.79
862.47	1277.93
862.63	1269.74
862.80	1300.46
862.97	1288.17
863.14	1245.16
863.30	1230.83
863.47	1269.74
863.64	1288.17
863.81	1239.02
863.97	1236.97
864.14	1316.84
864.31	1236.97
864.48	1230.83
864.65	1275.88
864.81	1249.26
864.98	1226.73
865.15	1261.55
865.32	1265.64
865.48	1230.83
865.65	1271.79
865.82	1337.32
865.98	1292.27
866.15	1384.43
866.32	1259.50
866.49	1265.64
866.65	1294.32
866.82	1290.22
866.99	1290.22
867.16	1234.93
867.32	1282.03
867.49	1277.93
867.66	1288.17
867.83	1247.21
867.99	1267.69
868.16	1267.69
868.33	1251.31
868.49	1204.21
868.66	1216.49
868.83	1232.88
868.99	1349.61
869.16	1267.69
869.33	1212.40
869.50	1400.81
869.66	1271.79
869.83	1259.50
870.00	1222.64
870.16	1310.70
870.33	1249.26
870.50	1331.18
870.66	1308.65
870.83	1247.21
871.00	1261.55
871.17	1271.79
871.33	1204.21
871.50	1284.08
871.67	1267.69
871.83	1282.03
872.00	1286.12
872.17	1185.77
872.33	1269.74
872.50	1273.84
872.67	1275.88
872.83	1304.56
873.00	1224.69
873.17	1316.84
873.33	1269.74
873.50	1320.94
873.67	1232.88
873.83	1247.21
874.00	1226.73
874.16	1304.56
874.33	1273.84
874.50	1236.97
874.66	1226.73
874.83	1232.88
875.00	1302.51
875.16	1292.27
875.33	1279.98
875.50	1222.64
875.66	1239.02
875.83	1296.36
875.99	1245.16
876.16	1271.79
876.33	1290.22
876.49	1273.84
876.66	1236.97
876.83	1224.69
876.99	1198.06
877.16	1288.17
877.32	1269.74
877.49	1302.51
877.66	1247.21
877.82	1286.12
877.99	1271.79
878.15	1269.74
878.32	1273.84
878.49	1241.07
878.65	1296.36
878.82	1273.84
878.98	1257.45
879.15	1273.84
879.32	1208.30
879.48	1255.40
879.65	1302.51
879.81	1271.79
879.98	1243.12
880.15	1265.64
880.31	1337.32
880.48	1224.69
880.64	1232.88
880.81	1296.36
880.97	1230.83
881.14	1300.46
881.31	1220.59
881.47	1259.50
881.64	1343.47
881.80	1261.55
881.97	1257.45
882.13	1294.32
882.30	1224.69
882.47	1288.17
882.63	1296.36
882.80	1253.36
882.96	1277.93
883.13	1245.16
883.29	1255.40
883.46	1265.64
883.62	1271.79
883.79	1296.36
883.95	1251.31
884.12	1279.98
884.29	1284.08
884.45	1267.69
884.62	1333.23
884.78	1206.25
884.95	1261.55
885.11	1302.51
885.28	1304.56
885.44	1210.35
885.61	1298.41
885.77	1286.12
885.94	1226.73
886.10	1279.98
886.27	1308.65
886.43	1159.15
886.60	1265.64
886.76	1218.54
886.93	1277.93
887.09	1247.21
887.26	1234.93
887.42	1267.69
887.59	1267.69
887.75	1200.11
887.92	1239.02
888.08	1294.32
888.25	1298.41
888.41	1294.32
888.58	1239.02
888.74	1212.40
888.91	1253.36
>>>>>End Processed Spectral Data<<<<<
