SpectraSuite Data File
++++++++++++++++++++++++++++++++++++
Date: Sun Apr 03 19:55:13 CEST 2016
User: root
Dark Spectrum Present: No
Reference Spectrum Present: No
Number of Sampled Component Spectra: 1
Spectrometers: USB4C02835
Integration Time (usec): 10000 (USB4C02835)
Spectra Averaged: 1 (USB4C02835)
Boxcar Smoothing: 0 (USB4C02835)
Correct for Electrical Dark: No (USB4C02835)
Strobe/Lamp Enabled: No (USB4C02835)
Correct for Detector Non-linearity: No (USB4C02835)
Correct for Stray Light: No (USB4C02835)
Number of Pixels in Processed Spectrum: 3648
>>>>>Begin Processed Spectral Data<<<<<
177.47	1263.60
177.69	1263.60
177.91	1263.60
178.13	1279.98
178.36	1251.31
178.58	1271.79
178.80	1200.11
179.02	1185.77
179.24	1257.45
179.46	1306.60
179.68	1273.84
179.90	1222.64
180.13	1236.97
180.35	1294.32
180.57	1249.26
180.79	1286.12
181.01	1247.21
181.23	1232.88
181.45	1312.75
181.67	1286.12
181.90	1290.22
182.12	1230.83
182.34	1271.79
182.56	1222.64
182.78	1331.18
183.00	1220.59
183.22	1249.26
183.44	1163.25
183.66	1251.31
183.89	1273.84
184.11	1308.65
184.33	1312.75
184.55	1239.02
184.77	1294.32
184.99	1265.64
185.21	1259.50
185.43	1290.22
185.65	1286.12
185.87	1230.83
186.10	1286.12
186.32	1255.40
186.54	1275.88
186.76	1279.98
186.98	1284.08
187.20	1271.79
187.42	1251.31
187.64	1267.69
187.86	1181.68
188.08	1273.84
188.30	1226.73
188.52	1279.98
188.75	1286.12
188.97	1241.07
189.19	1232.88
189.41	1228.78
189.63	1318.89
189.85	1298.41
190.07	1255.40
190.29	1202.16
190.51	1216.49
190.73	1312.75
190.95	1220.59
191.17	1253.36
191.39	1337.32
191.61	1290.22
191.84	1353.71
192.06	1292.27
192.28	1245.16
192.50	1247.21
192.72	1177.58
192.94	1257.45
193.16	1204.21
193.38	1265.64
193.60	1288.17
193.82	1288.17
194.04	1247.21
194.26	1279.98
194.48	1279.98
194.70	1187.82
194.92	1249.26
195.14	1220.59
195.36	1253.36
195.58	1275.88
195.80	1316.84
196.02	1284.08
196.24	1314.80
196.46	1253.36
196.69	1234.93
196.91	1327.08
197.13	1296.36
197.35	1261.55
197.57	1193.97
197.79	1329.13
198.01	1300.46
198.23	1239.02
198.45	1251.31
198.67	1216.49
198.89	1216.49
199.11	1255.40
199.33	1290.22
199.55	1214.45
199.77	1224.69
199.99	1224.69
200.21	1275.88
200.43	1279.98
200.65	1279.98
200.87	1232.88
201.09	1224.69
201.31	1206.25
201.53	1191.92
201.75	1279.98
201.97	1284.08
202.19	1292.27
202.41	1247.21
202.63	1284.08
202.85	1241.07
203.07	1263.60
203.29	1249.26
203.51	1269.74
203.73	1216.49
203.95	1282.03
204.17	1322.99
204.39	1247.21
204.61	1210.35
204.83	1294.32
205.05	1325.04
205.27	1210.35
205.49	1314.80
205.71	1327.08
205.93	1327.08
206.15	1320.94
206.37	1271.79
206.59	1243.12
206.81	1277.93
207.03	1341.42
207.25	1318.89
207.47	1253.36
207.69	1327.08
207.91	1294.32
208.13	1247.21
208.34	1269.74
208.56	1284.08
208.78	1286.12
209.00	1306.60
209.22	1261.55
209.44	1198.06
209.66	1230.83
209.88	1279.98
210.10	1228.78
210.32	1243.12
210.54	1304.56
210.76	1273.84
210.98	1218.54
211.20	1261.55
211.42	1241.07
211.64	1253.36
211.86	1261.55
212.08	1310.70
212.30	1298.41
212.52	1273.84
212.74	1247.21
212.96	1249.26
213.17	1286.12
213.39	1218.54
213.61	1306.60
213.83	1265.64
214.05	1224.69
214.27	1189.87
214.49	1288.17
214.71	1296.36
214.93	1310.70
215.15	1284.08
215.37	1273.84
215.59	1327.08
215.81	1220.59
216.03	1263.60
216.24	1286.12
216.46	1267.69
216.68	1165.29
216.90	1286.12
217.12	1259.50
217.34	1255.40
217.56	1296.36
217.78	1298.41
218.00	1304.56
218.22	1200.11
218.44	1263.60
218.66	1277.93
218.87	1310.70
219.09	1269.74
219.31	1312.75
219.53	1288.17
219.75	1308.65
219.97	1286.12
220.19	1220.59
220.41	1312.75
220.63	1263.60
220.85	1263.60
221.06	1261.55
221.28	1183.73
221.50	1296.36
221.72	1366.00
221.94	1279.98
222.16	1304.56
222.38	1251.31
222.60	1249.26
222.82	1247.21
223.03	1228.78
223.25	1234.93
223.47	1286.12
223.69	1257.45
223.91	1282.03
224.13	1312.75
224.35	1265.64
224.57	1320.94
224.78	1282.03
225.00	1267.69
225.22	1273.84
225.44	1294.32
225.66	1236.97
225.88	1259.50
226.10	1331.18
226.32	1273.84
226.53	1304.56
226.75	1288.17
226.97	1300.46
227.19	1292.27
227.41	1298.41
227.63	1255.40
227.85	1271.79
228.06	1312.75
228.28	1292.27
228.50	1298.41
228.72	1363.95
228.94	1251.31
229.16	1290.22
229.37	1230.83
229.59	1263.60
229.81	1361.90
230.03	1288.17
230.25	1181.68
230.47	1306.60
230.69	1341.42
230.90	1322.99
231.12	1316.84
231.34	1275.88
231.56	1318.89
231.78	1273.84
232.00	1343.47
232.21	1304.56
232.43	1202.16
232.65	1284.08
232.87	1239.02
233.09	1212.40
233.30	1212.40
233.52	1271.79
233.74	1339.37
233.96	1292.27
234.18	1296.36
234.40	1239.02
234.61	1275.88
234.83	1290.22
235.05	1249.26
235.27	1241.07
235.49	1347.56
235.70	1243.12
235.92	1343.47
236.14	1265.64
236.36	1265.64
236.58	1271.79
236.79	1294.32
237.01	1312.75
237.23	1282.03
237.45	1298.41
237.67	1292.27
237.88	1296.36
238.10	1269.74
238.32	1282.03
238.54	1288.17
238.76	1259.50
238.97	1290.22
239.19	1224.69
239.41	1241.07
239.63	1236.97
239.85	1267.69
240.06	1249.26
240.28	1226.73
240.50	1374.19
240.72	1296.36
240.93	1249.26
241.15	1312.75
241.37	1296.36
241.59	1288.17
241.81	1224.69
242.02	1226.73
242.24	1232.88
242.46	1247.21
242.68	1282.03
242.89	1296.36
243.11	1304.56
243.33	1286.12
243.55	1239.02
243.76	1300.46
243.98	1187.82
244.20	1269.74
244.42	1273.84
244.64	1300.46
244.85	1261.55
245.07	1288.17
245.29	1296.36
245.51	1318.89
245.72	1318.89
245.94	1263.60
246.16	1277.93
246.38	1290.22
246.59	1306.60
246.81	1329.13
247.03	1220.59
247.24	1277.93
247.46	1228.78
247.68	1273.84
247.90	1282.03
248.11	1251.31
248.33	1277.93
248.55	1222.64
248.77	1249.26
248.98	1279.98
249.20	1261.55
249.42	1304.56
249.64	1261.55
249.85	1234.93
250.07	1320.94
250.29	1265.64
250.50	1257.45
250.72	1263.60
250.94	1286.12
251.16	1302.51
251.37	1243.12
251.59	1226.73
251.81	1171.44
252.02	1304.56
252.24	1275.88
252.46	1249.26
252.68	1259.50
252.89	1255.40
253.11	1292.27
253.33	1355.76
253.54	1306.60
253.76	1224.69
253.98	1279.98
254.20	1257.45
254.41	1300.46
254.63	1294.32
254.85	1312.75
255.06	1249.26
255.28	1282.03
255.50	1224.69
255.71	1206.25
255.93	1298.41
256.15	1284.08
256.36	1193.97
256.58	1212.40
256.80	1286.12
257.02	1290.22
257.23	1279.98
257.45	1267.69
257.67	1308.65
257.88	1267.69
258.10	1255.40
258.32	1277.93
258.53	1267.69
258.75	1216.49
258.97	1210.35
259.18	1263.60
259.40	1314.80
259.62	1300.46
259.83	1263.60
260.05	1269.74
260.27	1316.84
260.48	1167.34
260.70	1265.64
260.92	1310.70
261.13	1314.80
261.35	1296.36
261.57	1282.03
261.78	1267.69
262.00	1255.40
262.22	1232.88
262.43	1302.51
262.65	1232.88
262.86	1226.73
263.08	1273.84
263.30	1247.21
263.51	1243.12
263.73	1292.27
263.95	1265.64
264.16	1261.55
264.38	1208.30
264.60	1232.88
264.81	1292.27
265.03	1241.07
265.25	1292.27
265.46	1191.92
265.68	1269.74
265.89	1329.13
266.11	1198.06
266.33	1220.59
266.54	1312.75
266.76	1228.78
266.98	1331.18
267.19	1247.21
267.41	1322.99
267.62	1228.78
267.84	1271.79
268.06	1345.52
268.27	1253.36
268.49	1298.41
268.70	1322.99
268.92	1282.03
269.14	1308.65
269.35	1210.35
269.57	1308.65
269.79	1304.56
270.00	1333.23
270.22	1306.60
270.43	1243.12
270.65	1298.41
270.87	1220.59
271.08	1257.45
271.30	1298.41
271.51	1210.35
271.73	1277.93
271.95	1232.88
272.16	1296.36
272.38	1249.26
272.59	1296.36
272.81	1206.25
273.02	1249.26
273.24	1239.02
273.46	1343.47
273.67	1302.51
273.89	1269.74
274.10	1306.60
274.32	1279.98
274.54	1271.79
274.75	1277.93
274.97	1304.56
275.18	1218.54
275.40	1265.64
275.61	1239.02
275.83	1363.95
276.05	1263.60
276.26	1169.39
276.48	1288.17
276.69	1273.84
276.91	1236.97
277.12	1282.03
277.34	1277.93
277.55	1265.64
277.77	1243.12
277.99	1232.88
278.20	1257.45
278.42	1241.07
278.63	1273.84
278.85	1185.77
279.06	1304.56
279.28	1325.04
279.49	1320.94
279.71	1298.41
279.93	1226.73
280.14	1284.08
280.36	1343.47
280.57	1277.93
280.79	1273.84
281.00	1265.64
281.22	1243.12
281.43	1241.07
281.65	1361.90
281.86	1300.46
282.08	1318.89
282.29	1255.40
282.51	1284.08
282.73	1202.16
282.94	1265.64
283.16	1230.83
283.37	1288.17
283.59	1271.79
283.80	1257.45
284.02	1296.36
284.23	1296.36
284.45	1249.26
284.66	1214.45
284.88	1298.41
285.09	1275.88
285.31	1353.71
285.52	1257.45
285.74	1310.70
285.95	1273.84
286.17	1300.46
286.38	1263.60
286.60	1230.83
286.81	1253.36
287.03	1261.55
287.24	1273.84
287.46	1247.21
287.67	1220.59
287.89	1241.07
288.10	1277.93
288.32	1331.18
288.53	1261.55
288.75	1300.46
288.96	1275.88
289.18	1222.64
289.39	1222.64
289.61	1185.77
289.82	1327.08
290.04	1314.80
290.25	1298.41
290.47	1243.12
290.68	1228.78
290.90	1316.84
291.11	1247.21
291.33	1261.55
291.54	1310.70
291.76	1273.84
291.97	1193.97
292.18	1290.22
292.40	1236.97
292.61	1337.32
292.83	1384.43
293.04	1314.80
293.26	1300.46
293.47	1259.50
293.69	1249.26
293.90	1236.97
294.12	1234.93
294.33	1216.49
294.55	1234.93
294.76	1206.25
294.97	1236.97
295.19	1253.36
295.40	1271.79
295.62	1306.60
295.83	1214.45
296.05	1298.41
296.26	1257.45
296.48	1286.12
296.69	1187.82
296.90	1214.45
297.12	1253.36
297.33	1257.45
297.55	1273.84
297.76	1290.22
297.98	1279.98
298.19	1275.88
298.41	1239.02
298.62	1245.16
298.83	1296.36
299.05	1249.26
299.26	1179.63
299.48	1335.28
299.69	1261.55
299.90	1259.50
300.12	1241.07
300.33	1343.47
300.55	1249.26
300.76	1230.83
300.98	1208.30
301.19	1273.84
301.40	1339.37
301.62	1279.98
301.83	1247.21
302.05	1290.22
302.26	1222.64
302.47	1318.89
302.69	1200.11
302.90	1279.98
303.12	1269.74
303.33	1228.78
303.54	1288.17
303.76	1288.17
303.97	1265.64
304.19	1253.36
304.40	1273.84
304.61	1318.89
304.83	1218.54
305.04	1253.36
305.26	1277.93
305.47	1277.93
305.68	1298.41
305.90	1298.41
306.11	1245.16
306.33	1241.07
306.54	1183.73
306.75	1269.74
306.97	1298.41
307.18	1296.36
307.39	1335.28
307.61	1298.41
307.82	1314.80
308.04	1273.84
308.25	1236.97
308.46	1224.69
308.68	1247.21
308.89	1226.73
309.10	1239.02
309.32	1284.08
309.53	1255.40
309.74	1224.69
309.96	1263.60
310.17	1302.51
310.39	1165.29
310.60	1243.12
310.81	1296.36
311.03	1247.21
311.24	1206.25
311.45	1271.79
311.67	1245.16
311.88	1249.26
312.09	1275.88
312.31	1322.99
312.52	1282.03
312.73	1189.87
312.95	1189.87
313.16	1284.08
313.37	1298.41
313.59	1216.49
313.80	1290.22
314.01	1302.51
314.23	1316.84
314.44	1325.04
314.65	1267.69
314.87	1208.30
315.08	1286.12
315.29	1271.79
315.51	1263.60
315.72	1249.26
315.93	1247.21
316.15	1298.41
316.36	1224.69
316.57	1265.64
316.79	1236.97
317.00	1314.80
317.21	1212.40
317.43	1265.64
317.64	1265.64
317.85	1263.60
318.07	1331.18
318.28	1296.36
318.49	1349.61
318.70	1261.55
318.92	1294.32
319.13	1261.55
319.34	1279.98
319.56	1243.12
319.77	1279.98
319.98	1271.79
320.20	1320.94
320.41	1232.88
320.62	1308.65
320.83	1234.93
321.05	1216.49
321.26	1279.98
321.47	1286.12
321.69	1241.07
321.90	1263.60
322.11	1308.65
322.32	1261.55
322.54	1322.99
322.75	1218.54
322.96	1322.99
323.18	1253.36
323.39	1224.69
323.60	1320.94
323.81	1257.45
324.03	1259.50
324.24	1314.80
324.45	1290.22
324.66	1243.12
324.88	1286.12
325.09	1200.11
325.30	1265.64
325.52	1284.08
325.73	1282.03
325.94	1296.36
326.15	1351.66
326.37	1329.13
326.58	1267.69
326.79	1286.12
327.00	1286.12
327.22	1290.22
327.43	1245.16
327.64	1255.40
327.85	1265.64
328.07	1257.45
328.28	1353.71
328.49	1310.70
328.70	1243.12
328.92	1263.60
329.13	1208.30
329.34	1239.02
329.55	1247.21
329.76	1249.26
329.98	1255.40
330.19	1261.55
330.40	1251.31
330.61	1279.98
330.83	1300.46
331.04	1310.70
331.25	1263.60
331.46	1279.98
331.68	1230.83
331.89	1290.22
332.10	1257.45
332.31	1292.27
332.52	1245.16
332.74	1282.03
332.95	1279.98
333.16	1282.03
333.37	1284.08
333.58	1263.60
333.80	1230.83
334.01	1255.40
334.22	1255.40
334.43	1253.36
334.64	1333.23
334.86	1245.16
335.07	1247.21
335.28	1277.93
335.49	1228.78
335.70	1294.32
335.92	1243.12
336.13	1263.60
336.34	1263.60
336.55	1343.47
336.76	1249.26
336.98	1296.36
337.19	1204.21
337.40	1292.27
337.61	1310.70
337.82	1290.22
338.04	1236.97
338.25	1298.41
338.46	1277.93
338.67	1265.64
338.88	1273.84
339.09	1257.45
339.31	1253.36
339.52	1232.88
339.73	1300.46
339.94	1273.84
340.15	1302.51
340.36	1198.06
340.58	1277.93
340.79	1253.36
341.00	1249.26
341.21	1261.55
341.42	1298.41
341.63	1312.75
341.85	1208.30
342.06	1279.98
342.27	1384.43
342.48	1282.03
342.69	1224.69
342.90	1249.26
343.12	1214.45
343.33	1251.31
343.54	1271.79
343.75	1271.79
343.96	1277.93
344.17	1239.02
344.38	1251.31
344.60	1284.08
344.81	1202.16
345.02	1325.04
345.23	1288.17
345.44	1265.64
345.65	1267.69
345.86	1277.93
346.07	1288.17
346.29	1243.12
346.50	1282.03
346.71	1232.88
346.92	1306.60
347.13	1282.03
347.34	1327.08
347.55	1216.49
347.76	1304.56
347.98	1259.50
348.19	1304.56
348.40	1331.18
348.61	1212.40
348.82	1257.45
349.03	1247.21
349.24	1339.37
349.45	1261.55
349.66	1363.95
349.88	1193.97
350.09	1265.64
350.30	1279.98
350.51	1290.22
350.72	1298.41
350.93	1273.84
351.14	1196.01
351.35	1310.70
351.56	1277.93
351.77	1245.16
351.99	1265.64
352.20	1251.31
352.41	1282.03
352.62	1271.79
352.83	1331.18
353.04	1312.75
353.25	1241.07
353.46	1236.97
353.67	1241.07
353.88	1288.17
354.09	1343.47
354.30	1277.93
354.52	1224.69
354.73	1243.12
354.94	1273.84
355.15	1187.82
355.36	1306.60
355.57	1218.54
355.78	1257.45
355.99	1304.56
356.20	1263.60
356.41	1279.98
356.62	1286.12
356.83	1302.51
357.04	1304.56
357.25	1286.12
357.46	1249.26
357.68	1265.64
357.89	1255.40
358.10	1290.22
358.31	1271.79
358.52	1347.56
358.73	1402.86
358.94	1269.74
359.15	1271.79
359.36	1286.12
359.57	1302.51
359.78	1230.83
359.99	1263.60
360.20	1226.73
360.41	1189.87
360.62	1277.93
360.83	1290.22
361.04	1241.07
361.25	1222.64
361.46	1208.30
361.67	1273.84
361.88	1300.46
362.09	1290.22
362.30	1314.80
362.51	1306.60
362.72	1234.93
362.93	1314.80
363.14	1302.51
363.35	1222.64
363.56	1318.89
363.78	1300.46
363.99	1271.79
364.20	1208.30
364.41	1296.36
364.62	1208.30
364.83	1249.26
365.04	1222.64
365.25	1267.69
365.46	1224.69
365.67	1341.42
365.88	1275.88
366.09	1222.64
366.30	1257.45
366.51	1279.98
366.72	1230.83
366.93	1259.50
367.14	1296.36
367.35	1286.12
367.56	1236.97
367.77	1320.94
367.98	1265.64
368.18	1255.40
368.39	1286.12
368.60	1263.60
368.81	1288.17
369.02	1355.76
369.23	1249.26
369.44	1241.07
369.65	1230.83
369.86	1224.69
370.07	1320.94
370.28	1261.55
370.49	1181.68
370.70	1257.45
370.91	1216.49
371.12	1282.03
371.33	1271.79
371.54	1292.27
371.75	1271.79
371.96	1263.60
372.17	1269.74
372.38	1271.79
372.59	1314.80
372.80	1294.32
373.01	1322.99
373.22	1314.80
373.43	1284.08
373.64	1279.98
373.85	1290.22
374.06	1230.83
374.26	1269.74
374.47	1298.41
374.68	1247.21
374.89	1308.65
375.10	1273.84
375.31	1273.84
375.52	1273.84
375.73	1329.13
375.94	1327.08
376.15	1273.84
376.36	1298.41
376.57	1249.26
376.78	1275.88
376.99	1255.40
377.20	1204.21
377.40	1236.97
377.61	1245.16
377.82	1257.45
378.03	1234.93
378.24	1214.45
378.45	1243.12
378.66	1261.55
378.87	1296.36
379.08	1159.15
379.29	1261.55
379.50	1214.45
379.71	1288.17
379.91	1241.07
380.12	1206.25
380.33	1282.03
380.54	1255.40
380.75	1306.60
380.96	1269.74
381.17	1277.93
381.38	1234.93
381.59	1269.74
381.80	1286.12
382.00	1286.12
382.21	1322.99
382.42	1288.17
382.63	1308.65
382.84	1269.74
383.05	1259.50
383.26	1236.97
383.47	1200.11
383.68	1253.36
383.88	1298.41
384.09	1298.41
384.30	1273.84
384.51	1306.60
384.72	1230.83
384.93	1230.83
385.14	1292.27
385.35	1230.83
385.55	1341.42
385.76	1255.40
385.97	1308.65
386.18	1220.59
386.39	1314.80
386.60	1310.70
386.81	1202.16
387.02	1261.55
387.22	1257.45
387.43	1253.36
387.64	1175.53
387.85	1306.60
388.06	1253.36
388.27	1251.31
388.48	1279.98
388.68	1230.83
388.89	1222.64
389.10	1230.83
389.31	1247.21
389.52	1257.45
389.73	1204.21
389.93	1286.12
390.14	1322.99
390.35	1277.93
390.56	1224.69
390.77	1310.70
390.98	1257.45
391.18	1245.16
391.39	1234.93
391.60	1265.64
391.81	1284.08
392.02	1245.16
392.23	1249.26
392.43	1239.02
392.64	1304.56
392.85	1339.37
393.06	1331.18
393.27	1249.26
393.47	1230.83
393.68	1279.98
393.89	1245.16
394.10	1234.93
394.31	1322.99
394.52	1318.89
394.72	1292.27
394.93	1343.47
395.14	1310.70
395.35	1304.56
395.56	1282.03
395.76	1355.76
395.97	1306.60
396.18	1351.66
396.39	1218.54
396.60	1230.83
396.80	1320.94
397.01	1279.98
397.22	1265.64
397.43	1271.79
397.64	1228.78
397.84	1273.84
398.05	1279.98
398.26	1236.97
398.47	1275.88
398.67	1263.60
398.88	1204.21
399.09	1296.36
399.30	1224.69
399.51	1277.93
399.71	1214.45
399.92	1298.41
400.13	1232.88
400.34	1253.36
400.54	1259.50
400.75	1318.89
400.96	1316.84
401.17	1241.07
401.37	1247.21
401.58	1261.55
401.79	1243.12
402.00	1230.83
402.21	1196.01
402.41	1304.56
402.62	1243.12
402.83	1304.56
403.04	1216.49
403.24	1222.64
403.45	1210.35
403.66	1222.64
403.87	1304.56
404.07	1296.36
404.28	1269.74
404.49	1286.12
404.70	1218.54
404.90	1286.12
405.11	1279.98
405.32	1228.78
405.52	1267.69
405.73	1292.27
405.94	1247.21
406.15	1343.47
406.35	1300.46
406.56	1273.84
406.77	1273.84
406.98	1353.71
407.18	1249.26
407.39	1302.51
407.60	1296.36
407.80	1282.03
408.01	1290.22
408.22	1255.40
408.43	1273.84
408.63	1279.98
408.84	1290.22
409.05	1290.22
409.25	1249.26
409.46	1294.32
409.67	1312.75
409.88	1304.56
410.08	1222.64
410.29	1239.02
410.50	1204.21
410.70	1277.93
410.91	1263.60
411.12	1277.93
411.32	1284.08
411.53	1222.64
411.74	1288.17
411.95	1234.93
412.15	1282.03
412.36	1232.88
412.57	1241.07
412.77	1312.75
412.98	1282.03
413.19	1251.31
413.39	1304.56
413.60	1226.73
413.81	1193.97
414.01	1290.22
414.22	1314.80
414.43	1263.60
414.63	1310.70
414.84	1271.79
415.05	1193.97
415.25	1255.40
415.46	1239.02
415.67	1290.22
415.87	1306.60
416.08	1226.73
416.29	1265.64
416.49	1253.36
416.70	1245.16
416.91	1284.08
417.11	1288.17
417.32	1304.56
417.53	1245.16
417.73	1222.64
417.94	1247.21
418.15	1261.55
418.35	1288.17
418.56	1243.12
418.77	1232.88
418.97	1339.37
419.18	1292.27
419.38	1239.02
419.59	1249.26
419.80	1239.02
420.00	1216.49
420.21	1253.36
420.42	1243.12
420.62	1263.60
420.83	1318.89
421.04	1259.50
421.24	1290.22
421.45	1255.40
421.65	1294.32
421.86	1255.40
422.07	1239.02
422.27	1327.08
422.48	1216.49
422.69	1304.56
422.89	1196.01
423.10	1269.74
423.30	1318.89
423.51	1306.60
423.72	1302.51
423.92	1343.47
424.13	1263.60
424.33	1331.18
424.54	1288.17
424.75	1306.60
424.95	1267.69
425.16	1282.03
425.36	1267.69
425.57	1257.45
425.78	1261.55
425.98	1296.36
426.19	1286.12
426.39	1273.84
426.60	1314.80
426.81	1322.99
427.01	1306.60
427.22	1282.03
427.42	1279.98
427.63	1259.50
427.83	1316.84
428.04	1257.45
428.25	1212.40
428.45	1279.98
428.66	1263.60
428.86	1247.21
429.07	1253.36
429.28	1292.27
429.48	1300.46
429.69	1232.88
429.89	1296.36
430.10	1353.71
430.30	1308.65
430.51	1269.74
430.71	1288.17
430.92	1232.88
431.13	1241.07
431.33	1308.65
431.54	1300.46
431.74	1273.84
431.95	1290.22
432.15	1183.73
432.36	1275.88
432.56	1279.98
432.77	1249.26
432.98	1202.16
433.18	1253.36
433.39	1355.76
433.59	1355.76
433.80	1306.60
434.00	1261.55
434.21	1282.03
434.41	1288.17
434.62	1212.40
434.82	1294.32
435.03	1288.17
435.23	1314.80
435.44	1265.64
435.64	1253.36
435.85	1277.93
436.06	1314.80
436.26	1337.32
436.47	1253.36
436.67	1298.41
436.88	1267.69
437.08	1279.98
437.29	1269.74
437.49	1239.02
437.70	1275.88
437.90	1257.45
438.11	1228.78
438.31	1253.36
438.52	1310.70
438.72	1232.88
438.93	1261.55
439.13	1255.40
439.34	1253.36
439.54	1222.64
439.75	1228.78
439.95	1261.55
440.16	1275.88
440.36	1333.23
440.57	1228.78
440.77	1288.17
440.98	1306.60
441.18	1273.84
441.39	1226.73
441.59	1318.89
441.80	1255.40
442.00	1234.93
442.21	1271.79
442.41	1282.03
442.62	1314.80
442.82	1329.13
443.02	1177.58
443.23	1376.24
443.43	1345.52
443.64	1187.82
443.84	1290.22
444.05	1279.98
444.25	1243.12
444.46	1257.45
444.66	1214.45
444.87	1318.89
445.07	1224.69
445.28	1300.46
445.48	1259.50
445.69	1339.37
445.89	1294.32
446.09	1269.74
446.30	1200.11
446.50	1288.17
446.71	1300.46
446.91	1271.79
447.12	1269.74
447.32	1294.32
447.53	1304.56
447.73	1265.64
447.93	1286.12
448.14	1306.60
448.34	1277.93
448.55	1279.98
448.75	1282.03
448.96	1325.04
449.16	1226.73
449.36	1243.12
449.57	1265.64
449.77	1298.41
449.98	1275.88
450.18	1224.69
450.39	1331.18
450.59	1308.65
450.79	1247.21
451.00	1288.17
451.20	1261.55
451.41	1273.84
451.61	1288.17
451.81	1284.08
452.02	1243.12
452.22	1277.93
452.43	1288.17
452.63	1257.45
452.84	1275.88
453.04	1368.04
453.24	1255.40
453.45	1322.99
453.65	1292.27
453.86	1245.16
454.06	1236.97
454.26	1335.28
454.47	1243.12
454.67	1259.50
454.87	1187.82
455.08	1226.73
455.28	1355.76
455.49	1232.88
455.69	1230.83
455.89	1249.26
456.10	1279.98
456.30	1322.99
456.51	1279.98
456.71	1300.46
456.91	1181.68
457.12	1251.31
457.32	1271.79
457.52	1300.46
457.73	1290.22
457.93	1234.93
458.14	1261.55
458.34	1282.03
458.54	1288.17
458.75	1232.88
458.95	1294.32
459.15	1279.98
459.36	1265.64
459.56	1286.12
459.76	1232.88
459.97	1322.99
460.17	1277.93
460.37	1222.64
460.58	1316.84
460.78	1290.22
460.99	1269.74
461.19	1353.71
461.39	1279.98
461.60	1271.79
461.80	1290.22
462.00	1341.42
462.21	1298.41
462.41	1245.16
462.61	1277.93
462.82	1251.31
463.02	1255.40
463.22	1273.84
463.43	1325.04
463.63	1304.56
463.83	1337.32
464.04	1208.30
464.24	1257.45
464.44	1271.79
464.64	1236.97
464.85	1239.02
465.05	1253.36
465.25	1226.73
465.46	1343.47
465.66	1259.50
465.86	1271.79
466.07	1282.03
466.27	1277.93
466.47	1273.84
466.68	1286.12
466.88	1312.75
467.08	1193.97
467.29	1187.82
467.49	1269.74
467.69	1269.74
467.89	1230.83
468.10	1257.45
468.30	1263.60
468.50	1249.26
468.71	1296.36
468.91	1300.46
469.11	1294.32
469.31	1300.46
469.52	1306.60
469.72	1314.80
469.92	1251.31
470.13	1322.99
470.33	1212.40
470.53	1261.55
470.73	1261.55
470.94	1210.35
471.14	1241.07
471.34	1198.06
471.54	1216.49
471.75	1277.93
471.95	1265.64
472.15	1236.97
472.36	1279.98
472.56	1292.27
472.76	1226.73
472.96	1255.40
473.17	1271.79
473.37	1222.64
473.57	1232.88
473.77	1327.08
473.98	1265.64
474.18	1296.36
474.38	1212.40
474.58	1253.36
474.79	1335.28
474.99	1230.83
475.19	1347.56
475.39	1271.79
475.60	1259.50
475.80	1263.60
476.00	1257.45
476.20	1312.75
476.41	1253.36
476.61	1228.78
476.81	1296.36
477.01	1322.99
477.21	1239.02
477.42	1300.46
477.62	1341.42
477.82	1298.41
478.02	1232.88
478.23	1257.45
478.43	1241.07
478.63	1218.54
478.83	1247.21
479.03	1269.74
479.24	1249.26
479.44	1279.98
479.64	1236.97
479.84	1267.69
480.04	1288.17
480.25	1318.89
480.45	1349.61
480.65	1232.88
480.85	1286.12
481.06	1253.36
481.26	1251.31
481.46	1327.08
481.66	1255.40
481.86	1224.69
482.06	1275.88
482.27	1302.51
482.47	1327.08
482.67	1263.60
482.87	1247.21
483.07	1275.88
483.28	1206.25
483.48	1228.78
483.68	1241.07
483.88	1226.73
484.08	1257.45
484.29	1230.83
484.49	1228.78
484.69	1298.41
484.89	1304.56
485.09	1300.46
485.29	1265.64
485.50	1300.46
485.70	1282.03
485.90	1370.09
486.10	1288.17
486.30	1294.32
486.50	1282.03
486.71	1247.21
486.91	1267.69
487.11	1241.07
487.31	1294.32
487.51	1306.60
487.71	1261.55
487.91	1298.41
488.12	1239.02
488.32	1298.41
488.52	1259.50
488.72	1294.32
488.92	1232.88
489.12	1269.74
489.32	1312.75
489.53	1314.80
489.73	1232.88
489.93	1312.75
490.13	1290.22
490.33	1357.80
490.53	1208.30
490.73	1306.60
490.94	1292.27
491.14	1314.80
491.34	1218.54
491.54	1269.74
491.74	1318.89
491.94	1232.88
492.14	1265.64
492.34	1239.02
492.54	1265.64
492.75	1265.64
492.95	1304.56
493.15	1376.24
493.35	1265.64
493.55	1345.52
493.75	1206.25
493.95	1251.31
494.15	1259.50
494.35	1220.59
494.56	1294.32
494.76	1259.50
494.96	1249.26
495.16	1255.40
495.36	1253.36
495.56	1277.93
495.76	1279.98
495.96	1259.50
496.16	1294.32
496.36	1316.84
496.56	1290.22
496.77	1177.58
496.97	1267.69
497.17	1300.46
497.37	1175.53
497.57	1298.41
497.77	1271.79
497.97	1296.36
498.17	1253.36
498.37	1298.41
498.57	1347.56
498.77	1304.56
498.97	1306.60
499.17	1249.26
499.38	1183.73
499.58	1361.90
499.78	1314.80
499.98	1251.31
500.18	1288.17
500.38	1263.60
500.58	1312.75
500.78	1251.31
500.98	1261.55
501.18	1275.88
501.38	1286.12
501.58	1355.76
501.78	1232.88
501.98	1294.32
502.18	1337.32
502.38	1193.97
502.58	1290.22
502.78	1314.80
502.98	1251.31
503.18	1300.46
503.38	1312.75
503.59	1312.75
503.79	1304.56
503.99	1282.03
504.19	1259.50
504.39	1267.69
504.59	1273.84
504.79	1189.87
504.99	1257.45
505.19	1249.26
505.39	1243.12
505.59	1269.74
505.79	1277.93
505.99	1306.60
506.19	1183.73
506.39	1286.12
506.59	1267.69
506.79	1275.88
506.99	1314.80
507.19	1322.99
507.39	1239.02
507.59	1253.36
507.79	1247.21
507.99	1241.07
508.19	1302.51
508.39	1269.74
508.59	1251.31
508.79	1306.60
508.99	1327.08
509.19	1228.78
509.39	1382.38
509.59	1249.26
509.79	1177.58
509.99	1267.69
510.19	1253.36
510.39	1282.03
510.59	1351.66
510.79	1292.27
510.99	1320.94
511.19	1206.25
511.39	1310.70
511.59	1310.70
511.79	1298.41
511.99	1253.36
512.19	1279.98
512.38	1304.56
512.58	1314.80
512.78	1277.93
512.98	1298.41
513.18	1318.89
513.38	1198.06
513.58	1224.69
513.78	1335.28
513.98	1208.30
514.18	1271.79
514.38	1349.61
514.58	1267.69
514.78	1282.03
514.98	1253.36
515.18	1269.74
515.38	1351.66
515.58	1249.26
515.78	1263.60
515.98	1263.60
516.18	1290.22
516.38	1273.84
516.57	1296.36
516.77	1306.60
516.97	1316.84
517.17	1263.60
517.37	1173.49
517.57	1226.73
517.77	1304.56
517.97	1202.16
518.17	1271.79
518.37	1132.53
518.57	1271.79
518.77	1263.60
518.97	1351.66
519.16	1273.84
519.36	1312.75
519.56	1243.12
519.76	1275.88
519.96	1302.51
520.16	1294.32
520.36	1273.84
520.56	1345.52
520.76	1282.03
520.96	1259.50
521.16	1302.51
521.35	1308.65
521.55	1335.28
521.75	1275.88
521.95	1318.89
522.15	1220.59
522.35	1288.17
522.55	1228.78
522.75	1239.02
522.95	1232.88
523.14	1232.88
523.34	1329.13
523.54	1290.22
523.74	1316.84
523.94	1290.22
524.14	1271.79
524.34	1380.33
524.54	1265.64
524.73	1298.41
524.93	1306.60
525.13	1255.40
525.33	1316.84
525.53	1257.45
525.73	1306.60
525.93	1228.78
526.13	1329.13
526.32	1296.36
526.52	1282.03
526.72	1304.56
526.92	1300.46
527.12	1239.02
527.32	1265.64
527.52	1370.09
527.71	1275.88
527.91	1202.16
528.11	1212.40
528.31	1327.08
528.51	1322.99
528.71	1279.98
528.90	1275.88
529.10	1306.60
529.30	1243.12
529.50	1282.03
529.70	1204.21
529.90	1206.25
530.09	1224.69
530.29	1220.59
530.49	1269.74
530.69	1265.64
530.89	1298.41
531.09	1282.03
531.28	1269.74
531.48	1329.13
531.68	1259.50
531.88	1259.50
532.08	1202.16
532.28	1269.74
532.47	1290.22
532.67	1325.04
532.87	1327.08
533.07	1327.08
533.27	1302.51
533.46	1265.64
533.66	1245.16
533.86	1265.64
534.06	1277.93
534.26	1316.84
534.45	1212.40
534.65	1273.84
534.85	1261.55
535.05	1255.40
535.25	1210.35
535.44	1277.93
535.64	1286.12
535.84	1308.65
536.04	1318.89
536.24	1232.88
536.43	1261.55
536.63	1273.84
536.83	1300.46
537.03	1306.60
537.22	1288.17
537.42	1253.36
537.62	1210.35
537.82	1331.18
538.02	1253.36
538.21	1247.21
538.41	1329.13
538.61	1302.51
538.81	1257.45
539.00	1368.04
539.20	1267.69
539.40	1265.64
539.60	1304.56
539.79	1245.16
539.99	1286.12
540.19	1271.79
540.39	1320.94
540.58	1279.98
540.78	1271.79
540.98	1284.08
541.18	1277.93
541.37	1239.02
541.57	1247.21
541.77	1325.04
541.97	1292.27
542.16	1224.69
542.36	1329.13
542.56	1331.18
542.76	1347.56
542.95	1308.65
543.15	1292.27
543.35	1216.49
543.54	1273.84
543.74	1275.88
543.94	1282.03
544.14	1273.84
544.33	1347.56
544.53	1290.22
544.73	1249.26
544.93	1232.88
545.12	1253.36
545.32	1279.98
545.52	1298.41
545.71	1279.98
545.91	1216.49
546.11	1302.51
546.30	1296.36
546.50	1249.26
546.70	1310.70
546.90	1214.45
547.09	1296.36
547.29	1279.98
547.49	1273.84
547.68	1284.08
547.88	1216.49
548.08	1255.40
548.27	1355.76
548.47	1310.70
548.67	1380.33
548.87	1204.21
549.06	1335.28
549.26	1396.71
549.46	1232.88
549.65	1277.93
549.85	1247.21
550.05	1327.08
550.24	1327.08
550.44	1312.75
550.64	1320.94
550.83	1318.89
551.03	1282.03
551.23	1271.79
551.42	1298.41
551.62	1257.45
551.82	1335.28
552.01	1177.58
552.21	1257.45
552.41	1320.94
552.60	1255.40
552.80	1239.02
553.00	1288.17
553.19	1265.64
553.39	1310.70
553.59	1322.99
553.78	1243.12
553.98	1261.55
554.17	1255.40
554.37	1208.30
554.57	1198.06
554.76	1265.64
554.96	1265.64
555.16	1247.21
555.35	1234.93
555.55	1349.61
555.75	1275.88
555.94	1189.87
556.14	1302.51
556.33	1255.40
556.53	1261.55
556.73	1271.79
556.92	1204.21
557.12	1343.47
557.32	1267.69
557.51	1273.84
557.71	1277.93
557.90	1273.84
558.10	1306.60
558.30	1267.69
558.49	1298.41
558.69	1253.36
558.88	1296.36
559.08	1185.77
559.28	1267.69
559.47	1288.17
559.67	1212.40
559.86	1232.88
560.06	1312.75
560.26	1255.40
560.45	1202.16
560.65	1261.55
560.84	1214.45
561.04	1320.94
561.24	1259.50
561.43	1345.52
561.63	1251.31
561.82	1220.59
562.02	1288.17
562.22	1331.18
562.41	1286.12
562.61	1234.93
562.80	1294.32
563.00	1351.66
563.19	1239.02
563.39	1294.32
563.59	1310.70
563.78	1298.41
563.98	1351.66
564.17	1198.06
564.37	1279.98
564.56	1257.45
564.76	1290.22
564.96	1247.21
565.15	1394.67
565.35	1257.45
565.54	1298.41
565.74	1245.16
565.93	1251.31
566.13	1253.36
566.32	1331.18
566.52	1314.80
566.71	1249.26
566.91	1282.03
567.11	1331.18
567.30	1263.60
567.50	1284.08
567.69	1206.25
567.89	1249.26
568.08	1312.75
568.28	1343.47
568.47	1312.75
568.67	1224.69
568.86	1288.17
569.06	1216.49
569.25	1294.32
569.45	1263.60
569.64	1189.87
569.84	1290.22
570.04	1300.46
570.23	1357.80
570.43	1316.84
570.62	1306.60
570.82	1304.56
571.01	1314.80
571.21	1296.36
571.40	1275.88
571.60	1325.04
571.79	1275.88
571.99	1255.40
572.18	1282.03
572.38	1273.84
572.57	1282.03
572.77	1306.60
572.96	1329.13
573.16	1304.56
573.35	1292.27
573.55	1333.23
573.74	1288.17
573.94	1241.07
574.13	1310.70
574.33	1226.73
574.52	1271.79
574.71	1296.36
574.91	1263.60
575.10	1294.32
575.30	1286.12
575.49	1269.74
575.69	1284.08
575.88	1292.27
576.08	1331.18
576.27	1298.41
576.47	1325.04
576.66	1282.03
576.86	1325.04
577.05	1279.98
577.25	1257.45
577.44	1306.60
577.64	1261.55
577.83	1222.64
578.02	1300.46
578.22	1290.22
578.41	1261.55
578.61	1249.26
578.80	1234.93
579.00	1277.93
579.19	1257.45
579.39	1267.69
579.58	1222.64
579.77	1257.45
579.97	1222.64
580.16	1247.21
580.36	1222.64
580.55	1304.56
580.75	1263.60
580.94	1316.84
581.13	1302.51
581.33	1368.04
581.52	1228.78
581.72	1257.45
581.91	1298.41
582.11	1245.16
582.30	1396.71
582.49	1175.53
582.69	1314.80
582.88	1232.88
583.08	1261.55
583.27	1298.41
583.47	1243.12
583.66	1259.50
583.85	1212.40
584.05	1261.55
584.24	1318.89
584.44	1380.33
584.63	1204.21
584.82	1288.17
585.02	1314.80
585.21	1345.52
585.41	1310.70
585.60	1345.52
585.79	1261.55
585.99	1267.69
586.18	1386.47
586.37	1273.84
586.57	1353.71
586.76	1275.88
586.96	1234.93
587.15	1275.88
587.34	1304.56
587.54	1220.59
587.73	1277.93
587.93	1318.89
588.12	1308.65
588.31	1282.03
588.51	1216.49
588.70	1347.56
588.89	1308.65
589.09	1269.74
589.28	1208.30
589.47	1279.98
589.67	1304.56
589.86	1282.03
590.06	1222.64
590.25	1290.22
590.44	1239.02
590.64	1314.80
590.83	1294.32
591.02	1273.84
591.22	1290.22
591.41	1337.32
591.60	1243.12
591.80	1306.60
591.99	1220.59
592.18	1282.03
592.38	1304.56
592.57	1226.73
592.76	1290.22
592.96	1277.93
593.15	1275.88
593.34	1337.32
593.54	1302.51
593.73	1368.04
593.92	1288.17
594.12	1257.45
594.31	1220.59
594.50	1314.80
594.70	1255.40
594.89	1329.13
595.08	1314.80
595.28	1271.79
595.47	1269.74
595.66	1306.60
595.86	1245.16
596.05	1224.69
596.24	1214.45
596.43	1279.98
596.63	1265.64
596.82	1304.56
597.01	1261.55
597.21	1226.73
597.40	1265.64
597.59	1187.82
597.79	1288.17
597.98	1306.60
598.17	1312.75
598.36	1288.17
598.56	1296.36
598.75	1294.32
598.94	1267.69
599.14	1220.59
599.33	1273.84
599.52	1277.93
599.71	1302.51
599.91	1249.26
600.10	1245.16
600.29	1282.03
600.48	1304.56
600.68	1314.80
600.87	1302.51
601.06	1333.23
601.26	1300.46
601.45	1282.03
601.64	1273.84
601.83	1279.98
602.03	1198.06
602.22	1245.16
602.41	1271.79
602.60	1273.84
602.80	1333.23
602.99	1337.32
603.18	1300.46
603.37	1273.84
603.57	1261.55
603.76	1368.04
603.95	1277.93
604.14	1312.75
604.34	1300.46
604.53	1245.16
604.72	1273.84
604.91	1322.99
605.10	1306.60
605.30	1277.93
605.49	1296.36
605.68	1255.40
605.87	1314.80
606.07	1257.45
606.26	1282.03
606.45	1271.79
606.64	1296.36
606.84	1325.04
607.03	1327.08
607.22	1308.65
607.41	1300.46
607.60	1261.55
607.80	1302.51
607.99	1245.16
608.18	1318.89
608.37	1275.88
608.56	1284.08
608.76	1312.75
608.95	1355.76
609.14	1241.07
609.33	1265.64
609.52	1290.22
609.72	1257.45
609.91	1392.62
610.10	1253.36
610.29	1277.93
610.48	1255.40
610.68	1263.60
610.87	1255.40
611.06	1234.93
611.25	1310.70
611.44	1327.08
611.63	1318.89
611.83	1269.74
612.02	1261.55
612.21	1286.12
612.40	1257.45
612.59	1247.21
612.79	1228.78
612.98	1331.18
613.17	1312.75
613.36	1361.90
613.55	1335.28
613.74	1253.36
613.93	1263.60
614.13	1304.56
614.32	1247.21
614.51	1241.07
614.70	1183.73
614.89	1259.50
615.08	1267.69
615.28	1228.78
615.47	1288.17
615.66	1322.99
615.85	1296.36
616.04	1345.52
616.23	1322.99
616.42	1206.25
616.62	1198.06
616.81	1318.89
617.00	1294.32
617.19	1241.07
617.38	1329.13
617.57	1300.46
617.76	1298.41
617.95	1286.12
618.15	1298.41
618.34	1363.95
618.53	1292.27
618.72	1245.16
618.91	1312.75
619.10	1286.12
619.29	1294.32
619.48	1279.98
619.68	1318.89
619.87	1298.41
620.06	1243.12
620.25	1261.55
620.44	1327.08
620.63	1286.12
620.82	1296.36
621.01	1259.50
621.20	1290.22
621.39	1294.32
621.59	1327.08
621.78	1308.65
621.97	1234.93
622.16	1310.70
622.35	1316.84
622.54	1327.08
622.73	1288.17
622.92	1224.69
623.11	1275.88
623.30	1230.83
623.49	1245.16
623.68	1251.31
623.88	1300.46
624.07	1279.98
624.26	1298.41
624.45	1279.98
624.64	1318.89
624.83	1347.56
625.02	1241.07
625.21	1247.21
625.40	1290.22
625.59	1355.76
625.78	1294.32
625.97	1361.90
626.16	1327.08
626.35	1277.93
626.54	1300.46
626.74	1380.33
626.93	1269.74
627.12	1333.23
627.31	1325.04
627.50	1327.08
627.69	1388.52
627.88	1314.80
628.07	1255.40
628.26	1282.03
628.45	1300.46
628.64	1347.56
628.83	1292.27
629.02	1300.46
629.21	1255.40
629.40	1290.22
629.59	1216.49
629.78	1325.04
629.97	1259.50
630.16	1329.13
630.35	1349.61
630.54	1302.51
630.73	1300.46
630.92	1318.89
631.11	1290.22
631.30	1355.76
631.49	1443.82
631.68	1619.94
631.87	2109.41
632.06	3096.53
632.25	2953.17
632.44	4069.31
632.63	5550.00
632.82	7870.34
633.01	16084.75
633.20	29799.99
633.39	43720.04
633.58	46624.06
633.77	41584.01
633.96	30023.22
634.15	18503.40
634.34	9744.24
634.53	5195.70
634.72	2969.55
634.91	1929.19
635.10	1648.61
635.29	1550.31
635.48	1452.01
635.67	1429.48
635.86	1437.67
636.05	1411.05
636.24	1390.57
636.43	1345.52
636.62	1290.22
636.81	1380.33
637.00	1355.76
637.19	1445.87
637.38	1363.95
637.57	1353.71
637.76	1368.04
637.95	1347.56
638.14	1320.94
638.33	1282.03
638.52	1312.75
638.71	1380.33
638.89	1310.70
639.08	1325.04
639.27	1312.75
639.46	1312.75
639.65	1304.56
639.84	1286.12
640.03	1290.22
640.22	1253.36
640.41	1347.56
640.60	1259.50
640.79	1241.07
640.98	1271.79
641.17	1302.51
641.36	1269.74
641.55	1341.42
641.74	1269.74
641.92	1249.26
642.11	1298.41
642.30	1327.08
642.49	1363.95
642.68	1320.94
642.87	1302.51
643.06	1316.84
643.25	1277.93
643.44	1275.88
643.63	1218.54
643.82	1294.32
644.00	1298.41
644.19	1368.04
644.38	1306.60
644.57	1290.22
644.76	1253.36
644.95	1273.84
645.14	1247.21
645.33	1343.47
645.52	1333.23
645.71	1269.74
645.89	1255.40
646.08	1314.80
646.27	1247.21
646.46	1325.04
646.65	1277.93
646.84	1325.04
647.03	1271.79
647.22	1296.36
647.40	1249.26
647.59	1239.02
647.78	1271.79
647.97	1288.17
648.16	1261.55
648.35	1204.21
648.54	1345.52
648.73	1245.16
648.91	1202.16
649.10	1214.45
649.29	1325.04
649.48	1308.65
649.67	1284.08
649.86	1279.98
650.05	1345.52
650.23	1318.89
650.42	1241.07
650.61	1343.47
650.80	1232.88
650.99	1298.41
651.18	1277.93
651.36	1263.60
651.55	1314.80
651.74	1239.02
651.93	1177.58
652.12	1247.21
652.31	1284.08
652.49	1279.98
652.68	1261.55
652.87	1216.49
653.06	1257.45
653.25	1212.40
653.44	1265.64
653.62	1343.47
653.81	1335.28
654.00	1265.64
654.19	1230.83
654.38	1255.40
654.56	1234.93
654.75	1247.21
654.94	1345.52
655.13	1337.32
655.32	1247.21
655.51	1243.12
655.69	1282.03
655.88	1273.84
656.07	1286.12
656.26	1318.89
656.45	1347.56
656.63	1327.08
656.82	1314.80
657.01	1298.41
657.20	1282.03
657.38	1261.55
657.57	1290.22
657.76	1279.98
657.95	1255.40
658.14	1271.79
658.32	1378.28
658.51	1216.49
658.70	1286.12
658.89	1273.84
659.08	1325.04
659.26	1251.31
659.45	1275.88
659.64	1355.76
659.83	1316.84
660.01	1357.80
660.20	1259.50
660.39	1288.17
660.58	1263.60
660.76	1230.83
660.95	1310.70
661.14	1320.94
661.33	1363.95
661.51	1261.55
661.70	1327.08
661.89	1327.08
662.08	1300.46
662.26	1263.60
662.45	1253.36
662.64	1286.12
662.83	1239.02
663.01	1290.22
663.20	1271.79
663.39	1294.32
663.58	1329.13
663.76	1208.30
663.95	1265.64
664.14	1216.49
664.32	1216.49
664.51	1312.75
664.70	1232.88
664.89	1327.08
665.07	1220.59
665.26	1271.79
665.45	1239.02
665.64	1343.47
665.82	1261.55
666.01	1279.98
666.20	1175.53
666.38	1318.89
666.57	1216.49
666.76	1196.01
666.95	1286.12
667.13	1269.74
667.32	1347.56
667.51	1279.98
667.69	1228.78
667.88	1312.75
668.07	1284.08
668.25	1273.84
668.44	1249.26
668.63	1351.66
668.81	1363.95
669.00	1302.51
669.19	1273.84
669.38	1222.64
669.56	1265.64
669.75	1273.84
669.94	1261.55
670.12	1263.60
670.31	1224.69
670.50	1239.02
670.68	1257.45
670.87	1257.45
671.06	1320.94
671.24	1290.22
671.43	1253.36
671.62	1249.26
671.80	1251.31
671.99	1277.93
672.18	1331.18
672.36	1273.84
672.55	1214.45
672.74	1236.97
672.92	1247.21
673.11	1284.08
673.29	1183.73
673.48	1312.75
673.67	1259.50
673.85	1187.82
674.04	1286.12
674.23	1314.80
674.41	1222.64
674.60	1320.94
674.79	1269.74
674.97	1284.08
675.16	1345.52
675.34	1249.26
675.53	1294.32
675.72	1208.30
675.90	1304.56
676.09	1253.36
676.28	1304.56
676.46	1236.97
676.65	1300.46
676.83	1290.22
677.02	1320.94
677.21	1269.74
677.39	1329.13
677.58	1292.27
677.77	1290.22
677.95	1232.88
678.14	1282.03
678.32	1241.07
678.51	1245.16
678.70	1337.32
678.88	1300.46
679.07	1277.93
679.25	1247.21
679.44	1271.79
679.63	1304.56
679.81	1259.50
680.00	1267.69
680.18	1257.45
680.37	1284.08
680.55	1294.32
680.74	1304.56
680.93	1251.31
681.11	1269.74
681.30	1263.60
681.48	1232.88
681.67	1322.99
681.85	1263.60
682.04	1206.25
682.23	1239.02
682.41	1353.71
682.60	1263.60
682.78	1304.56
682.97	1312.75
683.15	1318.89
683.34	1247.21
683.53	1232.88
683.71	1300.46
683.90	1273.84
684.08	1232.88
684.27	1222.64
684.45	1249.26
684.64	1304.56
684.82	1312.75
685.01	1177.58
685.19	1204.21
685.38	1247.21
685.57	1290.22
685.75	1275.88
685.94	1335.28
686.12	1296.36
686.31	1277.93
686.49	1239.02
686.68	1308.65
686.86	1257.45
687.05	1263.60
687.23	1269.74
687.42	1218.54
687.60	1318.89
687.79	1271.79
687.97	1292.27
688.16	1277.93
688.34	1343.47
688.53	1284.08
688.71	1298.41
688.90	1263.60
689.08	1216.49
689.27	1232.88
689.45	1271.79
689.64	1212.40
689.82	1255.40
690.01	1294.32
690.19	1255.40
690.38	1282.03
690.56	1378.28
690.75	1284.08
690.93	1259.50
691.12	1245.16
691.30	1263.60
691.49	1265.64
691.67	1267.69
691.86	1204.21
692.04	1353.71
692.23	1253.36
692.41	1226.73
692.60	1273.84
692.78	1230.83
692.97	1267.69
693.15	1288.17
693.34	1228.78
693.52	1202.16
693.71	1304.56
693.89	1306.60
694.08	1216.49
694.26	1228.78
694.44	1320.94
694.63	1230.83
694.81	1247.21
695.00	1261.55
695.18	1284.08
695.37	1314.80
695.55	1320.94
695.74	1234.93
695.92	1298.41
696.10	1282.03
696.29	1253.36
696.47	1261.55
696.66	1294.32
696.84	1267.69
697.03	1253.36
697.21	1288.17
697.40	1386.47
697.58	1282.03
697.76	1341.42
697.95	1214.45
698.13	1277.93
698.32	1282.03
698.50	1243.12
698.68	1271.79
698.87	1196.01
699.05	1200.11
699.24	1259.50
699.42	1314.80
699.61	1290.22
699.79	1265.64
699.97	1222.64
700.16	1290.22
700.34	1255.40
700.53	1269.74
700.71	1239.02
700.89	1267.69
701.08	1247.21
701.26	1304.56
701.45	1310.70
701.63	1265.64
701.81	1320.94
702.00	1263.60
702.18	1282.03
702.37	1310.70
702.55	1198.06
702.73	1216.49
702.92	1265.64
703.10	1306.60
703.28	1300.46
703.47	1296.36
703.65	1337.32
703.84	1239.02
704.02	1222.64
704.20	1220.59
704.39	1298.41
704.57	1325.04
704.75	1294.32
704.94	1224.69
705.12	1208.30
705.30	1271.79
705.49	1279.98
705.67	1265.64
705.86	1232.88
706.04	1300.46
706.22	1273.84
706.41	1284.08
706.59	1312.75
706.77	1243.12
706.96	1261.55
707.14	1300.46
707.32	1241.07
707.51	1245.16
707.69	1304.56
707.87	1294.32
708.06	1277.93
708.24	1239.02
708.42	1214.45
708.61	1271.79
708.79	1318.89
708.97	1267.69
709.16	1314.80
709.34	1296.36
709.52	1286.12
709.71	1306.60
709.89	1239.02
710.07	1257.45
710.26	1269.74
710.44	1255.40
710.62	1218.54
710.80	1282.03
710.99	1265.64
711.17	1312.75
711.35	1284.08
711.54	1216.49
711.72	1263.60
711.90	1239.02
712.09	1259.50
712.27	1218.54
712.45	1316.84
712.63	1249.26
712.82	1247.21
713.00	1245.16
713.18	1284.08
713.37	1245.16
713.55	1349.61
713.73	1175.53
713.91	1322.99
714.10	1288.17
714.28	1288.17
714.46	1210.35
714.65	1206.25
714.83	1269.74
715.01	1208.30
715.19	1259.50
715.38	1273.84
715.56	1204.21
715.74	1294.32
715.92	1271.79
716.11	1261.55
716.29	1241.07
716.47	1282.03
716.65	1298.41
716.84	1169.39
717.02	1277.93
717.20	1239.02
717.38	1245.16
717.57	1245.16
717.75	1251.31
717.93	1228.78
718.11	1302.51
718.30	1273.84
718.48	1286.12
718.66	1249.26
718.84	1331.18
719.03	1290.22
719.21	1236.97
719.39	1282.03
719.57	1320.94
719.75	1282.03
719.94	1277.93
720.12	1212.40
720.30	1230.83
720.48	1241.07
720.67	1271.79
720.85	1345.52
721.03	1208.30
721.21	1279.98
721.39	1212.40
721.58	1304.56
721.76	1304.56
721.94	1290.22
722.12	1290.22
722.30	1220.59
722.49	1318.89
722.67	1216.49
722.85	1273.84
723.03	1214.45
723.21	1314.80
723.40	1269.74
723.58	1310.70
723.76	1292.27
723.94	1210.35
724.12	1226.73
724.30	1257.45
724.49	1294.32
724.67	1245.16
724.85	1284.08
725.03	1249.26
725.21	1286.12
725.40	1251.31
725.58	1288.17
725.76	1245.16
725.94	1325.04
726.12	1273.84
726.30	1271.79
726.49	1265.64
726.67	1304.56
726.85	1286.12
727.03	1241.07
727.21	1296.36
727.39	1322.99
727.57	1337.32
727.76	1232.88
727.94	1220.59
728.12	1271.79
728.30	1269.74
728.48	1288.17
728.66	1228.78
728.84	1196.01
729.03	1232.88
729.21	1255.40
729.39	1327.08
729.57	1185.77
729.75	1220.59
729.93	1275.88
730.11	1314.80
730.30	1210.35
730.48	1239.02
730.66	1296.36
730.84	1255.40
731.02	1202.16
731.20	1302.51
731.38	1304.56
731.56	1318.89
731.74	1187.82
731.93	1265.64
732.11	1288.17
732.29	1284.08
732.47	1284.08
732.65	1181.68
732.83	1341.42
733.01	1335.28
733.19	1314.80
733.37	1304.56
733.56	1265.64
733.74	1316.84
733.92	1261.55
734.10	1239.02
734.28	1329.13
734.46	1288.17
734.64	1257.45
734.82	1290.22
735.00	1310.70
735.18	1284.08
735.36	1290.22
735.54	1286.12
735.73	1253.36
735.91	1206.25
736.09	1361.90
736.27	1288.17
736.45	1204.21
736.63	1234.93
736.81	1290.22
736.99	1253.36
737.17	1263.60
737.35	1298.41
737.53	1224.69
737.71	1257.45
737.89	1331.18
738.07	1239.02
738.25	1232.88
738.43	1241.07
738.61	1275.88
738.80	1329.13
738.98	1294.32
739.16	1314.80
739.34	1273.84
739.52	1273.84
739.70	1292.27
739.88	1253.36
740.06	1286.12
740.24	1296.36
740.42	1150.96
740.60	1298.41
740.78	1222.64
740.96	1241.07
741.14	1269.74
741.32	1175.53
741.50	1310.70
741.68	1275.88
741.86	1263.60
742.04	1239.02
742.22	1261.55
742.40	1304.56
742.58	1224.69
742.76	1204.21
742.94	1255.40
743.12	1277.93
743.30	1312.75
743.48	1347.56
743.66	1279.98
743.84	1288.17
744.02	1265.64
744.20	1267.69
744.38	1288.17
744.56	1277.93
744.74	1327.08
744.92	1298.41
745.10	1374.19
745.28	1318.89
745.46	1245.16
745.64	1226.73
745.82	1320.94
746.00	1290.22
746.18	1292.27
746.36	1279.98
746.54	1257.45
746.72	1269.74
746.90	1253.36
747.08	1286.12
747.26	1230.83
747.44	1310.70
747.62	1275.88
747.80	1279.98
747.98	1275.88
748.15	1288.17
748.33	1230.83
748.51	1261.55
748.69	1245.16
748.87	1267.69
749.05	1249.26
749.23	1271.79
749.41	1343.47
749.59	1290.22
749.77	1275.88
749.95	1232.88
750.13	1304.56
750.31	1228.78
750.49	1267.69
750.67	1296.36
750.85	1292.27
751.03	1279.98
751.20	1193.97
751.38	1265.64
751.56	1337.32
751.74	1251.31
751.92	1271.79
752.10	1267.69
752.28	1296.36
752.46	1239.02
752.64	1140.72
752.82	1265.64
753.00	1230.83
753.18	1273.84
753.35	1273.84
753.53	1253.36
753.71	1282.03
753.89	1228.78
754.07	1308.65
754.25	1296.36
754.43	1304.56
754.61	1357.80
754.79	1345.52
754.97	1214.45
755.14	1236.97
755.32	1269.74
755.50	1298.41
755.68	1220.59
755.86	1329.13
756.04	1349.61
756.22	1261.55
756.40	1290.22
756.57	1249.26
756.75	1239.02
756.93	1322.99
757.11	1325.04
757.29	1259.50
757.47	1253.36
757.65	1273.84
757.82	1275.88
758.00	1185.77
758.18	1200.11
758.36	1224.69
758.54	1228.78
758.72	1308.65
758.90	1269.74
759.07	1257.45
759.25	1257.45
759.43	1292.27
759.61	1255.40
759.79	1275.88
759.97	1241.07
760.15	1218.54
760.32	1339.37
760.50	1265.64
760.68	1222.64
760.86	1214.45
761.04	1284.08
761.22	1341.42
761.39	1232.88
761.57	1292.27
761.75	1263.60
761.93	1222.64
762.11	1236.97
762.28	1261.55
762.46	1310.70
762.64	1271.79
762.82	1212.40
763.00	1306.60
763.18	1277.93
763.35	1267.69
763.53	1327.08
763.71	1226.73
763.89	1271.79
764.07	1214.45
764.24	1296.36
764.42	1191.92
764.60	1214.45
764.78	1204.21
764.96	1255.40
765.13	1206.25
765.31	1226.73
765.49	1226.73
765.67	1296.36
765.84	1290.22
766.02	1263.60
766.20	1239.02
766.38	1261.55
766.56	1263.60
766.73	1325.04
766.91	1228.78
767.09	1296.36
767.27	1312.75
767.44	1265.64
767.62	1277.93
767.80	1273.84
767.98	1222.64
768.15	1230.83
768.33	1261.55
768.51	1255.40
768.69	1249.26
768.87	1241.07
769.04	1277.93
769.22	1302.51
769.40	1361.90
769.58	1216.49
769.75	1320.94
769.93	1275.88
770.11	1257.45
770.28	1236.97
770.46	1347.56
770.64	1306.60
770.82	1314.80
770.99	1265.64
771.17	1339.37
771.35	1214.45
771.53	1214.45
771.70	1294.32
771.88	1218.54
772.06	1232.88
772.23	1257.45
772.41	1230.83
772.59	1294.32
772.77	1263.60
772.94	1308.65
773.12	1214.45
773.30	1228.78
773.47	1288.17
773.65	1222.64
773.83	1298.41
774.01	1249.26
774.18	1234.93
774.36	1261.55
774.54	1263.60
774.71	1265.64
774.89	1316.84
775.07	1292.27
775.24	1327.08
775.42	1247.21
775.60	1241.07
775.78	1320.94
775.95	1282.03
776.13	1265.64
776.31	1230.83
776.48	1224.69
776.66	1230.83
776.84	1224.69
777.01	1277.93
777.19	1259.50
777.37	1259.50
777.54	1220.59
777.72	1318.89
777.90	1247.21
778.07	1284.08
778.25	1298.41
778.43	1265.64
778.60	1196.01
778.78	1247.21
778.96	1288.17
779.13	1169.39
779.31	1318.89
779.49	1384.43
779.66	1275.88
779.84	1255.40
780.01	1265.64
780.19	1290.22
780.37	1304.56
780.54	1294.32
780.72	1171.44
780.90	1218.54
781.07	1314.80
781.25	1230.83
781.43	1275.88
781.60	1355.76
781.78	1220.59
781.95	1243.12
782.13	1216.49
782.31	1282.03
782.48	1247.21
782.66	1263.60
782.83	1216.49
783.01	1206.25
783.19	1224.69
783.36	1292.27
783.54	1251.31
783.72	1228.78
783.89	1271.79
784.07	1255.40
784.24	1259.50
784.42	1216.49
784.60	1296.36
784.77	1294.32
784.95	1191.92
785.12	1320.94
785.30	1271.79
785.47	1277.93
785.65	1241.07
785.83	1273.84
786.00	1241.07
786.18	1331.18
786.35	1302.51
786.53	1193.97
786.71	1265.64
786.88	1271.79
787.06	1322.99
787.23	1232.88
787.41	1218.54
787.58	1279.98
787.76	1208.30
787.94	1304.56
788.11	1335.28
788.29	1310.70
788.46	1224.69
788.64	1298.41
788.81	1243.12
788.99	1277.93
789.16	1312.75
789.34	1245.16
789.52	1247.21
789.69	1198.06
789.87	1308.65
790.04	1236.97
790.22	1263.60
790.39	1189.87
790.57	1298.41
790.74	1245.16
790.92	1255.40
791.09	1253.36
791.27	1230.83
791.44	1247.21
791.62	1282.03
791.79	1388.52
791.97	1245.16
792.15	1224.69
792.32	1232.88
792.50	1228.78
792.67	1290.22
792.85	1167.34
793.02	1222.64
793.20	1224.69
793.37	1245.16
793.55	1232.88
793.72	1337.32
793.90	1263.60
794.07	1224.69
794.25	1339.37
794.42	1300.46
794.60	1277.93
794.77	1253.36
794.95	1296.36
795.12	1257.45
795.30	1261.55
795.47	1286.12
795.65	1300.46
795.82	1204.21
796.00	1259.50
796.17	1249.26
796.34	1349.61
796.52	1273.84
796.69	1286.12
796.87	1275.88
797.04	1337.32
797.22	1247.21
797.39	1265.64
797.57	1224.69
797.74	1265.64
797.92	1282.03
798.09	1214.45
798.27	1335.28
798.44	1214.45
798.62	1271.79
798.79	1249.26
798.96	1282.03
799.14	1308.65
799.31	1284.08
799.49	1312.75
799.66	1290.22
799.84	1234.93
800.01	1259.50
800.19	1257.45
800.36	1265.64
800.53	1241.07
800.71	1306.60
800.88	1359.85
801.06	1288.17
801.23	1214.45
801.41	1228.78
801.58	1212.40
801.75	1290.22
801.93	1249.26
802.10	1304.56
802.28	1269.74
802.45	1288.17
802.63	1247.21
802.80	1325.04
802.97	1363.95
803.15	1257.45
803.32	1271.79
803.50	1206.25
803.67	1290.22
803.84	1294.32
804.02	1265.64
804.19	1226.73
804.37	1282.03
804.54	1331.18
804.71	1347.56
804.89	1277.93
805.06	1269.74
805.24	1236.97
805.41	1347.56
805.58	1263.60
805.76	1210.35
805.93	1249.26
806.10	1257.45
806.28	1257.45
806.45	1294.32
806.63	1204.21
806.80	1302.51
806.97	1284.08
807.15	1267.69
807.32	1247.21
807.49	1247.21
807.67	1294.32
807.84	1284.08
808.01	1257.45
808.19	1267.69
808.36	1279.98
808.54	1206.25
808.71	1253.36
808.88	1187.82
809.06	1220.59
809.23	1279.98
809.40	1318.89
809.58	1232.88
809.75	1249.26
809.92	1196.01
810.10	1247.21
810.27	1259.50
810.44	1279.98
810.62	1269.74
810.79	1275.88
810.96	1273.84
811.14	1220.59
811.31	1247.21
811.48	1300.46
811.66	1230.83
811.83	1284.08
812.00	1261.55
812.18	1277.93
812.35	1292.27
812.52	1273.84
812.69	1339.37
812.87	1230.83
813.04	1255.40
813.21	1337.32
813.39	1296.36
813.56	1329.13
813.73	1329.13
813.91	1220.59
814.08	1259.50
814.25	1298.41
814.42	1337.32
814.60	1245.16
814.77	1208.30
814.94	1265.64
815.12	1302.51
815.29	1214.45
815.46	1288.17
815.63	1308.65
815.81	1249.26
815.98	1298.41
816.15	1290.22
816.33	1302.51
816.50	1206.25
816.67	1269.74
816.84	1265.64
817.02	1253.36
817.19	1302.51
817.36	1279.98
817.53	1228.78
817.71	1277.93
817.88	1247.21
818.05	1314.80
818.22	1208.30
818.40	1245.16
818.57	1247.21
818.74	1245.16
818.91	1267.69
819.09	1282.03
819.26	1318.89
819.43	1179.63
819.60	1239.02
819.78	1259.50
819.95	1335.28
820.12	1257.45
820.29	1239.02
820.47	1220.59
820.64	1230.83
820.81	1218.54
820.98	1306.60
821.15	1230.83
821.33	1251.31
821.50	1247.21
821.67	1263.60
821.84	1290.22
822.02	1304.56
822.19	1269.74
822.36	1312.75
822.53	1310.70
822.70	1302.51
822.88	1206.25
823.05	1247.21
823.22	1298.41
823.39	1261.55
823.56	1286.12
823.74	1302.51
823.91	1288.17
824.08	1228.78
824.25	1286.12
824.42	1331.18
824.60	1230.83
824.77	1265.64
824.94	1306.60
825.11	1279.98
825.28	1249.26
825.45	1316.84
825.63	1345.52
825.80	1269.74
825.97	1265.64
826.14	1247.21
826.31	1232.88
826.48	1216.49
826.66	1261.55
826.83	1306.60
827.00	1198.06
827.17	1249.26
827.34	1329.13
827.51	1273.84
827.69	1239.02
827.86	1263.60
828.03	1314.80
828.20	1241.07
828.37	1282.03
828.54	1261.55
828.71	1245.16
828.89	1282.03
829.06	1255.40
829.23	1277.93
829.40	1257.45
829.57	1308.65
829.74	1320.94
829.91	1275.88
830.09	1253.36
830.26	1339.37
830.43	1198.06
830.60	1351.66
830.77	1310.70
830.94	1212.40
831.11	1306.60
831.28	1232.88
831.46	1292.27
831.63	1271.79
831.80	1370.09
831.97	1282.03
832.14	1284.08
832.31	1314.80
832.48	1284.08
832.65	1230.83
832.82	1202.16
832.99	1249.26
833.17	1261.55
833.34	1263.60
833.51	1189.87
833.68	1191.92
833.85	1243.12
834.02	1228.78
834.19	1273.84
834.36	1300.46
834.53	1339.37
834.70	1218.54
834.87	1273.84
835.04	1282.03
835.22	1279.98
835.39	1198.06
835.56	1329.13
835.73	1198.06
835.90	1316.84
836.07	1351.66
836.24	1320.94
836.41	1355.76
836.58	1290.22
836.75	1214.45
836.92	1273.84
837.09	1239.02
837.26	1255.40
837.43	1267.69
837.60	1292.27
837.77	1275.88
837.94	1282.03
838.12	1343.47
838.29	1275.88
838.46	1263.60
838.63	1261.55
838.80	1259.50
838.97	1267.69
839.14	1292.27
839.31	1247.21
839.48	1298.41
839.65	1273.84
839.82	1243.12
839.99	1253.36
840.16	1298.41
840.33	1298.41
840.50	1245.16
840.67	1288.17
840.84	1255.40
841.01	1228.78
841.18	1241.07
841.35	1267.69
841.52	1322.99
841.69	1298.41
841.86	1269.74
842.03	1279.98
842.20	1249.26
842.37	1314.80
842.54	1236.97
842.71	1308.65
842.88	1292.27
843.05	1198.06
843.22	1347.56
843.39	1288.17
843.56	1329.13
843.73	1265.64
843.90	1241.07
844.07	1243.12
844.24	1312.75
844.41	1282.03
844.58	1261.55
844.75	1247.21
844.92	1290.22
845.09	1327.08
845.26	1271.79
845.43	1230.83
845.60	1226.73
845.77	1263.60
845.94	1208.30
846.10	1204.21
846.27	1245.16
846.44	1210.35
846.61	1245.16
846.78	1243.12
846.95	1275.88
847.12	1298.41
847.29	1255.40
847.46	1363.95
847.63	1279.98
847.80	1224.69
847.97	1296.36
848.14	1298.41
848.31	1302.51
848.48	1206.25
848.65	1310.70
848.82	1298.41
848.98	1232.88
849.15	1253.36
849.32	1265.64
849.49	1265.64
849.66	1230.83
849.83	1169.39
850.00	1269.74
850.17	1239.02
850.34	1204.21
850.51	1245.16
850.68	1288.17
850.85	1284.08
851.01	1322.99
851.18	1286.12
851.35	1214.45
851.52	1243.12
851.69	1312.75
851.86	1251.31
852.03	1228.78
852.20	1316.84
852.37	1288.17
852.53	1216.49
852.70	1255.40
852.87	1212.40
853.04	1232.88
853.21	1327.08
853.38	1286.12
853.55	1341.42
853.72	1320.94
853.89	1245.16
854.05	1187.82
854.22	1284.08
854.39	1236.97
854.56	1222.64
854.73	1255.40
854.90	1275.88
855.07	1337.32
855.23	1263.60
855.40	1247.21
855.57	1284.08
855.74	1241.07
855.91	1277.93
856.08	1259.50
856.25	1206.25
856.41	1163.25
856.58	1296.36
856.75	1277.93
856.92	1284.08
857.09	1296.36
857.26	1273.84
857.42	1241.07
857.59	1189.87
857.76	1239.02
857.93	1284.08
858.10	1304.56
858.27	1224.69
858.43	1247.21
858.60	1304.56
858.77	1304.56
858.94	1267.69
859.11	1253.36
859.27	1310.70
859.44	1255.40
859.61	1220.59
859.78	1300.46
859.95	1286.12
860.12	1255.40
860.28	1302.51
860.45	1372.14
860.62	1277.93
860.79	1232.88
860.95	1189.87
861.12	1251.31
861.29	1222.64
861.46	1300.46
861.63	1349.61
861.79	1284.08
861.96	1236.97
862.13	1257.45
862.30	1275.88
862.47	1308.65
862.63	1345.52
862.80	1306.60
862.97	1263.60
863.14	1230.83
863.30	1198.06
863.47	1243.12
863.64	1349.61
863.81	1318.89
863.97	1341.42
864.14	1318.89
864.31	1251.31
864.48	1224.69
864.65	1206.25
864.81	1236.97
864.98	1277.93
865.15	1294.32
865.32	1257.45
865.48	1269.74
865.65	1177.58
865.82	1353.71
865.98	1234.93
866.15	1239.02
866.32	1259.50
866.49	1277.93
866.65	1277.93
866.82	1273.84
866.99	1329.13
867.16	1304.56
867.32	1329.13
867.49	1271.79
867.66	1333.23
867.83	1216.49
867.99	1228.78
868.16	1208.30
868.33	1187.82
868.49	1341.42
868.66	1251.31
868.83	1234.93
868.99	1290.22
869.16	1224.69
869.33	1304.56
869.50	1222.64
869.66	1294.32
869.83	1212.40
870.00	1236.97
870.16	1267.69
870.33	1308.65
870.50	1294.32
870.66	1257.45
870.83	1269.74
871.00	1216.49
871.17	1265.64
871.33	1337.32
871.50	1196.01
871.67	1257.45
871.83	1269.74
872.00	1265.64
872.17	1193.97
872.33	1282.03
872.50	1312.75
872.67	1206.25
872.83	1273.84
873.00	1255.40
873.17	1234.93
873.33	1251.31
873.50	1273.84
873.67	1277.93
873.83	1294.32
874.00	1308.65
874.16	1279.98
874.33	1236.97
874.50	1200.11
874.66	1351.66
874.83	1271.79
875.00	1245.16
875.16	1245.16
875.33	1320.94
875.50	1298.41
875.66	1286.12
875.83	1298.41
875.99	1290.22
876.16	1263.60
876.33	1269.74
876.49	1214.45
876.66	1249.26
876.83	1228.78
876.99	1257.45
877.16	1249.26
877.32	1175.53
877.49	1282.03
877.66	1236.97
877.82	1271.79
877.99	1247.21
878.15	1232.88
878.32	1230.83
878.49	1232.88
878.65	1279.98
878.82	1296.36
878.98	1185.77
879.15	1204.21
879.32	1366.00
879.48	1193.97
879.65	1290.22
879.81	1181.68
879.98	1220.59
880.15	1286.12
880.31	1210.35
880.48	1222.64
880.64	1271.79
880.81	1331.18
880.97	1243.12
881.14	1331.18
881.31	1241.07
881.47	1279.98
881.64	1255.40
881.80	1298.41
881.97	1290.22
882.13	1290.22
882.30	1247.21
882.47	1265.64
882.63	1208.30
882.80	1302.51
882.96	1310.70
883.13	1306.60
883.29	1308.65
883.46	1261.55
883.62	1226.73
883.79	1304.56
883.95	1236.97
884.12	1284.08
884.29	1269.74
884.45	1273.84
884.62	1202.16
884.78	1279.98
884.95	1341.42
885.11	1314.80
885.28	1236.97
885.44	1310.70
885.61	1212.40
885.77	1279.98
885.94	1255.40
886.10	1261.55
886.27	1292.27
886.43	1314.80
886.60	1275.88
886.76	1298.41
886.93	1329.13
887.09	1273.84
887.26	1206.25
887.42	1290.22
887.59	1290.22
887.75	1245.16
887.92	1167.34
888.08	1282.03
888.25	1257.45
888.41	1216.49
888.58	1241.07
888.74	1331.18
888.91	1300.46
>>>>>End Processed Spectral Data<<<<<
