SpectraSuite Data File
++++++++++++++++++++++++++++++++++++
Date: Sun Apr 03 19:55:29 CEST 2016
User: root
Dark Spectrum Present: No
Reference Spectrum Present: No
Number of Sampled Component Spectra: 1
Spectrometers: USB4C02835
Integration Time (usec): 10000 (USB4C02835)
Spectra Averaged: 1 (USB4C02835)
Boxcar Smoothing: 0 (USB4C02835)
Correct for Electrical Dark: No (USB4C02835)
Strobe/Lamp Enabled: No (USB4C02835)
Correct for Detector Non-linearity: No (USB4C02835)
Correct for Stray Light: No (USB4C02835)
Number of Pixels in Processed Spectrum: 3648
>>>>>Begin Processed Spectral Data<<<<<
177.47	1275.88
177.69	1275.88
177.91	1275.88
178.13	1310.70
178.36	1222.64
178.58	1224.69
178.80	1265.64
179.02	1234.93
179.24	1187.82
179.46	1245.16
179.68	1193.97
179.90	1294.32
180.13	1310.70
180.35	1245.16
180.57	1224.69
180.79	1220.59
181.01	1216.49
181.23	1282.03
181.45	1261.55
181.67	1333.23
181.90	1282.03
182.12	1275.88
182.34	1234.93
182.56	1261.55
182.78	1224.69
183.00	1232.88
183.22	1294.32
183.44	1204.21
183.66	1249.26
183.89	1286.12
184.11	1294.32
184.33	1249.26
184.55	1255.40
184.77	1247.21
184.99	1298.41
185.21	1267.69
185.43	1239.02
185.65	1263.60
185.87	1275.88
186.10	1212.40
186.32	1253.36
186.54	1298.41
186.76	1249.26
186.98	1228.78
187.20	1234.93
187.42	1288.17
187.64	1212.40
187.86	1310.70
188.08	1269.74
188.30	1263.60
188.52	1310.70
188.75	1226.73
188.97	1210.35
189.19	1224.69
189.41	1308.65
189.63	1269.74
189.85	1310.70
190.07	1218.54
190.29	1249.26
190.51	1220.59
190.73	1234.93
190.95	1263.60
191.17	1251.31
191.39	1277.93
191.61	1304.56
191.84	1228.78
192.06	1243.12
192.28	1191.92
192.50	1263.60
192.72	1196.01
192.94	1320.94
193.16	1196.01
193.38	1275.88
193.60	1275.88
193.82	1255.40
194.04	1216.49
194.26	1267.69
194.48	1216.49
194.70	1282.03
194.92	1200.11
195.14	1290.22
195.36	1255.40
195.58	1279.98
195.80	1150.96
196.02	1322.99
196.24	1243.12
196.46	1320.94
196.69	1275.88
196.91	1314.80
197.13	1267.69
197.35	1228.78
197.57	1329.13
197.79	1196.01
198.01	1312.75
198.23	1232.88
198.45	1234.93
198.67	1282.03
198.89	1298.41
199.11	1236.97
199.33	1271.79
199.55	1353.71
199.77	1294.32
199.99	1345.52
200.21	1255.40
200.43	1230.83
200.65	1245.16
200.87	1222.64
201.09	1271.79
201.31	1257.45
201.53	1294.32
201.75	1245.16
201.97	1245.16
202.19	1257.45
202.41	1226.73
202.63	1183.73
202.85	1335.28
203.07	1286.12
203.29	1247.21
203.51	1302.51
203.73	1296.36
203.95	1343.47
204.17	1263.60
204.39	1314.80
204.61	1296.36
204.83	1286.12
205.05	1222.64
205.27	1329.13
205.49	1239.02
205.71	1288.17
205.93	1296.36
206.15	1249.26
206.37	1208.30
206.59	1259.50
206.81	1171.44
207.03	1327.08
207.25	1308.65
207.47	1234.93
207.69	1204.21
207.91	1243.12
208.13	1232.88
208.34	1247.21
208.56	1226.73
208.78	1277.93
209.00	1288.17
209.22	1249.26
209.44	1259.50
209.66	1271.79
209.88	1296.36
210.10	1292.27
210.32	1214.45
210.54	1228.78
210.76	1245.16
210.98	1320.94
211.20	1279.98
211.42	1337.32
211.64	1275.88
211.86	1284.08
212.08	1232.88
212.30	1286.12
212.52	1226.73
212.74	1247.21
212.96	1304.56
213.17	1337.32
213.39	1259.50
213.61	1277.93
213.83	1308.65
214.05	1241.07
214.27	1255.40
214.49	1308.65
214.71	1243.12
214.93	1200.11
215.15	1230.83
215.37	1234.93
215.59	1222.64
215.81	1216.49
216.03	1202.16
216.24	1226.73
216.46	1304.56
216.68	1300.46
216.90	1271.79
217.12	1275.88
217.34	1290.22
217.56	1257.45
217.78	1263.60
218.00	1251.31
218.22	1226.73
218.44	1230.83
218.66	1286.12
218.87	1318.89
219.09	1312.75
219.31	1318.89
219.53	1310.70
219.75	1306.60
219.97	1368.04
220.19	1232.88
220.41	1216.49
220.63	1302.51
220.85	1318.89
221.06	1265.64
221.28	1269.74
221.50	1269.74
221.72	1232.88
221.94	1341.42
222.16	1247.21
222.38	1206.25
222.60	1267.69
222.82	1337.32
223.03	1288.17
223.25	1314.80
223.47	1308.65
223.69	1218.54
223.91	1243.12
224.13	1247.21
224.35	1253.36
224.57	1339.37
224.78	1259.50
225.00	1212.40
225.22	1277.93
225.44	1286.12
225.66	1241.07
225.88	1241.07
226.10	1265.64
226.32	1245.16
226.53	1296.36
226.75	1183.73
226.97	1300.46
227.19	1320.94
227.41	1284.08
227.63	1259.50
227.85	1288.17
228.06	1261.55
228.28	1255.40
228.50	1271.79
228.72	1300.46
228.94	1208.30
229.16	1277.93
229.37	1277.93
229.59	1241.07
229.81	1312.75
230.03	1296.36
230.25	1226.73
230.47	1279.98
230.69	1275.88
230.90	1232.88
231.12	1236.97
231.34	1220.59
231.56	1241.07
231.78	1249.26
232.00	1271.79
232.21	1200.11
232.43	1265.64
232.65	1232.88
232.87	1298.41
233.09	1222.64
233.30	1216.49
233.52	1286.12
233.74	1245.16
233.96	1247.21
234.18	1253.36
234.40	1275.88
234.61	1308.65
234.83	1290.22
235.05	1316.84
235.27	1292.27
235.49	1271.79
235.70	1249.26
235.92	1331.18
236.14	1224.69
236.36	1322.99
236.58	1282.03
236.79	1298.41
237.01	1296.36
237.23	1271.79
237.45	1308.65
237.67	1239.02
237.88	1243.12
238.10	1300.46
238.32	1236.97
238.54	1267.69
238.76	1245.16
238.97	1310.70
239.19	1214.45
239.41	1269.74
239.63	1314.80
239.85	1261.55
240.06	1243.12
240.28	1282.03
240.50	1304.56
240.72	1345.52
240.93	1300.46
241.15	1306.60
241.37	1366.00
241.59	1236.97
241.81	1189.87
242.02	1306.60
242.24	1269.74
242.46	1255.40
242.68	1247.21
242.89	1193.97
243.11	1275.88
243.33	1249.26
243.55	1269.74
243.76	1310.70
243.98	1216.49
244.20	1302.51
244.42	1279.98
244.64	1298.41
244.85	1200.11
245.07	1243.12
245.29	1310.70
245.51	1251.31
245.72	1228.78
245.94	1351.66
246.16	1230.83
246.38	1312.75
246.59	1255.40
246.81	1284.08
247.03	1314.80
247.24	1329.13
247.46	1302.51
247.68	1265.64
247.90	1251.31
248.11	1277.93
248.33	1267.69
248.55	1294.32
248.77	1304.56
248.98	1279.98
249.20	1269.74
249.42	1292.27
249.64	1300.46
249.85	1300.46
250.07	1236.97
250.29	1329.13
250.50	1351.66
250.72	1208.30
250.94	1253.36
251.16	1255.40
251.37	1255.40
251.59	1308.65
251.81	1200.11
252.02	1296.36
252.24	1218.54
252.46	1255.40
252.68	1302.51
252.89	1292.27
253.11	1220.59
253.33	1286.12
253.54	1216.49
253.76	1265.64
253.98	1234.93
254.20	1308.65
254.41	1277.93
254.63	1308.65
254.85	1251.31
255.06	1290.22
255.28	1230.83
255.50	1259.50
255.71	1259.50
255.93	1265.64
256.15	1226.73
256.36	1271.79
256.58	1241.07
256.80	1249.26
257.02	1183.73
257.23	1239.02
257.45	1212.40
257.67	1232.88
257.88	1243.12
258.10	1288.17
258.32	1224.69
258.53	1298.41
258.75	1271.79
258.97	1245.16
259.18	1282.03
259.40	1257.45
259.62	1273.84
259.83	1228.78
260.05	1273.84
260.27	1247.21
260.48	1290.22
260.70	1259.50
260.92	1269.74
261.13	1318.89
261.35	1243.12
261.57	1208.30
261.78	1255.40
262.00	1245.16
262.22	1241.07
262.43	1241.07
262.65	1308.65
262.86	1261.55
263.08	1310.70
263.30	1333.23
263.51	1253.36
263.73	1271.79
263.95	1335.28
264.16	1282.03
264.38	1202.16
264.60	1265.64
264.81	1220.59
265.03	1290.22
265.25	1298.41
265.46	1325.04
265.68	1286.12
265.89	1234.93
266.11	1228.78
266.33	1318.89
266.54	1320.94
266.76	1255.40
266.98	1236.97
267.19	1269.74
267.41	1277.93
267.62	1263.60
267.84	1265.64
268.06	1222.64
268.27	1210.35
268.49	1322.99
268.70	1185.77
268.92	1320.94
269.14	1279.98
269.35	1271.79
269.57	1257.45
269.79	1241.07
270.00	1247.21
270.22	1314.80
270.43	1218.54
270.65	1261.55
270.87	1273.84
271.08	1320.94
271.30	1261.55
271.51	1212.40
271.73	1343.47
271.95	1292.27
272.16	1271.79
272.38	1312.75
272.59	1234.93
272.81	1279.98
273.02	1216.49
273.24	1230.83
273.46	1253.36
273.67	1234.93
273.89	1253.36
274.10	1282.03
274.32	1259.50
274.54	1308.65
274.75	1314.80
274.97	1243.12
275.18	1308.65
275.40	1292.27
275.61	1269.74
275.83	1265.64
276.05	1193.97
276.26	1304.56
276.48	1335.28
276.69	1267.69
276.91	1232.88
277.12	1257.45
277.34	1286.12
277.55	1253.36
277.77	1241.07
277.99	1212.40
278.20	1316.84
278.42	1263.60
278.63	1327.08
278.85	1288.17
279.06	1239.02
279.28	1189.87
279.49	1320.94
279.71	1312.75
279.93	1253.36
280.14	1261.55
280.36	1290.22
280.57	1357.80
280.79	1204.21
281.00	1277.93
281.22	1300.46
281.43	1232.88
281.65	1288.17
281.86	1200.11
282.08	1290.22
282.29	1294.32
282.51	1273.84
282.73	1259.50
282.94	1230.83
283.16	1288.17
283.37	1218.54
283.59	1273.84
283.80	1181.68
284.02	1277.93
284.23	1263.60
284.45	1210.35
284.66	1320.94
284.88	1329.13
285.09	1322.99
285.31	1275.88
285.52	1228.78
285.74	1236.97
285.95	1239.02
286.17	1273.84
286.38	1351.66
286.60	1263.60
286.81	1239.02
287.03	1249.26
287.24	1261.55
287.46	1236.97
287.67	1202.16
287.89	1249.26
288.10	1325.04
288.32	1259.50
288.53	1257.45
288.75	1275.88
288.96	1300.46
289.18	1208.30
289.39	1228.78
289.61	1275.88
289.82	1310.70
290.04	1261.55
290.25	1200.11
290.47	1329.13
290.68	1212.40
290.90	1253.36
291.11	1300.46
291.33	1257.45
291.54	1275.88
291.76	1286.12
291.97	1347.56
292.18	1257.45
292.40	1232.88
292.61	1249.26
292.83	1273.84
293.04	1249.26
293.26	1218.54
293.47	1230.83
293.69	1239.02
293.90	1216.49
294.12	1265.64
294.33	1288.17
294.55	1249.26
294.76	1282.03
294.97	1296.36
295.19	1304.56
295.40	1196.01
295.62	1228.78
295.83	1249.26
296.05	1269.74
296.26	1234.93
296.48	1265.64
296.69	1308.65
296.90	1269.74
297.12	1282.03
297.33	1271.79
297.55	1224.69
297.76	1282.03
297.98	1249.26
298.19	1234.93
298.41	1253.36
298.62	1286.12
298.83	1243.12
299.05	1279.98
299.26	1265.64
299.48	1279.98
299.69	1288.17
299.90	1298.41
300.12	1226.73
300.33	1282.03
300.55	1259.50
300.76	1241.07
300.98	1290.22
301.19	1236.97
301.40	1257.45
301.62	1259.50
301.83	1282.03
302.05	1189.87
302.26	1263.60
302.47	1333.23
302.69	1245.16
302.90	1275.88
303.12	1228.78
303.33	1261.55
303.54	1247.21
303.76	1288.17
303.97	1302.51
304.19	1265.64
304.40	1255.40
304.61	1265.64
304.83	1286.12
305.04	1341.42
305.26	1267.69
305.47	1273.84
305.68	1224.69
305.90	1271.79
306.11	1263.60
306.33	1273.84
306.54	1247.21
306.75	1247.21
306.97	1294.32
307.18	1226.73
307.39	1228.78
307.61	1234.93
307.82	1249.26
308.04	1298.41
308.25	1279.98
308.46	1210.35
308.68	1230.83
308.89	1290.22
309.10	1271.79
309.32	1318.89
309.53	1298.41
309.74	1208.30
309.96	1247.21
310.17	1329.13
310.39	1261.55
310.60	1337.32
310.81	1255.40
311.03	1275.88
311.24	1306.60
311.45	1220.59
311.67	1273.84
311.88	1245.16
312.09	1261.55
312.31	1224.69
312.52	1279.98
312.73	1245.16
312.95	1261.55
313.16	1267.69
313.37	1292.27
313.59	1241.07
313.80	1214.45
314.01	1296.36
314.23	1302.51
314.44	1234.93
314.65	1292.27
314.87	1290.22
315.08	1228.78
315.29	1267.69
315.51	1261.55
315.72	1249.26
315.93	1296.36
316.15	1288.17
316.36	1220.59
316.57	1269.74
316.79	1341.42
317.00	1198.06
317.21	1265.64
317.43	1263.60
317.64	1263.60
317.85	1286.12
318.07	1273.84
318.28	1251.31
318.49	1167.34
318.70	1263.60
318.92	1277.93
319.13	1271.79
319.34	1277.93
319.56	1216.49
319.77	1361.90
319.98	1308.65
320.20	1284.08
320.41	1273.84
320.62	1234.93
320.83	1370.09
321.05	1290.22
321.26	1249.26
321.47	1234.93
321.69	1224.69
321.90	1284.08
322.11	1251.31
322.32	1249.26
322.54	1249.26
322.75	1316.84
322.96	1306.60
323.18	1320.94
323.39	1263.60
323.60	1337.32
323.81	1288.17
324.03	1251.31
324.24	1241.07
324.45	1228.78
324.66	1257.45
324.88	1243.12
325.09	1228.78
325.30	1236.97
325.52	1214.45
325.73	1253.36
325.94	1277.93
326.15	1261.55
326.37	1259.50
326.58	1249.26
326.79	1277.93
327.00	1282.03
327.22	1286.12
327.43	1257.45
327.64	1247.21
327.85	1212.40
328.07	1302.51
328.28	1282.03
328.49	1290.22
328.70	1273.84
328.92	1269.74
329.13	1243.12
329.34	1290.22
329.55	1255.40
329.76	1247.21
329.98	1275.88
330.19	1298.41
330.40	1261.55
330.61	1279.98
330.83	1312.75
331.04	1261.55
331.25	1275.88
331.46	1216.49
331.68	1224.69
331.89	1234.93
332.10	1335.28
332.31	1306.60
332.52	1269.74
332.74	1255.40
332.95	1288.17
333.16	1282.03
333.37	1267.69
333.58	1198.06
333.80	1292.27
334.01	1273.84
334.22	1251.31
334.43	1302.51
334.64	1216.49
334.86	1345.52
335.07	1302.51
335.28	1294.32
335.49	1255.40
335.70	1245.16
335.92	1226.73
336.13	1314.80
336.34	1232.88
336.55	1296.36
336.76	1275.88
336.98	1230.83
337.19	1253.36
337.40	1212.40
337.61	1288.17
337.82	1241.07
338.04	1314.80
338.25	1226.73
338.46	1249.26
338.67	1318.89
338.88	1277.93
339.09	1284.08
339.31	1230.83
339.52	1208.30
339.73	1175.53
339.94	1292.27
340.15	1290.22
340.36	1300.46
340.58	1212.40
340.79	1241.07
341.00	1314.80
341.21	1304.56
341.42	1177.58
341.63	1230.83
341.85	1232.88
342.06	1245.16
342.27	1279.98
342.48	1314.80
342.69	1265.64
342.90	1259.50
343.12	1193.97
343.33	1210.35
343.54	1218.54
343.75	1314.80
343.96	1220.59
344.17	1269.74
344.38	1196.01
344.60	1298.41
344.81	1359.85
345.02	1288.17
345.23	1230.83
345.44	1243.12
345.65	1216.49
345.86	1230.83
346.07	1249.26
346.29	1261.55
346.50	1159.15
346.71	1210.35
346.92	1329.13
347.13	1228.78
347.34	1273.84
347.55	1306.60
347.76	1239.02
347.98	1322.99
348.19	1216.49
348.40	1304.56
348.61	1271.79
348.82	1271.79
349.03	1263.60
349.24	1224.69
349.45	1288.17
349.66	1210.35
349.88	1265.64
350.09	1290.22
350.30	1216.49
350.51	1325.04
350.72	1191.92
350.93	1329.13
351.14	1249.26
351.35	1304.56
351.56	1243.12
351.77	1212.40
351.99	1249.26
352.20	1282.03
352.41	1232.88
352.62	1208.30
352.83	1263.60
353.04	1253.36
353.25	1251.31
353.46	1265.64
353.67	1232.88
353.88	1286.12
354.09	1230.83
354.30	1331.18
354.52	1206.25
354.73	1279.98
354.94	1239.02
355.15	1249.26
355.36	1241.07
355.57	1296.36
355.78	1335.28
355.99	1230.83
356.20	1265.64
356.41	1333.23
356.62	1294.32
356.83	1208.30
357.04	1273.84
357.25	1279.98
357.46	1253.36
357.68	1257.45
357.89	1210.35
358.10	1290.22
358.31	1232.88
358.52	1282.03
358.73	1294.32
358.94	1290.22
359.15	1333.23
359.36	1236.97
359.57	1345.52
359.78	1241.07
359.99	1304.56
360.20	1222.64
360.41	1255.40
360.62	1263.60
360.83	1239.02
361.04	1294.32
361.25	1275.88
361.46	1198.06
361.67	1232.88
361.88	1314.80
362.09	1247.21
362.30	1259.50
362.51	1183.73
362.72	1296.36
362.93	1322.99
363.14	1273.84
363.35	1282.03
363.56	1290.22
363.78	1259.50
363.99	1271.79
364.20	1318.89
364.41	1202.16
364.62	1220.59
364.83	1245.16
365.04	1265.64
365.25	1286.12
365.46	1294.32
365.67	1282.03
365.88	1312.75
366.09	1253.36
366.30	1236.97
366.51	1255.40
366.72	1251.31
366.93	1339.37
367.14	1273.84
367.35	1253.36
367.56	1255.40
367.77	1361.90
367.98	1263.60
368.18	1294.32
368.39	1224.69
368.60	1308.65
368.81	1253.36
369.02	1257.45
369.23	1222.64
369.44	1347.56
369.65	1300.46
369.86	1230.83
370.07	1245.16
370.28	1269.74
370.49	1343.47
370.70	1308.65
370.91	1191.92
371.12	1335.28
371.33	1271.79
371.54	1275.88
371.75	1335.28
371.96	1177.58
372.17	1267.69
372.38	1208.30
372.59	1290.22
372.80	1302.51
373.01	1263.60
373.22	1312.75
373.43	1249.26
373.64	1335.28
373.85	1193.97
374.06	1224.69
374.26	1296.36
374.47	1296.36
374.68	1275.88
374.89	1269.74
375.10	1157.10
375.31	1318.89
375.52	1253.36
375.73	1236.97
375.94	1251.31
376.15	1314.80
376.36	1189.87
376.57	1294.32
376.78	1220.59
376.99	1279.98
377.20	1286.12
377.40	1265.64
377.61	1220.59
377.82	1232.88
378.03	1298.41
378.24	1282.03
378.45	1308.65
378.66	1314.80
378.87	1259.50
379.08	1279.98
379.29	1271.79
379.50	1257.45
379.71	1380.33
379.91	1310.70
380.12	1320.94
380.33	1318.89
380.54	1277.93
380.75	1277.93
380.96	1329.13
381.17	1216.49
381.38	1202.16
381.59	1302.51
381.80	1294.32
382.00	1236.97
382.21	1277.93
382.42	1288.17
382.63	1310.70
382.84	1189.87
383.05	1279.98
383.26	1187.82
383.47	1224.69
383.68	1294.32
383.88	1208.30
384.09	1271.79
384.30	1261.55
384.51	1320.94
384.72	1210.35
384.93	1306.60
385.14	1224.69
385.35	1243.12
385.55	1236.97
385.76	1247.21
385.97	1277.93
386.18	1255.40
386.39	1189.87
386.60	1257.45
386.81	1251.31
387.02	1277.93
387.22	1210.35
387.43	1312.75
387.64	1239.02
387.85	1337.32
388.06	1245.16
388.27	1282.03
388.48	1200.11
388.68	1314.80
388.89	1249.26
389.10	1296.36
389.31	1226.73
389.52	1273.84
389.73	1275.88
389.93	1249.26
390.14	1261.55
390.35	1230.83
390.56	1261.55
390.77	1265.64
390.98	1269.74
391.18	1308.65
391.39	1212.40
391.60	1314.80
391.81	1269.74
392.02	1247.21
392.23	1228.78
392.43	1310.70
392.64	1204.21
392.85	1294.32
393.06	1290.22
393.27	1255.40
393.47	1241.07
393.68	1271.79
393.89	1267.69
394.10	1269.74
394.31	1187.82
394.52	1322.99
394.72	1261.55
394.93	1200.11
395.14	1273.84
395.35	1275.88
395.56	1257.45
395.76	1230.83
395.97	1286.12
396.18	1198.06
396.39	1322.99
396.60	1327.08
396.80	1296.36
397.01	1279.98
397.22	1230.83
397.43	1259.50
397.64	1257.45
397.84	1257.45
398.05	1337.32
398.26	1249.26
398.47	1298.41
398.67	1265.64
398.88	1271.79
399.09	1282.03
399.30	1265.64
399.51	1224.69
399.71	1267.69
399.92	1253.36
400.13	1228.78
400.34	1329.13
400.54	1279.98
400.75	1275.88
400.96	1284.08
401.17	1279.98
401.37	1337.32
401.58	1306.60
401.79	1210.35
402.00	1290.22
402.21	1249.26
402.41	1230.83
402.62	1273.84
402.83	1298.41
403.04	1322.99
403.24	1286.12
403.45	1312.75
403.66	1232.88
403.87	1253.36
404.07	1339.37
404.28	1273.84
404.49	1261.55
404.70	1288.17
404.90	1277.93
405.11	1239.02
405.32	1253.36
405.52	1243.12
405.73	1259.50
405.94	1187.82
406.15	1347.56
406.35	1304.56
406.56	1282.03
406.77	1333.23
406.98	1318.89
407.18	1302.51
407.39	1255.40
407.60	1265.64
407.80	1290.22
408.01	1200.11
408.22	1279.98
408.43	1277.93
408.63	1331.18
408.84	1316.84
409.05	1271.79
409.25	1294.32
409.46	1212.40
409.67	1200.11
409.88	1198.06
410.08	1300.46
410.29	1275.88
410.50	1331.18
410.70	1296.36
410.91	1265.64
411.12	1249.26
411.32	1271.79
411.53	1249.26
411.74	1265.64
411.95	1208.30
412.15	1226.73
412.36	1206.25
412.57	1277.93
412.77	1196.01
412.98	1263.60
413.19	1239.02
413.39	1269.74
413.60	1282.03
413.81	1298.41
414.01	1322.99
414.22	1193.97
414.43	1279.98
414.63	1288.17
414.84	1361.90
415.05	1191.92
415.25	1206.25
415.46	1261.55
415.67	1263.60
415.87	1306.60
416.08	1253.36
416.29	1236.97
416.49	1298.41
416.70	1257.45
416.91	1314.80
417.11	1245.16
417.32	1230.83
417.53	1249.26
417.73	1271.79
417.94	1196.01
418.15	1193.97
418.35	1224.69
418.56	1282.03
418.77	1273.84
418.97	1241.07
419.18	1228.78
419.38	1226.73
419.59	1210.35
419.80	1251.31
420.00	1347.56
420.21	1249.26
420.42	1259.50
420.62	1257.45
420.83	1308.65
421.04	1247.21
421.24	1261.55
421.45	1339.37
421.65	1230.83
421.86	1165.29
422.07	1273.84
422.27	1279.98
422.48	1230.83
422.69	1308.65
422.89	1261.55
423.10	1222.64
423.30	1232.88
423.51	1279.98
423.72	1288.17
423.92	1370.09
424.13	1261.55
424.33	1245.16
424.54	1212.40
424.75	1259.50
424.95	1271.79
425.16	1230.83
425.36	1282.03
425.57	1243.12
425.78	1261.55
425.98	1255.40
426.19	1290.22
426.39	1241.07
426.60	1239.02
426.81	1302.51
427.01	1331.18
427.22	1290.22
427.42	1265.64
427.63	1263.60
427.83	1267.69
428.04	1261.55
428.25	1263.60
428.45	1304.56
428.66	1222.64
428.86	1279.98
429.07	1234.93
429.28	1306.60
429.48	1255.40
429.69	1224.69
429.89	1339.37
430.10	1322.99
430.30	1263.60
430.51	1275.88
430.71	1325.04
430.92	1279.98
431.13	1331.18
431.33	1261.55
431.54	1284.08
431.74	1257.45
431.95	1292.27
432.15	1271.79
432.36	1253.36
432.56	1239.02
432.77	1306.60
432.98	1331.18
433.18	1290.22
433.39	1286.12
433.59	1265.64
433.80	1298.41
434.00	1259.50
434.21	1279.98
434.41	1265.64
434.62	1322.99
434.82	1239.02
435.03	1302.51
435.23	1247.21
435.44	1265.64
435.64	1259.50
435.85	1247.21
436.06	1320.94
436.26	1282.03
436.47	1312.75
436.67	1263.60
436.88	1269.74
437.08	1249.26
437.29	1296.36
437.49	1316.84
437.70	1284.08
437.90	1239.02
438.11	1277.93
438.31	1282.03
438.52	1275.88
438.72	1230.83
438.93	1277.93
439.13	1193.97
439.34	1269.74
439.54	1204.21
439.75	1282.03
439.95	1284.08
440.16	1286.12
440.36	1310.70
440.57	1228.78
440.77	1226.73
440.98	1269.74
441.18	1241.07
441.39	1286.12
441.59	1279.98
441.80	1306.60
442.00	1255.40
442.21	1269.74
442.41	1222.64
442.62	1286.12
442.82	1279.98
443.02	1241.07
443.23	1245.16
443.43	1273.84
443.64	1218.54
443.84	1302.51
444.05	1329.13
444.25	1304.56
444.46	1277.93
444.66	1224.69
444.87	1247.21
445.07	1218.54
445.28	1216.49
445.48	1245.16
445.69	1253.36
445.89	1277.93
446.09	1243.12
446.30	1290.22
446.50	1320.94
446.71	1259.50
446.91	1232.88
447.12	1177.58
447.32	1239.02
447.53	1222.64
447.73	1261.55
447.93	1245.16
448.14	1298.41
448.34	1282.03
448.55	1300.46
448.75	1234.93
448.96	1232.88
449.16	1243.12
449.36	1255.40
449.57	1220.59
449.77	1306.60
449.98	1304.56
450.18	1284.08
450.39	1310.70
450.59	1345.52
450.79	1288.17
451.00	1331.18
451.20	1257.45
451.41	1263.60
451.61	1298.41
451.81	1290.22
452.02	1396.71
452.22	1318.89
452.43	1226.73
452.63	1265.64
452.84	1337.32
453.04	1193.97
453.24	1284.08
453.45	1187.82
453.65	1265.64
453.86	1302.51
454.06	1329.13
454.26	1302.51
454.47	1296.36
454.67	1298.41
454.87	1253.36
455.08	1251.31
455.28	1282.03
455.49	1226.73
455.69	1251.31
455.89	1318.89
456.10	1241.07
456.30	1251.31
456.51	1263.60
456.71	1273.84
456.91	1337.32
457.12	1290.22
457.32	1187.82
457.52	1255.40
457.73	1247.21
457.93	1239.02
458.14	1263.60
458.34	1277.93
458.54	1284.08
458.75	1265.64
458.95	1302.51
459.15	1335.28
459.36	1249.26
459.56	1273.84
459.76	1232.88
459.97	1245.16
460.17	1306.60
460.37	1335.28
460.58	1302.51
460.78	1234.93
460.99	1290.22
461.19	1284.08
461.39	1243.12
461.60	1273.84
461.80	1234.93
462.00	1255.40
462.21	1279.98
462.41	1275.88
462.61	1261.55
462.82	1255.40
463.02	1298.41
463.22	1245.16
463.43	1279.98
463.63	1273.84
463.83	1259.50
464.04	1288.17
464.24	1296.36
464.44	1302.51
464.64	1275.88
464.85	1300.46
465.05	1236.97
465.25	1329.13
465.46	1302.51
465.66	1282.03
465.86	1267.69
466.07	1218.54
466.27	1294.32
466.47	1290.22
466.68	1298.41
466.88	1269.74
467.08	1286.12
467.29	1273.84
467.49	1249.26
467.69	1234.93
467.89	1208.30
468.10	1273.84
468.30	1277.93
468.50	1251.31
468.71	1255.40
468.91	1296.36
469.11	1265.64
469.31	1279.98
469.52	1335.28
469.72	1282.03
469.92	1220.59
470.13	1263.60
470.33	1275.88
470.53	1249.26
470.73	1277.93
470.94	1255.40
471.14	1306.60
471.34	1357.80
471.54	1327.08
471.75	1257.45
471.95	1320.94
472.15	1298.41
472.36	1189.87
472.56	1181.68
472.76	1261.55
472.96	1298.41
473.17	1306.60
473.37	1304.56
473.57	1316.84
473.77	1296.36
473.98	1142.77
474.18	1206.25
474.38	1286.12
474.58	1288.17
474.79	1243.12
474.99	1210.35
475.19	1327.08
475.39	1243.12
475.60	1253.36
475.80	1322.99
476.00	1279.98
476.20	1232.88
476.41	1200.11
476.61	1236.97
476.81	1241.07
477.01	1234.93
477.21	1282.03
477.42	1284.08
477.62	1239.02
477.82	1279.98
478.02	1189.87
478.23	1273.84
478.43	1284.08
478.63	1304.56
478.83	1236.97
479.03	1294.32
479.24	1279.98
479.44	1292.27
479.64	1292.27
479.84	1265.64
480.04	1269.74
480.25	1337.32
480.45	1327.08
480.65	1282.03
480.85	1304.56
481.06	1269.74
481.26	1277.93
481.46	1273.84
481.66	1290.22
481.86	1349.61
482.06	1232.88
482.27	1288.17
482.47	1277.93
482.67	1279.98
482.87	1193.97
483.07	1273.84
483.28	1269.74
483.48	1277.93
483.68	1318.89
483.88	1325.04
484.08	1234.93
484.29	1216.49
484.49	1265.64
484.69	1322.99
484.89	1257.45
485.09	1282.03
485.29	1259.50
485.50	1265.64
485.70	1247.21
485.90	1312.75
486.10	1275.88
486.30	1267.69
486.50	1245.16
486.71	1327.08
486.91	1218.54
487.11	1222.64
487.31	1337.32
487.51	1146.86
487.71	1232.88
487.91	1230.83
488.12	1277.93
488.32	1214.45
488.52	1259.50
488.72	1247.21
488.92	1306.60
489.12	1302.51
489.32	1306.60
489.53	1210.35
489.73	1331.18
489.93	1284.08
490.13	1310.70
490.33	1282.03
490.53	1271.79
490.73	1226.73
490.94	1236.97
491.14	1363.95
491.34	1304.56
491.54	1271.79
491.74	1261.55
491.94	1368.04
492.14	1286.12
492.34	1269.74
492.54	1271.79
492.75	1220.59
492.95	1286.12
493.15	1314.80
493.35	1187.82
493.55	1189.87
493.75	1275.88
493.95	1224.69
494.15	1302.51
494.35	1298.41
494.56	1273.84
494.76	1245.16
494.96	1312.75
495.16	1282.03
495.36	1284.08
495.56	1216.49
495.76	1322.99
495.96	1304.56
496.16	1241.07
496.36	1290.22
496.56	1251.31
496.77	1361.90
496.97	1288.17
497.17	1361.90
497.37	1263.60
497.57	1318.89
497.77	1296.36
497.97	1310.70
498.17	1300.46
498.37	1257.45
498.57	1273.84
498.77	1222.64
498.97	1263.60
499.17	1304.56
499.38	1312.75
499.58	1294.32
499.78	1355.76
499.98	1304.56
500.18	1279.98
500.38	1247.21
500.58	1337.32
500.78	1271.79
500.98	1259.50
501.18	1269.74
501.38	1345.52
501.58	1329.13
501.78	1304.56
501.98	1296.36
502.18	1236.97
502.38	1316.84
502.58	1286.12
502.78	1255.40
502.98	1232.88
503.18	1261.55
503.38	1261.55
503.59	1312.75
503.79	1284.08
503.99	1300.46
504.19	1284.08
504.39	1310.70
504.59	1339.37
504.79	1253.36
504.99	1310.70
505.19	1185.77
505.39	1261.55
505.59	1204.21
505.79	1255.40
505.99	1239.02
506.19	1284.08
506.39	1183.73
506.59	1316.84
506.79	1271.79
506.99	1275.88
507.19	1251.31
507.39	1298.41
507.59	1212.40
507.79	1259.50
507.99	1294.32
508.19	1265.64
508.39	1290.22
508.59	1187.82
508.79	1294.32
508.99	1273.84
509.19	1331.18
509.39	1249.26
509.59	1273.84
509.79	1273.84
509.99	1331.18
510.19	1253.36
510.39	1222.64
510.59	1290.22
510.79	1286.12
510.99	1243.12
511.19	1302.51
511.39	1304.56
511.59	1251.31
511.79	1277.93
511.99	1259.50
512.19	1249.26
512.38	1245.16
512.58	1288.17
512.78	1337.32
512.98	1247.21
513.18	1331.18
513.38	1310.70
513.58	1353.71
513.78	1339.37
513.98	1259.50
514.18	1286.12
514.38	1284.08
514.58	1294.32
514.78	1249.26
514.98	1286.12
515.18	1228.78
515.38	1294.32
515.58	1249.26
515.78	1341.42
515.98	1345.52
516.18	1234.93
516.38	1314.80
516.57	1232.88
516.77	1339.37
516.97	1279.98
517.17	1259.50
517.37	1226.73
517.57	1320.94
517.77	1263.60
517.97	1277.93
518.17	1284.08
518.37	1234.93
518.57	1290.22
518.77	1300.46
518.97	1263.60
519.16	1302.51
519.36	1282.03
519.56	1279.98
519.76	1302.51
519.96	1290.22
520.16	1218.54
520.36	1241.07
520.56	1259.50
520.76	1298.41
520.96	1241.07
521.16	1312.75
521.35	1279.98
521.55	1210.35
521.75	1296.36
521.95	1304.56
522.15	1220.59
522.35	1208.30
522.55	1155.05
522.75	1247.21
522.95	1347.56
523.14	1400.81
523.34	1257.45
523.54	1343.47
523.74	1220.59
523.94	1259.50
524.14	1267.69
524.34	1232.88
524.54	1275.88
524.73	1306.60
524.93	1337.32
525.13	1284.08
525.33	1298.41
525.53	1302.51
525.73	1277.93
525.93	1263.60
526.13	1267.69
526.32	1257.45
526.52	1314.80
526.72	1296.36
526.92	1370.09
527.12	1232.88
527.32	1273.84
527.52	1269.74
527.71	1282.03
527.91	1267.69
528.11	1337.32
528.31	1331.18
528.51	1243.12
528.71	1228.78
528.90	1290.22
529.10	1343.47
529.30	1261.55
529.50	1208.30
529.70	1304.56
529.90	1253.36
530.09	1316.84
530.29	1263.60
530.49	1267.69
530.69	1351.66
530.89	1269.74
531.09	1277.93
531.28	1265.64
531.48	1325.04
531.68	1304.56
531.88	1275.88
532.08	1335.28
532.28	1253.36
532.47	1308.65
532.67	1269.74
532.87	1294.32
533.07	1243.12
533.27	1286.12
533.46	1294.32
533.66	1267.69
533.86	1327.08
534.06	1232.88
534.26	1259.50
534.45	1288.17
534.65	1349.61
534.85	1290.22
535.05	1314.80
535.25	1273.84
535.44	1249.26
535.64	1284.08
535.84	1228.78
536.04	1253.36
536.24	1314.80
536.43	1247.21
536.63	1345.52
536.83	1243.12
537.03	1374.19
537.22	1298.41
537.42	1298.41
537.62	1296.36
537.82	1298.41
538.02	1335.28
538.21	1275.88
538.41	1308.65
538.61	1265.64
538.81	1208.30
539.00	1298.41
539.20	1318.89
539.40	1261.55
539.60	1304.56
539.79	1361.90
539.99	1304.56
540.19	1230.83
540.39	1232.88
540.58	1239.02
540.78	1290.22
540.98	1298.41
541.18	1294.32
541.37	1275.88
541.57	1249.26
541.77	1279.98
541.97	1318.89
542.16	1216.49
542.36	1245.16
542.56	1218.54
542.76	1228.78
542.95	1234.93
543.15	1259.50
543.35	1265.64
543.54	1257.45
543.74	1292.27
543.94	1341.42
544.14	1275.88
544.33	1245.16
544.53	1273.84
544.73	1257.45
544.93	1302.51
545.12	1234.93
545.32	1361.90
545.52	1277.93
545.71	1271.79
545.91	1269.74
546.11	1296.36
546.30	1316.84
546.50	1312.75
546.70	1249.26
546.90	1300.46
547.09	1241.07
547.29	1273.84
547.49	1265.64
547.68	1206.25
547.88	1327.08
548.08	1259.50
548.27	1290.22
548.47	1331.18
548.67	1239.02
548.87	1331.18
549.06	1214.45
549.26	1265.64
549.46	1314.80
549.65	1292.27
549.85	1259.50
550.05	1247.21
550.24	1273.84
550.44	1277.93
550.64	1271.79
550.83	1257.45
551.03	1249.26
551.23	1347.56
551.42	1275.88
551.62	1247.21
551.82	1206.25
552.01	1277.93
552.21	1296.36
552.41	1327.08
552.60	1273.84
552.80	1191.92
553.00	1329.13
553.19	1384.43
553.39	1290.22
553.59	1239.02
553.78	1243.12
553.98	1286.12
554.17	1279.98
554.37	1265.64
554.57	1288.17
554.76	1220.59
554.96	1286.12
555.16	1320.94
555.35	1241.07
555.55	1228.78
555.75	1300.46
555.94	1282.03
556.14	1234.93
556.33	1322.99
556.53	1296.36
556.73	1300.46
556.92	1253.36
557.12	1308.65
557.32	1343.47
557.51	1337.32
557.71	1288.17
557.90	1241.07
558.10	1265.64
558.30	1329.13
558.49	1255.40
558.69	1249.26
558.88	1302.51
559.08	1198.06
559.28	1243.12
559.47	1327.08
559.67	1331.18
559.86	1236.97
560.06	1314.80
560.26	1300.46
560.45	1290.22
560.65	1218.54
560.84	1372.14
561.04	1304.56
561.24	1226.73
561.43	1300.46
561.63	1247.21
561.82	1257.45
562.02	1310.70
562.22	1355.76
562.41	1273.84
562.61	1292.27
562.80	1224.69
563.00	1255.40
563.19	1224.69
563.39	1310.70
563.59	1249.26
563.78	1310.70
563.98	1261.55
564.17	1304.56
564.37	1224.69
564.56	1226.73
564.76	1294.32
564.96	1265.64
565.15	1273.84
565.35	1253.36
565.54	1312.75
565.74	1277.93
565.93	1335.28
566.13	1296.36
566.32	1230.83
566.52	1335.28
566.71	1265.64
566.91	1259.50
567.11	1298.41
567.30	1224.69
567.50	1269.74
567.69	1214.45
567.89	1302.51
568.08	1273.84
568.28	1294.32
568.47	1230.83
568.67	1271.79
568.86	1253.36
569.06	1216.49
569.25	1249.26
569.45	1282.03
569.64	1267.69
569.84	1325.04
570.04	1286.12
570.23	1241.07
570.43	1349.61
570.62	1271.79
570.82	1282.03
571.01	1232.88
571.21	1308.65
571.40	1275.88
571.60	1236.97
571.79	1216.49
571.99	1339.37
572.18	1273.84
572.38	1298.41
572.57	1279.98
572.77	1277.93
572.96	1277.93
573.16	1310.70
573.35	1271.79
573.55	1300.46
573.74	1255.40
573.94	1179.63
574.13	1243.12
574.33	1263.60
574.52	1279.98
574.71	1361.90
574.91	1279.98
575.10	1294.32
575.30	1255.40
575.49	1241.07
575.69	1245.16
575.88	1290.22
576.08	1251.31
576.27	1316.84
576.47	1204.21
576.66	1296.36
576.86	1265.64
577.05	1345.52
577.25	1265.64
577.44	1249.26
577.64	1304.56
577.83	1286.12
578.02	1271.79
578.22	1263.60
578.41	1247.21
578.61	1271.79
578.80	1279.98
579.00	1226.73
579.19	1310.70
579.39	1265.64
579.58	1275.88
579.77	1327.08
579.97	1363.95
580.16	1263.60
580.36	1314.80
580.55	1318.89
580.75	1341.42
580.94	1253.36
581.13	1296.36
581.33	1255.40
581.52	1269.74
581.72	1347.56
581.91	1288.17
582.11	1226.73
582.30	1220.59
582.49	1261.55
582.69	1253.36
582.88	1292.27
583.08	1245.16
583.27	1331.18
583.47	1306.60
583.66	1243.12
583.85	1306.60
584.05	1288.17
584.24	1329.13
584.44	1312.75
584.63	1288.17
584.82	1316.84
585.02	1316.84
585.21	1277.93
585.41	1279.98
585.60	1236.97
585.79	1185.77
585.99	1269.74
586.18	1212.40
586.37	1265.64
586.57	1339.37
586.76	1216.49
586.96	1296.36
587.15	1314.80
587.34	1302.51
587.54	1306.60
587.73	1257.45
587.93	1347.56
588.12	1331.18
588.31	1318.89
588.51	1353.71
588.70	1241.07
588.89	1253.36
589.09	1294.32
589.28	1286.12
589.47	1230.83
589.67	1279.98
589.86	1304.56
590.06	1304.56
590.25	1153.01
590.44	1212.40
590.64	1271.79
590.83	1253.36
591.02	1302.51
591.22	1312.75
591.41	1286.12
591.60	1236.97
591.80	1257.45
591.99	1200.11
592.18	1282.03
592.38	1224.69
592.57	1279.98
592.76	1363.95
592.96	1220.59
593.15	1267.69
593.34	1296.36
593.54	1282.03
593.73	1239.02
593.92	1316.84
594.12	1310.70
594.31	1361.90
594.50	1322.99
594.70	1394.67
594.89	1251.31
595.08	1273.84
595.28	1302.51
595.47	1306.60
595.66	1292.27
595.86	1189.87
596.05	1302.51
596.24	1249.26
596.43	1312.75
596.63	1286.12
596.82	1284.08
597.01	1325.04
597.21	1286.12
597.40	1265.64
597.59	1335.28
597.79	1282.03
597.98	1257.45
598.17	1306.60
598.36	1339.37
598.56	1286.12
598.75	1290.22
598.94	1282.03
599.14	1263.60
599.33	1275.88
599.52	1282.03
599.71	1306.60
599.91	1290.22
600.10	1263.60
600.29	1320.94
600.48	1296.36
600.68	1378.28
600.87	1236.97
601.06	1228.78
601.26	1232.88
601.45	1304.56
601.64	1249.26
601.83	1339.37
602.03	1320.94
602.22	1253.36
602.41	1335.28
602.60	1304.56
602.80	1286.12
602.99	1298.41
603.18	1239.02
603.37	1318.89
603.57	1314.80
603.76	1300.46
603.95	1261.55
604.14	1286.12
604.34	1253.36
604.53	1359.85
604.72	1210.35
604.91	1284.08
605.10	1239.02
605.30	1298.41
605.49	1241.07
605.68	1316.84
605.87	1304.56
606.07	1286.12
606.26	1347.56
606.45	1249.26
606.64	1337.32
606.84	1273.84
607.03	1290.22
607.22	1329.13
607.41	1263.60
607.60	1290.22
607.80	1261.55
607.99	1282.03
608.18	1333.23
608.37	1312.75
608.56	1239.02
608.76	1273.84
608.95	1292.27
609.14	1228.78
609.33	1333.23
609.52	1257.45
609.72	1306.60
609.91	1341.42
610.10	1284.08
610.29	1216.49
610.48	1320.94
610.68	1220.59
610.87	1257.45
611.06	1251.31
611.25	1265.64
611.44	1257.45
611.63	1277.93
611.83	1249.26
612.02	1247.21
612.21	1257.45
612.40	1296.36
612.59	1263.60
612.79	1232.88
612.98	1249.26
613.17	1341.42
613.36	1368.04
613.55	1218.54
613.74	1331.18
613.93	1316.84
614.13	1347.56
614.32	1347.56
614.51	1224.69
614.70	1259.50
614.89	1206.25
615.08	1322.99
615.28	1282.03
615.47	1296.36
615.66	1282.03
615.85	1279.98
616.04	1314.80
616.23	1327.08
616.42	1232.88
616.62	1284.08
616.81	1273.84
617.00	1310.70
617.19	1282.03
617.38	1255.40
617.57	1265.64
617.76	1294.32
617.95	1265.64
618.15	1245.16
618.34	1277.93
618.53	1286.12
618.72	1296.36
618.91	1357.80
619.10	1318.89
619.29	1206.25
619.48	1314.80
619.68	1302.51
619.87	1310.70
620.06	1302.51
620.25	1265.64
620.44	1257.45
620.63	1294.32
620.82	1275.88
621.01	1300.46
621.20	1224.69
621.39	1259.50
621.59	1296.36
621.78	1294.32
621.97	1347.56
622.16	1306.60
622.35	1261.55
622.54	1277.93
622.73	1370.09
622.92	1298.41
623.11	1294.32
623.30	1302.51
623.49	1224.69
623.68	1249.26
623.88	1255.40
624.07	1320.94
624.26	1228.78
624.45	1343.47
624.64	1245.16
624.83	1308.65
625.02	1298.41
625.21	1312.75
625.40	1275.88
625.59	1249.26
625.78	1249.26
625.97	1294.32
626.16	1288.17
626.35	1314.80
626.54	1271.79
626.74	1361.90
626.93	1259.50
627.12	1320.94
627.31	1337.32
627.50	1339.37
627.69	1251.31
627.88	1325.04
628.07	1347.56
628.26	1271.79
628.45	1308.65
628.64	1249.26
628.83	1368.04
629.02	1251.31
629.21	1236.97
629.40	1363.95
629.59	1236.97
629.78	1339.37
629.97	1277.93
630.16	1255.40
630.35	1337.32
630.54	1236.97
630.73	1325.04
630.92	1363.95
631.11	1331.18
631.30	1316.84
631.49	1341.42
631.68	1359.85
631.87	1443.82
632.06	1488.87
632.25	1492.97
632.44	1484.78
632.63	1460.20
632.82	1578.98
633.01	1736.68
633.20	1675.24
633.39	1636.33
633.58	1632.23
633.77	1708.01
633.96	1658.85
634.15	1556.46
634.34	1576.94
634.53	1552.36
634.72	1517.54
634.91	1484.78
635.10	1527.78
635.29	1476.59
635.48	1452.01
635.67	1480.68
635.86	1499.11
636.05	1425.39
636.24	1417.19
636.43	1378.28
636.62	1390.57
636.81	1296.36
637.00	1320.94
637.19	1339.37
637.38	1300.46
637.57	1261.55
637.76	1355.76
637.95	1300.46
638.14	1314.80
638.33	1275.88
638.52	1279.98
638.71	1341.42
638.89	1306.60
639.08	1241.07
639.27	1228.78
639.46	1232.88
639.65	1298.41
639.84	1302.51
640.03	1239.02
640.22	1316.84
640.41	1304.56
640.60	1282.03
640.79	1308.65
640.98	1206.25
641.17	1173.49
641.36	1269.74
641.55	1214.45
641.74	1259.50
641.92	1331.18
642.11	1265.64
642.30	1259.50
642.49	1265.64
642.68	1255.40
642.87	1304.56
643.06	1302.51
643.25	1275.88
643.44	1269.74
643.63	1337.32
643.82	1232.88
644.00	1298.41
644.19	1316.84
644.38	1320.94
644.57	1249.26
644.76	1322.99
644.95	1304.56
645.14	1298.41
645.33	1232.88
645.52	1288.17
645.71	1269.74
645.89	1224.69
646.08	1271.79
646.27	1296.36
646.46	1290.22
646.65	1249.26
646.84	1361.90
647.03	1259.50
647.22	1239.02
647.40	1224.69
647.59	1234.93
647.78	1316.84
647.97	1279.98
648.16	1228.78
648.35	1320.94
648.54	1236.97
648.73	1187.82
648.91	1296.36
649.10	1329.13
649.29	1245.16
649.48	1261.55
649.67	1351.66
649.86	1286.12
650.05	1214.45
650.23	1390.57
650.42	1206.25
650.61	1230.83
650.80	1284.08
650.99	1357.80
651.18	1282.03
651.36	1290.22
651.55	1372.14
651.74	1290.22
651.93	1310.70
652.12	1296.36
652.31	1243.12
652.49	1290.22
652.68	1282.03
652.87	1300.46
653.06	1261.55
653.25	1253.36
653.44	1306.60
653.62	1259.50
653.81	1218.54
654.00	1298.41
654.19	1271.79
654.38	1318.89
654.56	1298.41
654.75	1261.55
654.94	1294.32
655.13	1306.60
655.32	1286.12
655.51	1302.51
655.69	1222.64
655.88	1239.02
656.07	1212.40
656.26	1257.45
656.45	1245.16
656.63	1265.64
656.82	1173.49
657.01	1259.50
657.20	1329.13
657.38	1249.26
657.57	1273.84
657.76	1282.03
657.95	1263.60
658.14	1302.51
658.32	1310.70
658.51	1282.03
658.70	1273.84
658.89	1259.50
659.08	1251.31
659.26	1314.80
659.45	1263.60
659.64	1245.16
659.83	1327.08
660.01	1275.88
660.20	1265.64
660.39	1263.60
660.58	1253.36
660.76	1300.46
660.95	1300.46
661.14	1275.88
661.33	1314.80
661.51	1292.27
661.70	1314.80
661.89	1239.02
662.08	1273.84
662.26	1329.13
662.45	1271.79
662.64	1333.23
662.83	1282.03
663.01	1345.52
663.20	1308.65
663.39	1284.08
663.58	1245.16
663.76	1294.32
663.95	1298.41
664.14	1259.50
664.32	1271.79
664.51	1292.27
664.70	1249.26
664.89	1292.27
665.07	1322.99
665.26	1257.45
665.45	1175.53
665.64	1245.16
665.82	1341.42
666.01	1331.18
666.20	1318.89
666.38	1277.93
666.57	1302.51
666.76	1249.26
666.95	1265.64
667.13	1218.54
667.32	1226.73
667.51	1177.58
667.69	1271.79
667.88	1286.12
668.07	1189.87
668.25	1390.57
668.44	1294.32
668.63	1351.66
668.81	1273.84
669.00	1241.07
669.19	1343.47
669.38	1232.88
669.56	1249.26
669.75	1249.26
669.94	1232.88
670.12	1263.60
670.31	1255.40
670.50	1259.50
670.68	1243.12
670.87	1257.45
671.06	1288.17
671.24	1320.94
671.43	1296.36
671.62	1310.70
671.80	1351.66
671.99	1277.93
672.18	1245.16
672.36	1224.69
672.55	1286.12
672.74	1251.31
672.92	1327.08
673.11	1306.60
673.29	1253.36
673.48	1243.12
673.67	1271.79
673.85	1345.52
674.04	1265.64
674.23	1259.50
674.41	1257.45
674.60	1224.69
674.79	1236.97
674.97	1220.59
675.16	1230.83
675.34	1288.17
675.53	1212.40
675.72	1304.56
675.90	1241.07
676.09	1370.09
676.28	1191.92
676.46	1243.12
676.65	1314.80
676.83	1288.17
677.02	1308.65
677.21	1251.31
677.39	1277.93
677.58	1241.07
677.77	1261.55
677.95	1298.41
678.14	1271.79
678.32	1245.16
678.51	1243.12
678.70	1284.08
678.88	1255.40
679.07	1308.65
679.25	1273.84
679.44	1273.84
679.63	1300.46
679.81	1322.99
680.00	1251.31
680.18	1327.08
680.37	1294.32
680.55	1304.56
680.74	1265.64
680.93	1271.79
681.11	1218.54
681.30	1243.12
681.48	1210.35
681.67	1185.77
681.85	1222.64
682.04	1273.84
682.23	1265.64
682.41	1214.45
682.60	1261.55
682.78	1249.26
682.97	1314.80
683.15	1339.37
683.34	1261.55
683.53	1304.56
683.71	1267.69
683.90	1357.80
684.08	1214.45
684.27	1212.40
684.45	1265.64
684.64	1257.45
684.82	1277.93
685.01	1259.50
685.19	1243.12
685.38	1290.22
685.57	1304.56
685.75	1263.60
685.94	1273.84
686.12	1222.64
686.31	1296.36
686.49	1308.65
686.68	1290.22
686.86	1241.07
687.05	1271.79
687.23	1257.45
687.42	1265.64
687.60	1259.50
687.79	1179.63
687.97	1265.64
688.16	1261.55
688.34	1282.03
688.53	1261.55
688.71	1298.41
688.90	1271.79
689.08	1275.88
689.27	1294.32
689.45	1279.98
689.64	1212.40
689.82	1314.80
690.01	1333.23
690.19	1232.88
690.38	1245.16
690.56	1271.79
690.75	1269.74
690.93	1255.40
691.12	1288.17
691.30	1345.52
691.49	1243.12
691.67	1241.07
691.86	1239.02
692.04	1267.69
692.23	1239.02
692.41	1232.88
692.60	1249.26
692.78	1239.02
692.97	1304.56
693.15	1224.69
693.34	1296.36
693.52	1261.55
693.71	1271.79
693.89	1198.06
694.08	1220.59
694.26	1396.71
694.44	1230.83
694.63	1222.64
694.81	1275.88
695.00	1255.40
695.18	1265.64
695.37	1265.64
695.55	1189.87
695.74	1265.64
695.92	1331.18
696.10	1322.99
696.29	1273.84
696.47	1239.02
696.66	1329.13
696.84	1261.55
697.03	1239.02
697.21	1341.42
697.40	1312.75
697.58	1279.98
697.76	1320.94
697.95	1277.93
698.13	1191.92
698.32	1310.70
698.50	1212.40
698.68	1257.45
698.87	1312.75
699.05	1341.42
699.24	1265.64
699.42	1284.08
699.61	1273.84
699.79	1282.03
699.97	1255.40
700.16	1212.40
700.34	1279.98
700.53	1279.98
700.71	1345.52
700.89	1189.87
701.08	1224.69
701.26	1204.21
701.45	1257.45
701.63	1224.69
701.81	1288.17
702.00	1325.04
702.18	1212.40
702.37	1292.27
702.55	1228.78
702.73	1302.51
702.92	1210.35
703.10	1220.59
703.28	1253.36
703.47	1308.65
703.65	1267.69
703.84	1284.08
704.02	1239.02
704.20	1325.04
704.39	1187.82
704.57	1255.40
704.75	1325.04
704.94	1265.64
705.12	1265.64
705.30	1275.88
705.49	1269.74
705.67	1247.21
705.86	1267.69
706.04	1253.36
706.22	1253.36
706.41	1261.55
706.59	1232.88
706.77	1294.32
706.96	1218.54
707.14	1175.53
707.32	1257.45
707.51	1279.98
707.69	1286.12
707.87	1259.50
708.06	1296.36
708.24	1339.37
708.42	1247.21
708.61	1306.60
708.79	1302.51
708.97	1224.69
709.16	1331.18
709.34	1322.99
709.52	1239.02
709.71	1257.45
709.89	1269.74
710.07	1314.80
710.26	1220.59
710.44	1189.87
710.62	1198.06
710.80	1255.40
710.99	1208.30
711.17	1267.69
711.35	1241.07
711.54	1228.78
711.72	1269.74
711.90	1288.17
712.09	1300.46
712.27	1232.88
712.45	1333.23
712.63	1245.16
712.82	1216.49
713.00	1216.49
713.18	1218.54
713.37	1318.89
713.55	1275.88
713.73	1277.93
713.91	1292.27
714.10	1247.21
714.28	1200.11
714.46	1257.45
714.65	1292.27
714.83	1294.32
715.01	1187.82
715.19	1314.80
715.38	1220.59
715.56	1271.79
715.74	1239.02
715.92	1224.69
716.11	1284.08
716.29	1322.99
716.47	1294.32
716.65	1273.84
716.84	1279.98
717.02	1277.93
717.20	1312.75
717.38	1269.74
717.57	1314.80
717.75	1279.98
717.93	1251.31
718.11	1208.30
718.30	1304.56
718.48	1241.07
718.66	1275.88
718.84	1267.69
719.03	1312.75
719.21	1261.55
719.39	1267.69
719.57	1329.13
719.75	1322.99
719.94	1273.84
720.12	1271.79
720.30	1253.36
720.48	1288.17
720.67	1286.12
720.85	1255.40
721.03	1329.13
721.21	1263.60
721.39	1329.13
721.58	1294.32
721.76	1234.93
721.94	1228.78
722.12	1314.80
722.30	1249.26
722.49	1316.84
722.67	1288.17
722.85	1224.69
723.03	1322.99
723.21	1245.16
723.40	1277.93
723.58	1327.08
723.76	1251.31
723.94	1312.75
724.12	1273.84
724.30	1339.37
724.49	1302.51
724.67	1255.40
724.85	1224.69
725.03	1267.69
725.21	1327.08
725.40	1269.74
725.58	1263.60
725.76	1165.29
725.94	1294.32
726.12	1257.45
726.30	1234.93
726.49	1314.80
726.67	1232.88
726.85	1306.60
727.03	1282.03
727.21	1249.26
727.39	1255.40
727.57	1277.93
727.76	1296.36
727.94	1263.60
728.12	1294.32
728.30	1261.55
728.48	1224.69
728.66	1239.02
728.84	1275.88
729.03	1286.12
729.21	1257.45
729.39	1333.23
729.57	1255.40
729.75	1263.60
729.93	1284.08
730.11	1277.93
730.30	1284.08
730.48	1216.49
730.66	1243.12
730.84	1253.36
731.02	1267.69
731.20	1308.65
731.38	1234.93
731.56	1275.88
731.74	1284.08
731.93	1265.64
732.11	1298.41
732.29	1329.13
732.47	1312.75
732.65	1341.42
732.83	1230.83
733.01	1310.70
733.19	1267.69
733.37	1230.83
733.56	1333.23
733.74	1206.25
733.92	1214.45
734.10	1327.08
734.28	1259.50
734.46	1236.97
734.64	1247.21
734.82	1247.21
735.00	1236.97
735.18	1255.40
735.36	1236.97
735.54	1304.56
735.73	1277.93
735.91	1247.21
736.09	1290.22
736.27	1214.45
736.45	1302.51
736.63	1216.49
736.81	1306.60
736.99	1275.88
737.17	1257.45
737.35	1279.98
737.53	1247.21
737.71	1249.26
737.89	1224.69
738.07	1245.16
738.25	1275.88
738.43	1259.50
738.61	1257.45
738.80	1306.60
738.98	1232.88
739.16	1279.98
739.34	1241.07
739.52	1327.08
739.70	1175.53
739.88	1284.08
740.06	1226.73
740.24	1232.88
740.42	1249.26
740.60	1304.56
740.78	1322.99
740.96	1284.08
741.14	1216.49
741.32	1263.60
741.50	1351.66
741.68	1255.40
741.86	1208.30
742.04	1249.26
742.22	1298.41
742.40	1316.84
742.58	1277.93
742.76	1249.26
742.94	1189.87
743.12	1216.49
743.30	1218.54
743.48	1257.45
743.66	1273.84
743.84	1308.65
744.02	1292.27
744.20	1290.22
744.38	1257.45
744.56	1249.26
744.74	1275.88
744.92	1257.45
745.10	1343.47
745.28	1253.36
745.46	1290.22
745.64	1312.75
745.82	1316.84
746.00	1269.74
746.18	1257.45
746.36	1279.98
746.54	1206.25
746.72	1243.12
746.90	1333.23
747.08	1255.40
747.26	1279.98
747.44	1318.89
747.62	1286.12
747.80	1226.73
747.98	1218.54
748.15	1277.93
748.33	1251.31
748.51	1357.80
748.69	1241.07
748.87	1236.97
749.05	1222.64
749.23	1202.16
749.41	1232.88
749.59	1325.04
749.77	1255.40
749.95	1249.26
750.13	1216.49
750.31	1294.32
750.49	1306.60
750.67	1249.26
750.85	1216.49
751.03	1316.84
751.20	1236.97
751.38	1222.64
751.56	1255.40
751.74	1277.93
751.92	1325.04
752.10	1214.45
752.28	1302.51
752.46	1253.36
752.64	1333.23
752.82	1282.03
753.00	1212.40
753.18	1245.16
753.35	1288.17
753.53	1236.97
753.71	1343.47
753.89	1247.21
754.07	1271.79
754.25	1253.36
754.43	1302.51
754.61	1216.49
754.79	1300.46
754.97	1204.21
755.14	1298.41
755.32	1232.88
755.50	1302.51
755.68	1339.37
755.86	1253.36
756.04	1265.64
756.22	1341.42
756.40	1275.88
756.57	1157.10
756.75	1257.45
756.93	1253.36
757.11	1253.36
757.29	1228.78
757.47	1239.02
757.65	1300.46
757.82	1286.12
758.00	1314.80
758.18	1243.12
758.36	1277.93
758.54	1347.56
758.72	1245.16
758.90	1253.36
759.07	1292.27
759.25	1267.69
759.43	1243.12
759.61	1249.26
759.79	1230.83
759.97	1322.99
760.15	1253.36
760.32	1236.97
760.50	1322.99
760.68	1288.17
760.86	1263.60
761.04	1253.36
761.22	1273.84
761.39	1286.12
761.57	1243.12
761.75	1239.02
761.93	1273.84
762.11	1286.12
762.28	1308.65
762.46	1253.36
762.64	1236.97
762.82	1257.45
763.00	1255.40
763.18	1226.73
763.35	1261.55
763.53	1345.52
763.71	1275.88
763.89	1292.27
764.07	1296.36
764.24	1294.32
764.42	1218.54
764.60	1275.88
764.78	1249.26
764.96	1288.17
765.13	1214.45
765.31	1255.40
765.49	1218.54
765.67	1259.50
765.84	1316.84
766.02	1312.75
766.20	1261.55
766.38	1259.50
766.56	1290.22
766.73	1359.85
766.91	1359.85
767.09	1251.31
767.27	1218.54
767.44	1263.60
767.62	1288.17
767.80	1284.08
767.98	1198.06
768.15	1206.25
768.33	1284.08
768.51	1384.43
768.69	1302.51
768.87	1286.12
769.04	1267.69
769.22	1343.47
769.40	1247.21
769.58	1273.84
769.75	1300.46
769.93	1294.32
770.11	1212.40
770.28	1320.94
770.46	1251.31
770.64	1279.98
770.82	1275.88
770.99	1232.88
771.17	1243.12
771.35	1282.03
771.53	1218.54
771.70	1294.32
771.88	1204.21
772.06	1261.55
772.23	1273.84
772.41	1261.55
772.59	1286.12
772.77	1312.75
772.94	1279.98
773.12	1265.64
773.30	1251.31
773.47	1333.23
773.65	1257.45
773.83	1243.12
774.01	1243.12
774.18	1288.17
774.36	1175.53
774.54	1288.17
774.71	1294.32
774.89	1296.36
775.07	1185.77
775.24	1300.46
775.42	1263.60
775.60	1208.30
775.78	1282.03
775.95	1284.08
776.13	1241.07
776.31	1241.07
776.48	1220.59
776.66	1241.07
776.84	1210.35
777.01	1232.88
777.19	1239.02
777.37	1269.74
777.54	1341.42
777.72	1339.37
777.90	1271.79
778.07	1261.55
778.25	1251.31
778.43	1277.93
778.60	1275.88
778.78	1259.50
778.96	1271.79
779.13	1230.83
779.31	1267.69
779.49	1294.32
779.66	1241.07
779.84	1284.08
780.01	1257.45
780.19	1271.79
780.37	1253.36
780.54	1298.41
780.72	1286.12
780.90	1343.47
781.07	1261.55
781.25	1312.75
781.43	1277.93
781.60	1312.75
781.78	1249.26
781.95	1224.69
782.13	1294.32
782.31	1177.58
782.48	1322.99
782.66	1290.22
782.83	1232.88
783.01	1255.40
783.19	1275.88
783.36	1204.21
783.54	1253.36
783.72	1341.42
783.89	1236.97
784.07	1314.80
784.24	1243.12
784.42	1204.21
784.60	1273.84
784.77	1232.88
784.95	1222.64
785.12	1265.64
785.30	1284.08
785.47	1253.36
785.65	1290.22
785.83	1314.80
786.00	1304.56
786.18	1306.60
786.35	1245.16
786.53	1236.97
786.71	1296.36
786.88	1251.31
787.06	1245.16
787.23	1298.41
787.41	1290.22
787.58	1230.83
787.76	1241.07
787.94	1304.56
788.11	1236.97
788.29	1292.27
788.46	1245.16
788.64	1273.84
788.81	1273.84
788.99	1284.08
789.16	1314.80
789.34	1302.51
789.52	1294.32
789.69	1269.74
789.87	1314.80
790.04	1288.17
790.22	1269.74
790.39	1277.93
790.57	1355.76
790.74	1271.79
790.92	1234.93
791.09	1277.93
791.27	1292.27
791.44	1267.69
791.62	1236.97
791.79	1322.99
791.97	1234.93
792.15	1265.64
792.32	1214.45
792.50	1263.60
792.67	1298.41
792.85	1273.84
793.02	1234.93
793.20	1279.98
793.37	1220.59
793.55	1263.60
793.72	1277.93
793.90	1253.36
794.07	1275.88
794.25	1263.60
794.42	1277.93
794.60	1241.07
794.77	1296.36
794.95	1228.78
795.12	1304.56
795.30	1286.12
795.47	1304.56
795.65	1245.16
795.82	1241.07
796.00	1230.83
796.17	1310.70
796.34	1228.78
796.52	1282.03
796.69	1296.36
796.87	1251.31
797.04	1294.32
797.22	1259.50
797.39	1331.18
797.57	1243.12
797.74	1284.08
797.92	1298.41
798.09	1282.03
798.27	1316.84
798.44	1243.12
798.62	1273.84
798.79	1322.99
798.96	1230.83
799.14	1257.45
799.31	1269.74
799.49	1345.52
799.66	1284.08
799.84	1214.45
800.01	1245.16
800.19	1263.60
800.36	1310.70
800.53	1275.88
800.71	1290.22
800.88	1245.16
801.06	1196.01
801.23	1269.74
801.41	1269.74
801.58	1302.51
801.75	1294.32
801.93	1241.07
802.10	1267.69
802.28	1271.79
802.45	1239.02
802.63	1236.97
802.80	1267.69
802.97	1249.26
803.15	1210.35
803.32	1290.22
803.50	1294.32
803.67	1302.51
803.84	1177.58
804.02	1310.70
804.19	1265.64
804.37	1257.45
804.54	1314.80
804.71	1302.51
804.89	1212.40
805.06	1298.41
805.24	1312.75
805.41	1259.50
805.58	1277.93
805.76	1275.88
805.93	1273.84
806.10	1322.99
806.28	1282.03
806.45	1310.70
806.63	1232.88
806.80	1212.40
806.97	1273.84
807.15	1320.94
807.32	1267.69
807.49	1271.79
807.67	1208.30
807.84	1277.93
808.01	1251.31
808.19	1298.41
808.36	1282.03
808.54	1273.84
808.71	1327.08
808.88	1318.89
809.06	1198.06
809.23	1230.83
809.40	1286.12
809.58	1263.60
809.75	1212.40
809.92	1236.97
810.10	1300.46
810.27	1273.84
810.44	1327.08
810.62	1277.93
810.79	1249.26
810.96	1214.45
811.14	1228.78
811.31	1263.60
811.48	1226.73
811.66	1290.22
811.83	1210.35
812.00	1230.83
812.18	1253.36
812.35	1357.80
812.52	1279.98
812.69	1255.40
812.87	1259.50
813.04	1181.68
813.21	1226.73
813.39	1218.54
813.56	1290.22
813.73	1249.26
813.91	1220.59
814.08	1259.50
814.25	1269.74
814.42	1257.45
814.60	1236.97
814.77	1302.51
814.94	1296.36
815.12	1337.32
815.29	1294.32
815.46	1337.32
815.63	1271.79
815.81	1286.12
815.98	1304.56
816.15	1310.70
816.33	1263.60
816.50	1241.07
816.67	1304.56
816.84	1230.83
817.02	1245.16
817.19	1181.68
817.36	1255.40
817.53	1290.22
817.71	1247.21
817.88	1302.51
818.05	1265.64
818.22	1282.03
818.40	1224.69
818.57	1243.12
818.74	1267.69
818.91	1241.07
819.09	1247.21
819.26	1230.83
819.43	1224.69
819.60	1286.12
819.78	1265.64
819.95	1322.99
820.12	1210.35
820.29	1269.74
820.47	1228.78
820.64	1257.45
820.81	1304.56
820.98	1290.22
821.15	1302.51
821.33	1206.25
821.50	1239.02
821.67	1277.93
821.84	1277.93
822.02	1329.13
822.19	1265.64
822.36	1261.55
822.53	1302.51
822.70	1255.40
822.88	1286.12
823.05	1294.32
823.22	1265.64
823.39	1284.08
823.56	1322.99
823.74	1243.12
823.91	1288.17
824.08	1171.44
824.25	1314.80
824.42	1236.97
824.60	1279.98
824.77	1224.69
824.94	1196.01
825.11	1232.88
825.28	1228.78
825.45	1247.21
825.63	1288.17
825.80	1177.58
825.97	1279.98
826.14	1320.94
826.31	1269.74
826.48	1279.98
826.66	1288.17
826.83	1294.32
827.00	1282.03
827.17	1234.93
827.34	1241.07
827.51	1339.37
827.69	1249.26
827.86	1189.87
828.03	1189.87
828.20	1267.69
828.37	1265.64
828.54	1234.93
828.71	1230.83
828.89	1200.11
829.06	1271.79
829.23	1236.97
829.40	1277.93
829.57	1265.64
829.74	1308.65
829.91	1292.27
830.09	1251.31
830.26	1228.78
830.43	1277.93
830.60	1200.11
830.77	1255.40
830.94	1302.51
831.11	1327.08
831.28	1236.97
831.46	1267.69
831.63	1232.88
831.80	1286.12
831.97	1247.21
832.14	1265.64
832.31	1257.45
832.48	1253.36
832.65	1239.02
832.82	1239.02
832.99	1263.60
833.17	1273.84
833.34	1251.31
833.51	1228.78
833.68	1236.97
833.85	1312.75
834.02	1277.93
834.19	1273.84
834.36	1230.83
834.53	1236.97
834.70	1279.98
834.87	1234.93
835.04	1247.21
835.22	1251.31
835.39	1261.55
835.56	1255.40
835.73	1247.21
835.90	1290.22
836.07	1212.40
836.24	1312.75
836.41	1341.42
836.58	1269.74
836.75	1339.37
836.92	1224.69
837.09	1234.93
837.26	1337.32
837.43	1308.65
837.60	1263.60
837.77	1294.32
837.94	1189.87
838.12	1314.80
838.29	1353.71
838.46	1284.08
838.63	1294.32
838.80	1189.87
838.97	1286.12
839.14	1249.26
839.31	1232.88
839.48	1308.65
839.65	1265.64
839.82	1345.52
839.99	1157.10
840.16	1239.02
840.33	1257.45
840.50	1230.83
840.67	1243.12
840.84	1243.12
841.01	1275.88
841.18	1314.80
841.35	1302.51
841.52	1290.22
841.69	1271.79
841.86	1320.94
842.03	1224.69
842.20	1273.84
842.37	1261.55
842.54	1279.98
842.71	1259.50
842.88	1275.88
843.05	1269.74
843.22	1306.60
843.39	1327.08
843.56	1191.92
843.73	1255.40
843.90	1247.21
844.07	1269.74
844.24	1249.26
844.41	1251.31
844.58	1267.69
844.75	1294.32
844.92	1277.93
845.09	1224.69
845.26	1302.51
845.43	1263.60
845.60	1239.02
845.77	1298.41
845.94	1208.30
846.10	1226.73
846.27	1292.27
846.44	1314.80
846.61	1294.32
846.78	1353.71
846.95	1230.83
847.12	1261.55
847.29	1372.14
847.46	1247.21
847.63	1253.36
847.80	1302.51
847.97	1232.88
848.14	1236.97
848.31	1249.26
848.48	1230.83
848.65	1253.36
848.82	1251.31
848.98	1251.31
849.15	1222.64
849.32	1263.60
849.49	1282.03
849.66	1343.47
849.83	1210.35
850.00	1253.36
850.17	1286.12
850.34	1263.60
850.51	1261.55
850.68	1214.45
850.85	1290.22
851.01	1314.80
851.18	1298.41
851.35	1241.07
851.52	1236.97
851.69	1335.28
851.86	1298.41
852.03	1230.83
852.20	1286.12
852.37	1275.88
852.53	1263.60
852.70	1290.22
852.87	1273.84
853.04	1265.64
853.21	1259.50
853.38	1269.74
853.55	1290.22
853.72	1298.41
853.89	1273.84
854.05	1284.08
854.22	1224.69
854.39	1218.54
854.56	1284.08
854.73	1298.41
854.90	1263.60
855.07	1337.32
855.23	1275.88
855.40	1339.37
855.57	1312.75
855.74	1245.16
855.91	1261.55
856.08	1200.11
856.25	1200.11
856.41	1347.56
856.58	1236.97
856.75	1288.17
856.92	1196.01
857.09	1290.22
857.26	1314.80
857.42	1239.02
857.59	1329.13
857.76	1230.83
857.93	1247.21
858.10	1251.31
858.27	1216.49
858.43	1257.45
858.60	1322.99
858.77	1226.73
858.94	1271.79
859.11	1273.84
859.27	1306.60
859.44	1310.70
859.61	1187.82
859.78	1271.79
859.95	1208.30
860.12	1290.22
860.28	1320.94
860.45	1214.45
860.62	1288.17
860.79	1363.95
860.95	1265.64
861.12	1216.49
861.29	1261.55
861.46	1310.70
861.63	1302.51
861.79	1355.76
861.96	1241.07
862.13	1286.12
862.30	1277.93
862.47	1267.69
862.63	1202.16
862.80	1284.08
862.97	1310.70
863.14	1376.24
863.30	1286.12
863.47	1263.60
863.64	1247.21
863.81	1208.30
863.97	1218.54
864.14	1372.14
864.31	1257.45
864.48	1271.79
864.65	1247.21
864.81	1279.98
864.98	1275.88
865.15	1286.12
865.32	1189.87
865.48	1300.46
865.65	1300.46
865.82	1220.59
865.98	1236.97
866.15	1249.26
866.32	1308.65
866.49	1241.07
866.65	1251.31
866.82	1292.27
866.99	1286.12
867.16	1284.08
867.32	1230.83
867.49	1261.55
867.66	1284.08
867.83	1249.26
867.99	1210.35
868.16	1292.27
868.33	1200.11
868.49	1261.55
868.66	1259.50
868.83	1206.25
868.99	1310.70
869.16	1310.70
869.33	1316.84
869.50	1265.64
869.66	1253.36
869.83	1265.64
870.00	1273.84
870.16	1263.60
870.33	1273.84
870.50	1226.73
870.66	1208.30
870.83	1298.41
871.00	1220.59
871.17	1277.93
871.33	1218.54
871.50	1263.60
871.67	1253.36
871.83	1310.70
872.00	1271.79
872.17	1236.97
872.33	1265.64
872.50	1245.16
872.67	1269.74
872.83	1249.26
873.00	1224.69
873.17	1224.69
873.33	1300.46
873.50	1247.21
873.67	1263.60
873.83	1316.84
874.00	1306.60
874.16	1218.54
874.33	1320.94
874.50	1302.51
874.66	1263.60
874.83	1284.08
875.00	1218.54
875.16	1288.17
875.33	1320.94
875.50	1314.80
875.66	1249.26
875.83	1183.73
875.99	1228.78
876.16	1322.99
876.33	1234.93
876.49	1261.55
876.66	1290.22
876.83	1290.22
876.99	1206.25
877.16	1282.03
877.32	1153.01
877.49	1275.88
877.66	1226.73
877.82	1279.98
877.99	1265.64
878.15	1257.45
878.32	1224.69
878.49	1298.41
878.65	1257.45
878.82	1253.36
878.98	1202.16
879.15	1273.84
879.32	1329.13
879.48	1277.93
879.65	1232.88
879.81	1243.12
879.98	1269.74
880.15	1208.30
880.31	1275.88
880.48	1224.69
880.64	1216.49
880.81	1224.69
880.97	1302.51
881.14	1296.36
881.31	1257.45
881.47	1351.66
881.64	1261.55
881.80	1249.26
881.97	1243.12
882.13	1255.40
882.30	1259.50
882.47	1298.41
882.63	1255.40
882.80	1206.25
882.96	1255.40
883.13	1261.55
883.29	1304.56
883.46	1292.27
883.62	1245.16
883.79	1241.07
883.95	1306.60
884.12	1230.83
884.29	1263.60
884.45	1304.56
884.62	1200.11
884.78	1241.07
884.95	1363.95
885.11	1277.93
885.28	1220.59
885.44	1236.97
885.61	1226.73
885.77	1339.37
885.94	1265.64
886.10	1267.69
886.27	1314.80
886.43	1265.64
886.60	1263.60
886.76	1339.37
886.93	1257.45
887.09	1273.84
887.26	1208.30
887.42	1279.98
887.59	1298.41
887.75	1380.33
887.92	1214.45
888.08	1302.51
888.25	1273.84
888.41	1282.03
888.58	1273.84
888.74	1251.31
888.91	1296.36
>>>>>End Processed Spectral Data<<<<<
