SpectraSuite Data File
++++++++++++++++++++++++++++++++++++
Date: Sun Apr 03 19:55:40 CEST 2016
User: root
Dark Spectrum Present: No
Reference Spectrum Present: No
Number of Sampled Component Spectra: 1
Spectrometers: USB4C02835
Integration Time (usec): 10000 (USB4C02835)
Spectra Averaged: 1 (USB4C02835)
Boxcar Smoothing: 0 (USB4C02835)
Correct for Electrical Dark: No (USB4C02835)
Strobe/Lamp Enabled: No (USB4C02835)
Correct for Detector Non-linearity: No (USB4C02835)
Correct for Stray Light: No (USB4C02835)
Number of Pixels in Processed Spectrum: 3648
>>>>>Begin Processed Spectral Data<<<<<
177.47	1243.12
177.69	1243.12
177.91	1243.12
178.13	1173.49
178.36	1368.04
178.58	1239.02
178.80	1241.07
179.02	1253.36
179.24	1243.12
179.46	1279.98
179.68	1191.92
179.90	1257.45
180.13	1261.55
180.35	1216.49
180.57	1224.69
180.79	1288.17
181.01	1228.78
181.23	1282.03
181.45	1333.23
181.67	1243.12
181.90	1236.97
182.12	1265.64
182.34	1243.12
182.56	1259.50
182.78	1265.64
183.00	1284.08
183.22	1265.64
183.44	1290.22
183.66	1277.93
183.89	1245.16
184.11	1224.69
184.33	1269.74
184.55	1304.56
184.77	1290.22
184.99	1298.41
185.21	1247.21
185.43	1331.18
185.65	1208.30
185.87	1337.32
186.10	1271.79
186.32	1214.45
186.54	1261.55
186.76	1257.45
186.98	1191.92
187.20	1284.08
187.42	1267.69
187.64	1249.26
187.86	1249.26
188.08	1261.55
188.30	1263.60
188.52	1265.64
188.75	1308.65
188.97	1247.21
189.19	1208.30
189.41	1265.64
189.63	1249.26
189.85	1210.35
190.07	1261.55
190.29	1282.03
190.51	1279.98
190.73	1228.78
190.95	1302.51
191.17	1308.65
191.39	1226.73
191.61	1249.26
191.84	1243.12
192.06	1236.97
192.28	1204.21
192.50	1269.74
192.72	1251.31
192.94	1306.60
193.16	1247.21
193.38	1181.68
193.60	1228.78
193.82	1239.02
194.04	1302.51
194.26	1226.73
194.48	1277.93
194.70	1304.56
194.92	1290.22
195.14	1273.84
195.36	1224.69
195.58	1288.17
195.80	1251.31
196.02	1271.79
196.24	1255.40
196.46	1243.12
196.69	1300.46
196.91	1304.56
197.13	1337.32
197.35	1251.31
197.57	1310.70
197.79	1382.38
198.01	1243.12
198.23	1245.16
198.45	1251.31
198.67	1245.16
198.89	1275.88
199.11	1335.28
199.33	1232.88
199.55	1286.12
199.77	1241.07
199.99	1286.12
200.21	1249.26
200.43	1290.22
200.65	1277.93
200.87	1241.07
201.09	1359.85
201.31	1241.07
201.53	1275.88
201.75	1273.84
201.97	1261.55
202.19	1327.08
202.41	1327.08
202.63	1310.70
202.85	1232.88
203.07	1322.99
203.29	1288.17
203.51	1175.53
203.73	1282.03
203.95	1294.32
204.17	1312.75
204.39	1200.11
204.61	1261.55
204.83	1292.27
205.05	1322.99
205.27	1296.36
205.49	1261.55
205.71	1216.49
205.93	1210.35
206.15	1202.16
206.37	1241.07
206.59	1316.84
206.81	1247.21
207.03	1245.16
207.25	1198.06
207.47	1290.22
207.69	1249.26
207.91	1304.56
208.13	1255.40
208.34	1318.89
208.56	1212.40
208.78	1259.50
209.00	1249.26
209.22	1247.21
209.44	1261.55
209.66	1263.60
209.88	1261.55
210.10	1232.88
210.32	1253.36
210.54	1261.55
210.76	1261.55
210.98	1239.02
211.20	1257.45
211.42	1222.64
211.64	1171.44
211.86	1179.63
212.08	1275.88
212.30	1306.60
212.52	1327.08
212.74	1212.40
212.96	1224.69
213.17	1335.28
213.39	1259.50
213.61	1236.97
213.83	1310.70
214.05	1271.79
214.27	1249.26
214.49	1232.88
214.71	1320.94
214.93	1288.17
215.15	1306.60
215.37	1306.60
215.59	1304.56
215.81	1204.21
216.03	1275.88
216.24	1224.69
216.46	1200.11
216.68	1298.41
216.90	1279.98
217.12	1269.74
217.34	1261.55
217.56	1230.83
217.78	1216.49
218.00	1243.12
218.22	1255.40
218.44	1265.64
218.66	1284.08
218.87	1314.80
219.09	1310.70
219.31	1230.83
219.53	1310.70
219.75	1226.73
219.97	1347.56
220.19	1214.45
220.41	1241.07
220.63	1320.94
220.85	1322.99
221.06	1296.36
221.28	1320.94
221.50	1265.64
221.72	1300.46
221.94	1206.25
222.16	1308.65
222.38	1247.21
222.60	1243.12
222.82	1261.55
223.03	1273.84
223.25	1290.22
223.47	1267.69
223.69	1267.69
223.91	1302.51
224.13	1263.60
224.35	1245.16
224.57	1234.93
224.78	1290.22
225.00	1306.60
225.22	1304.56
225.44	1306.60
225.66	1249.26
225.88	1257.45
226.10	1239.02
226.32	1288.17
226.53	1284.08
226.75	1325.04
226.97	1298.41
227.19	1257.45
227.41	1290.22
227.63	1241.07
227.85	1261.55
228.06	1279.98
228.28	1247.21
228.50	1286.12
228.72	1308.65
228.94	1288.17
229.16	1249.26
229.37	1224.69
229.59	1179.63
229.81	1296.36
230.03	1284.08
230.25	1218.54
230.47	1230.83
230.69	1286.12
230.90	1243.12
231.12	1292.27
231.34	1257.45
231.56	1232.88
231.78	1306.60
232.00	1214.45
232.21	1236.97
232.43	1271.79
232.65	1282.03
232.87	1241.07
233.09	1249.26
233.30	1267.69
233.52	1263.60
233.74	1339.37
233.96	1306.60
234.18	1331.18
234.40	1257.45
234.61	1239.02
234.83	1177.58
235.05	1261.55
235.27	1224.69
235.49	1239.02
235.70	1265.64
235.92	1224.69
236.14	1370.09
236.36	1308.65
236.58	1214.45
236.79	1300.46
237.01	1236.97
237.23	1247.21
237.45	1277.93
237.67	1322.99
237.88	1277.93
238.10	1298.41
238.32	1290.22
238.54	1304.56
238.76	1275.88
238.97	1343.47
239.19	1261.55
239.41	1251.31
239.63	1167.34
239.85	1320.94
240.06	1193.97
240.28	1310.70
240.50	1239.02
240.72	1261.55
240.93	1298.41
241.15	1271.79
241.37	1267.69
241.59	1316.84
241.81	1273.84
242.02	1273.84
242.24	1216.49
242.46	1226.73
242.68	1316.84
242.89	1230.83
243.11	1363.95
243.33	1294.32
243.55	1329.13
243.76	1257.45
243.98	1191.92
244.20	1286.12
244.42	1265.64
244.64	1247.21
244.85	1300.46
245.07	1341.42
245.29	1265.64
245.51	1259.50
245.72	1259.50
245.94	1206.25
246.16	1302.51
246.38	1208.30
246.59	1282.03
246.81	1310.70
247.03	1239.02
247.24	1302.51
247.46	1292.27
247.68	1312.75
247.90	1347.56
248.11	1259.50
248.33	1265.64
248.55	1294.32
248.77	1196.01
248.98	1357.80
249.20	1306.60
249.42	1261.55
249.64	1193.97
249.85	1257.45
250.07	1271.79
250.29	1322.99
250.50	1304.56
250.72	1263.60
250.94	1263.60
251.16	1226.73
251.37	1302.51
251.59	1247.21
251.81	1370.09
252.02	1275.88
252.24	1249.26
252.46	1236.97
252.68	1198.06
252.89	1290.22
253.11	1298.41
253.33	1286.12
253.54	1249.26
253.76	1298.41
253.98	1251.31
254.20	1265.64
254.41	1232.88
254.63	1288.17
254.85	1292.27
255.06	1232.88
255.28	1279.98
255.50	1249.26
255.71	1253.36
255.93	1257.45
256.15	1286.12
256.36	1288.17
256.58	1255.40
256.80	1259.50
257.02	1175.53
257.23	1212.40
257.45	1241.07
257.67	1214.45
257.88	1288.17
258.10	1265.64
258.32	1236.97
258.53	1247.21
258.75	1245.16
258.97	1206.25
259.18	1261.55
259.40	1216.49
259.62	1376.24
259.83	1277.93
260.05	1253.36
260.27	1308.65
260.48	1224.69
260.70	1329.13
260.92	1210.35
261.13	1224.69
261.35	1269.74
261.57	1316.84
261.78	1206.25
262.00	1255.40
262.22	1273.84
262.43	1294.32
262.65	1279.98
262.86	1198.06
263.08	1282.03
263.30	1286.12
263.51	1282.03
263.73	1259.50
263.95	1200.11
264.16	1263.60
264.38	1277.93
264.60	1210.35
264.81	1263.60
265.03	1251.31
265.25	1282.03
265.46	1243.12
265.68	1275.88
265.89	1322.99
266.11	1193.97
266.33	1279.98
266.54	1314.80
266.76	1290.22
266.98	1253.36
267.19	1247.21
267.41	1263.60
267.62	1353.71
267.84	1318.89
268.06	1239.02
268.27	1263.60
268.49	1181.68
268.70	1245.16
268.92	1302.51
269.14	1224.69
269.35	1288.17
269.57	1220.59
269.79	1290.22
270.00	1277.93
270.22	1263.60
270.43	1259.50
270.65	1298.41
270.87	1335.28
271.08	1331.18
271.30	1224.69
271.51	1265.64
271.73	1296.36
271.95	1279.98
272.16	1290.22
272.38	1239.02
272.59	1243.12
272.81	1306.60
273.02	1343.47
273.24	1298.41
273.46	1320.94
273.67	1288.17
273.89	1290.22
274.10	1265.64
274.32	1279.98
274.54	1275.88
274.75	1339.37
274.97	1275.88
275.18	1288.17
275.40	1228.78
275.61	1208.30
275.83	1302.51
276.05	1359.85
276.26	1249.26
276.48	1267.69
276.69	1271.79
276.91	1331.18
277.12	1279.98
277.34	1300.46
277.55	1253.36
277.77	1234.93
277.99	1312.75
278.20	1306.60
278.42	1282.03
278.63	1261.55
278.85	1232.88
279.06	1255.40
279.28	1333.23
279.49	1222.64
279.71	1339.37
279.93	1255.40
280.14	1275.88
280.36	1257.45
280.57	1234.93
280.79	1275.88
281.00	1243.12
281.22	1239.02
281.43	1279.98
281.65	1294.32
281.86	1298.41
282.08	1279.98
282.29	1288.17
282.51	1257.45
282.73	1286.12
282.94	1236.97
283.16	1298.41
283.37	1259.50
283.59	1284.08
283.80	1220.59
284.02	1253.36
284.23	1267.69
284.45	1288.17
284.66	1179.63
284.88	1267.69
285.09	1263.60
285.31	1312.75
285.52	1302.51
285.74	1179.63
285.95	1257.45
286.17	1269.74
286.38	1212.40
286.60	1230.83
286.81	1337.32
287.03	1316.84
287.24	1261.55
287.46	1224.69
287.67	1226.73
287.89	1263.60
288.10	1241.07
288.32	1239.02
288.53	1232.88
288.75	1343.47
288.96	1249.26
289.18	1259.50
289.39	1300.46
289.61	1179.63
289.82	1294.32
290.04	1279.98
290.25	1253.36
290.47	1245.16
290.68	1247.21
290.90	1249.26
291.11	1253.36
291.33	1265.64
291.54	1189.87
291.76	1277.93
291.97	1290.22
292.18	1288.17
292.40	1306.60
292.61	1282.03
292.83	1263.60
293.04	1249.26
293.26	1185.77
293.47	1277.93
293.69	1257.45
293.90	1282.03
294.12	1284.08
294.33	1265.64
294.55	1279.98
294.76	1243.12
294.97	1333.23
295.19	1265.64
295.40	1298.41
295.62	1298.41
295.83	1292.27
296.05	1255.40
296.26	1245.16
296.48	1302.51
296.69	1300.46
296.90	1288.17
297.12	1210.35
297.33	1259.50
297.55	1271.79
297.76	1236.97
297.98	1224.69
298.19	1251.31
298.41	1220.59
298.62	1247.21
298.83	1292.27
299.05	1351.66
299.26	1251.31
299.48	1236.97
299.69	1226.73
299.90	1279.98
300.12	1288.17
300.33	1282.03
300.55	1204.21
300.76	1273.84
300.98	1271.79
301.19	1275.88
301.40	1284.08
301.62	1273.84
301.83	1267.69
302.05	1298.41
302.26	1241.07
302.47	1220.59
302.69	1187.82
302.90	1322.99
303.12	1228.78
303.33	1390.57
303.54	1220.59
303.76	1259.50
303.97	1327.08
304.19	1308.65
304.40	1251.31
304.61	1286.12
304.83	1329.13
305.04	1339.37
305.26	1214.45
305.47	1255.40
305.68	1236.97
305.90	1204.21
306.11	1304.56
306.33	1312.75
306.54	1249.26
306.75	1249.26
306.97	1253.36
307.18	1329.13
307.39	1206.25
307.61	1320.94
307.82	1302.51
308.04	1286.12
308.25	1265.64
308.46	1253.36
308.68	1282.03
308.89	1140.72
309.10	1273.84
309.32	1294.32
309.53	1220.59
309.74	1251.31
309.96	1245.16
310.17	1331.18
310.39	1228.78
310.60	1312.75
310.81	1263.60
311.03	1304.56
311.24	1333.23
311.45	1206.25
311.67	1363.95
311.88	1269.74
312.09	1277.93
312.31	1282.03
312.52	1265.64
312.73	1265.64
312.95	1267.69
313.16	1306.60
313.37	1273.84
313.59	1286.12
313.80	1294.32
314.01	1257.45
314.23	1275.88
314.44	1271.79
314.65	1290.22
314.87	1249.26
315.08	1275.88
315.29	1257.45
315.51	1277.93
315.72	1302.51
315.93	1292.27
316.15	1286.12
316.36	1279.98
316.57	1286.12
316.79	1198.06
317.00	1267.69
317.21	1302.51
317.43	1267.69
317.64	1216.49
317.85	1234.93
318.07	1306.60
318.28	1216.49
318.49	1249.26
318.70	1298.41
318.92	1335.28
319.13	1271.79
319.34	1322.99
319.56	1243.12
319.77	1269.74
319.98	1284.08
320.20	1249.26
320.41	1308.65
320.62	1271.79
320.83	1255.40
321.05	1286.12
321.26	1294.32
321.47	1325.04
321.69	1284.08
321.90	1267.69
322.11	1304.56
322.32	1265.64
322.54	1224.69
322.75	1253.36
322.96	1236.97
323.18	1200.11
323.39	1208.30
323.60	1306.60
323.81	1243.12
324.03	1265.64
324.24	1253.36
324.45	1300.46
324.66	1316.84
324.88	1261.55
325.09	1318.89
325.30	1263.60
325.52	1308.65
325.73	1292.27
325.94	1228.78
326.15	1267.69
326.37	1275.88
326.58	1282.03
326.79	1290.22
327.00	1261.55
327.22	1308.65
327.43	1232.88
327.64	1300.46
327.85	1251.31
328.07	1220.59
328.28	1220.59
328.49	1331.18
328.70	1288.17
328.92	1196.01
329.13	1318.89
329.34	1257.45
329.55	1257.45
329.76	1279.98
329.98	1288.17
330.19	1318.89
330.40	1228.78
330.61	1200.11
330.83	1251.31
331.04	1282.03
331.25	1175.53
331.46	1298.41
331.68	1275.88
331.89	1245.16
332.10	1269.74
332.31	1224.69
332.52	1243.12
332.74	1226.73
332.95	1257.45
333.16	1298.41
333.37	1267.69
333.58	1304.56
333.80	1302.51
334.01	1312.75
334.22	1308.65
334.43	1288.17
334.64	1306.60
334.86	1284.08
335.07	1273.84
335.28	1314.80
335.49	1298.41
335.70	1290.22
335.92	1204.21
336.13	1255.40
336.34	1243.12
336.55	1279.98
336.76	1302.51
336.98	1249.26
337.19	1249.26
337.40	1251.31
337.61	1255.40
337.82	1273.84
338.04	1345.52
338.25	1294.32
338.46	1191.92
338.67	1257.45
338.88	1232.88
339.09	1314.80
339.31	1241.07
339.52	1310.70
339.73	1265.64
339.94	1339.37
340.15	1302.51
340.36	1277.93
340.58	1257.45
340.79	1271.79
341.00	1140.72
341.21	1290.22
341.42	1216.49
341.63	1171.44
341.85	1300.46
342.06	1298.41
342.27	1333.23
342.48	1314.80
342.69	1269.74
342.90	1343.47
343.12	1312.75
343.33	1300.46
343.54	1257.45
343.75	1294.32
343.96	1314.80
344.17	1247.21
344.38	1257.45
344.60	1187.82
344.81	1204.21
345.02	1216.49
345.23	1249.26
345.44	1298.41
345.65	1269.74
345.86	1257.45
346.07	1261.55
346.29	1343.47
346.50	1214.45
346.71	1267.69
346.92	1224.69
347.13	1251.31
347.34	1277.93
347.55	1273.84
347.76	1251.31
347.98	1206.25
348.19	1253.36
348.40	1296.36
348.61	1251.31
348.82	1241.07
349.03	1275.88
349.24	1247.21
349.45	1275.88
349.66	1316.84
349.88	1234.93
350.09	1247.21
350.30	1267.69
350.51	1294.32
350.72	1257.45
350.93	1304.56
351.14	1241.07
351.35	1259.50
351.56	1335.28
351.77	1255.40
351.99	1292.27
352.20	1198.06
352.41	1277.93
352.62	1318.89
352.83	1216.49
353.04	1222.64
353.25	1232.88
353.46	1216.49
353.67	1216.49
353.88	1259.50
354.09	1241.07
354.30	1234.93
354.52	1247.21
354.73	1220.59
354.94	1230.83
355.15	1253.36
355.36	1263.60
355.57	1255.40
355.78	1234.93
355.99	1271.79
356.20	1251.31
356.41	1224.69
356.62	1243.12
356.83	1279.98
357.04	1312.75
357.25	1298.41
357.46	1306.60
357.68	1288.17
357.89	1284.08
358.10	1279.98
358.31	1273.84
358.52	1245.16
358.73	1253.36
358.94	1269.74
359.15	1241.07
359.36	1206.25
359.57	1296.36
359.78	1290.22
359.99	1243.12
360.20	1318.89
360.41	1224.69
360.62	1273.84
360.83	1269.74
361.04	1265.64
361.25	1267.69
361.46	1282.03
361.67	1282.03
361.88	1249.26
362.09	1241.07
362.30	1263.60
362.51	1226.73
362.72	1292.27
362.93	1251.31
363.14	1239.02
363.35	1193.97
363.56	1343.47
363.78	1294.32
363.99	1273.84
364.20	1269.74
364.41	1277.93
364.62	1273.84
364.83	1241.07
365.04	1243.12
365.25	1247.21
365.46	1189.87
365.67	1241.07
365.88	1226.73
366.09	1302.51
366.30	1220.59
366.51	1239.02
366.72	1275.88
366.93	1193.97
367.14	1212.40
367.35	1239.02
367.56	1271.79
367.77	1257.45
367.98	1279.98
368.18	1245.16
368.39	1187.82
368.60	1214.45
368.81	1267.69
369.02	1255.40
369.23	1228.78
369.44	1245.16
369.65	1357.80
369.86	1208.30
370.07	1255.40
370.28	1269.74
370.49	1234.93
370.70	1243.12
370.91	1198.06
371.12	1183.73
371.33	1247.21
371.54	1282.03
371.75	1286.12
371.96	1218.54
372.17	1230.83
372.38	1329.13
372.59	1277.93
372.80	1165.29
373.01	1343.47
373.22	1263.60
373.43	1298.41
373.64	1308.65
373.85	1251.31
374.06	1257.45
374.26	1206.25
374.47	1265.64
374.68	1220.59
374.89	1251.31
375.10	1310.70
375.31	1230.83
375.52	1269.74
375.73	1282.03
375.94	1306.60
376.15	1255.40
376.36	1318.89
376.57	1298.41
376.78	1228.78
376.99	1263.60
377.20	1255.40
377.40	1265.64
377.61	1282.03
377.82	1269.74
378.03	1306.60
378.24	1255.40
378.45	1257.45
378.66	1261.55
378.87	1335.28
379.08	1279.98
379.29	1253.36
379.50	1265.64
379.71	1185.77
379.91	1320.94
380.12	1210.35
380.33	1255.40
380.54	1288.17
380.75	1269.74
380.96	1275.88
381.17	1273.84
381.38	1277.93
381.59	1261.55
381.80	1300.46
382.00	1316.84
382.21	1282.03
382.42	1224.69
382.63	1333.23
382.84	1247.21
383.05	1216.49
383.26	1261.55
383.47	1314.80
383.68	1255.40
383.88	1282.03
384.09	1277.93
384.30	1253.36
384.51	1241.07
384.72	1239.02
384.93	1220.59
385.14	1255.40
385.35	1306.60
385.55	1310.70
385.76	1337.32
385.97	1279.98
386.18	1247.21
386.39	1282.03
386.60	1255.40
386.81	1275.88
387.02	1273.84
387.22	1277.93
387.43	1161.20
387.64	1263.60
387.85	1298.41
388.06	1296.36
388.27	1284.08
388.48	1198.06
388.68	1345.52
388.89	1277.93
389.10	1320.94
389.31	1191.92
389.52	1214.45
389.73	1253.36
389.93	1204.21
390.14	1263.60
390.35	1265.64
390.56	1300.46
390.77	1294.32
390.98	1251.31
391.18	1302.51
391.39	1249.26
391.60	1218.54
391.81	1261.55
392.02	1245.16
392.23	1239.02
392.43	1167.34
392.64	1255.40
392.85	1257.45
393.06	1306.60
393.27	1236.97
393.47	1224.69
393.68	1286.12
393.89	1302.51
394.10	1148.91
394.31	1284.08
394.52	1265.64
394.72	1261.55
394.93	1271.79
395.14	1198.06
395.35	1277.93
395.56	1279.98
395.76	1202.16
395.97	1249.26
396.18	1216.49
396.39	1251.31
396.60	1275.88
396.80	1159.15
397.01	1255.40
397.22	1279.98
397.43	1345.52
397.64	1232.88
397.84	1255.40
398.05	1310.70
398.26	1247.21
398.47	1259.50
398.67	1216.49
398.88	1304.56
399.09	1271.79
399.30	1286.12
399.51	1259.50
399.71	1306.60
399.92	1306.60
400.13	1259.50
400.34	1261.55
400.54	1282.03
400.75	1267.69
400.96	1341.42
401.17	1292.27
401.37	1261.55
401.58	1265.64
401.79	1267.69
402.00	1306.60
402.21	1216.49
402.41	1277.93
402.62	1275.88
402.83	1335.28
403.04	1243.12
403.24	1263.60
403.45	1259.50
403.66	1355.76
403.87	1267.69
404.07	1247.21
404.28	1200.11
404.49	1267.69
404.70	1306.60
404.90	1230.83
405.11	1243.12
405.32	1271.79
405.52	1271.79
405.73	1304.56
405.94	1218.54
406.15	1245.16
406.35	1220.59
406.56	1275.88
406.77	1277.93
406.98	1265.64
407.18	1255.40
407.39	1255.40
407.60	1269.74
407.80	1257.45
408.01	1232.88
408.22	1234.93
408.43	1259.50
408.63	1312.75
408.84	1298.41
409.05	1241.07
409.25	1198.06
409.46	1290.22
409.67	1236.97
409.88	1257.45
410.08	1284.08
410.29	1263.60
410.50	1239.02
410.70	1322.99
410.91	1196.01
411.12	1282.03
411.32	1259.50
411.53	1277.93
411.74	1275.88
411.95	1234.93
412.15	1245.16
412.36	1243.12
412.57	1212.40
412.77	1341.42
412.98	1247.21
413.19	1271.79
413.39	1347.56
413.60	1298.41
413.81	1249.26
414.01	1306.60
414.22	1261.55
414.43	1331.18
414.63	1239.02
414.84	1322.99
415.05	1198.06
415.25	1224.69
415.46	1308.65
415.67	1286.12
415.87	1253.36
416.08	1241.07
416.29	1181.68
416.49	1259.50
416.70	1251.31
416.91	1263.60
417.11	1247.21
417.32	1298.41
417.53	1271.79
417.73	1277.93
417.94	1202.16
418.15	1271.79
418.35	1253.36
418.56	1351.66
418.77	1187.82
418.97	1306.60
419.18	1298.41
419.38	1261.55
419.59	1234.93
419.80	1290.22
420.00	1269.74
420.21	1288.17
420.42	1273.84
420.62	1271.79
420.83	1232.88
421.04	1355.76
421.24	1234.93
421.45	1275.88
421.65	1243.12
421.86	1355.76
422.07	1261.55
422.27	1292.27
422.48	1202.16
422.69	1249.26
422.89	1282.03
423.10	1245.16
423.30	1275.88
423.51	1298.41
423.72	1347.56
423.92	1269.74
424.13	1288.17
424.33	1265.64
424.54	1290.22
424.75	1267.69
424.95	1243.12
425.16	1290.22
425.36	1308.65
425.57	1327.08
425.78	1275.88
425.98	1277.93
426.19	1257.45
426.39	1257.45
426.60	1300.46
426.81	1333.23
427.01	1239.02
427.22	1282.03
427.42	1337.32
427.63	1284.08
427.83	1261.55
428.04	1304.56
428.25	1230.83
428.45	1296.36
428.66	1228.78
428.86	1271.79
429.07	1183.73
429.28	1322.99
429.48	1263.60
429.69	1279.98
429.89	1329.13
430.10	1271.79
430.30	1282.03
430.51	1249.26
430.71	1271.79
430.92	1288.17
431.13	1230.83
431.33	1222.64
431.54	1273.84
431.74	1236.97
431.95	1331.18
432.15	1255.40
432.36	1300.46
432.56	1249.26
432.77	1255.40
432.98	1318.89
433.18	1241.07
433.39	1314.80
433.59	1253.36
433.80	1320.94
434.00	1292.27
434.21	1282.03
434.41	1282.03
434.62	1245.16
434.82	1261.55
435.03	1263.60
435.23	1224.69
435.44	1226.73
435.64	1234.93
435.85	1288.17
436.06	1341.42
436.26	1290.22
436.47	1265.64
436.67	1279.98
436.88	1267.69
437.08	1294.32
437.29	1314.80
437.49	1273.84
437.70	1273.84
437.90	1271.79
438.11	1316.84
438.31	1247.21
438.52	1267.69
438.72	1249.26
438.93	1308.65
439.13	1263.60
439.34	1290.22
439.54	1351.66
439.75	1314.80
439.95	1282.03
440.16	1337.32
440.36	1261.55
440.57	1226.73
440.77	1316.84
440.98	1304.56
441.18	1357.80
441.39	1232.88
441.59	1279.98
441.80	1312.75
442.00	1259.50
442.21	1259.50
442.41	1304.56
442.62	1234.93
442.82	1263.60
443.02	1259.50
443.23	1282.03
443.43	1249.26
443.64	1224.69
443.84	1249.26
444.05	1267.69
444.25	1183.73
444.46	1333.23
444.66	1230.83
444.87	1341.42
445.07	1267.69
445.28	1275.88
445.48	1294.32
445.69	1271.79
445.89	1314.80
446.09	1327.08
446.30	1191.92
446.50	1271.79
446.71	1257.45
446.91	1277.93
447.12	1325.04
447.32	1222.64
447.53	1286.12
447.73	1279.98
447.93	1320.94
448.14	1255.40
448.34	1316.84
448.55	1298.41
448.75	1308.65
448.96	1296.36
449.16	1243.12
449.36	1290.22
449.57	1239.02
449.77	1282.03
449.98	1298.41
450.18	1296.36
450.39	1282.03
450.59	1241.07
450.79	1333.23
451.00	1255.40
451.20	1298.41
451.41	1245.16
451.61	1279.98
451.81	1263.60
452.02	1290.22
452.22	1312.75
452.43	1314.80
452.63	1239.02
452.84	1269.74
453.04	1349.61
453.24	1210.35
453.45	1265.64
453.65	1210.35
453.86	1312.75
454.06	1271.79
454.26	1214.45
454.47	1249.26
454.67	1273.84
454.87	1298.41
455.08	1333.23
455.28	1259.50
455.49	1380.33
455.69	1226.73
455.89	1282.03
456.10	1279.98
456.30	1255.40
456.51	1255.40
456.71	1202.16
456.91	1304.56
457.12	1267.69
457.32	1187.82
457.52	1300.46
457.73	1269.74
457.93	1284.08
458.14	1226.73
458.34	1161.20
458.54	1314.80
458.75	1273.84
458.95	1282.03
459.15	1257.45
459.36	1331.18
459.56	1263.60
459.76	1241.07
459.97	1226.73
460.17	1361.90
460.37	1269.74
460.58	1234.93
460.78	1298.41
460.99	1208.30
461.19	1314.80
461.39	1259.50
461.60	1241.07
461.80	1304.56
462.00	1208.30
462.21	1277.93
462.41	1314.80
462.61	1249.26
462.82	1275.88
463.02	1216.49
463.22	1263.60
463.43	1267.69
463.63	1263.60
463.83	1220.59
464.04	1200.11
464.24	1294.32
464.44	1232.88
464.64	1327.08
464.85	1245.16
465.05	1257.45
465.25	1314.80
465.46	1322.99
465.66	1245.16
465.86	1308.65
466.07	1300.46
466.27	1306.60
466.47	1286.12
466.68	1249.26
466.88	1300.46
467.08	1337.32
467.29	1277.93
467.49	1300.46
467.69	1255.40
467.89	1300.46
468.10	1318.89
468.30	1253.36
468.50	1298.41
468.71	1259.50
468.91	1257.45
469.11	1327.08
469.31	1153.01
469.52	1263.60
469.72	1218.54
469.92	1249.26
470.13	1279.98
470.33	1310.70
470.53	1286.12
470.73	1249.26
470.94	1234.93
471.14	1277.93
471.34	1310.70
471.54	1224.69
471.75	1294.32
471.95	1257.45
472.15	1236.97
472.36	1357.80
472.56	1265.64
472.76	1257.45
472.96	1277.93
473.17	1243.12
473.37	1243.12
473.57	1273.84
473.77	1290.22
473.98	1286.12
474.18	1271.79
474.38	1355.76
474.58	1257.45
474.79	1273.84
474.99	1257.45
475.19	1249.26
475.39	1224.69
475.60	1222.64
475.80	1261.55
476.00	1292.27
476.20	1183.73
476.41	1269.74
476.61	1370.09
476.81	1335.28
477.01	1290.22
477.21	1337.32
477.42	1341.42
477.62	1253.36
477.82	1337.32
478.02	1265.64
478.23	1236.97
478.43	1247.21
478.63	1345.52
478.83	1253.36
479.03	1290.22
479.24	1232.88
479.44	1298.41
479.64	1214.45
479.84	1298.41
480.04	1337.32
480.25	1314.80
480.45	1290.22
480.65	1239.02
480.85	1318.89
481.06	1325.04
481.26	1257.45
481.46	1224.69
481.66	1247.21
481.86	1257.45
482.06	1302.51
482.27	1267.69
482.47	1288.17
482.67	1322.99
482.87	1284.08
483.07	1284.08
483.28	1282.03
483.48	1222.64
483.68	1267.69
483.88	1243.12
484.08	1206.25
484.29	1245.16
484.49	1206.25
484.69	1322.99
484.89	1224.69
485.09	1298.41
485.29	1251.31
485.50	1296.36
485.70	1239.02
485.90	1290.22
486.10	1224.69
486.30	1224.69
486.50	1327.08
486.71	1218.54
486.91	1337.32
487.11	1253.36
487.31	1216.49
487.51	1230.83
487.71	1286.12
487.91	1204.21
488.12	1306.60
488.32	1228.78
488.52	1284.08
488.72	1296.36
488.92	1222.64
489.12	1337.32
489.32	1257.45
489.53	1292.27
489.73	1286.12
489.93	1284.08
490.13	1241.07
490.33	1314.80
490.53	1353.71
490.73	1196.01
490.94	1279.98
491.14	1298.41
491.34	1239.02
491.54	1292.27
491.74	1216.49
491.94	1316.84
492.14	1247.21
492.34	1298.41
492.54	1304.56
492.75	1241.07
492.95	1322.99
493.15	1247.21
493.35	1212.40
493.55	1257.45
493.75	1232.88
493.95	1265.64
494.15	1269.74
494.35	1243.12
494.56	1220.59
494.76	1241.07
494.96	1257.45
495.16	1253.36
495.36	1259.50
495.56	1298.41
495.76	1208.30
495.96	1269.74
496.16	1257.45
496.36	1304.56
496.56	1255.40
496.77	1300.46
496.97	1331.18
497.17	1308.65
497.37	1210.35
497.57	1312.75
497.77	1277.93
497.97	1239.02
498.17	1239.02
498.37	1318.89
498.57	1253.36
498.77	1286.12
498.97	1222.64
499.17	1239.02
499.38	1243.12
499.58	1265.64
499.78	1279.98
499.98	1255.40
500.18	1259.50
500.38	1310.70
500.58	1236.97
500.78	1263.60
500.98	1282.03
501.18	1216.49
501.38	1394.67
501.58	1300.46
501.78	1275.88
501.98	1228.78
502.18	1257.45
502.38	1228.78
502.58	1298.41
502.78	1247.21
502.98	1249.26
503.18	1349.61
503.38	1306.60
503.59	1220.59
503.79	1302.51
503.99	1273.84
504.19	1259.50
504.39	1271.79
504.59	1257.45
504.79	1255.40
504.99	1347.56
505.19	1327.08
505.39	1253.36
505.59	1167.34
505.79	1267.69
505.99	1282.03
506.19	1245.16
506.39	1275.88
506.59	1357.80
506.79	1320.94
506.99	1275.88
507.19	1292.27
507.39	1273.84
507.59	1318.89
507.79	1290.22
507.99	1343.47
508.19	1271.79
508.39	1273.84
508.59	1251.31
508.79	1275.88
508.99	1368.04
509.19	1298.41
509.39	1339.37
509.59	1222.64
509.79	1259.50
509.99	1284.08
510.19	1271.79
510.39	1277.93
510.59	1302.51
510.79	1200.11
510.99	1316.84
511.19	1288.17
511.39	1296.36
511.59	1316.84
511.79	1265.64
511.99	1318.89
512.19	1337.32
512.38	1282.03
512.58	1302.51
512.78	1294.32
512.98	1308.65
513.18	1290.22
513.38	1216.49
513.58	1261.55
513.78	1282.03
513.98	1232.88
514.18	1298.41
514.38	1302.51
514.58	1290.22
514.78	1241.07
514.98	1290.22
515.18	1265.64
515.38	1228.78
515.58	1304.56
515.78	1277.93
515.98	1298.41
516.18	1234.93
516.38	1218.54
516.57	1288.17
516.77	1236.97
516.97	1257.45
517.17	1282.03
517.37	1279.98
517.57	1298.41
517.77	1284.08
517.97	1243.12
518.17	1290.22
518.37	1394.67
518.57	1288.17
518.77	1302.51
518.97	1269.74
519.16	1310.70
519.36	1329.13
519.56	1294.32
519.76	1222.64
519.96	1277.93
520.16	1181.68
520.36	1286.12
520.56	1279.98
520.76	1355.76
520.96	1333.23
521.16	1257.45
521.35	1292.27
521.55	1269.74
521.75	1310.70
521.95	1306.60
522.15	1286.12
522.35	1241.07
522.55	1366.00
522.75	1226.73
522.95	1271.79
523.14	1275.88
523.34	1347.56
523.54	1271.79
523.74	1341.42
523.94	1292.27
524.14	1368.04
524.34	1271.79
524.54	1286.12
524.73	1234.93
524.93	1304.56
525.13	1245.16
525.33	1263.60
525.53	1236.97
525.73	1320.94
525.93	1325.04
526.13	1294.32
526.32	1273.84
526.52	1267.69
526.72	1349.61
526.92	1308.65
527.12	1255.40
527.32	1249.26
527.52	1310.70
527.71	1306.60
527.91	1241.07
528.11	1216.49
528.31	1306.60
528.51	1265.64
528.71	1202.16
528.90	1282.03
529.10	1314.80
529.30	1257.45
529.50	1226.73
529.70	1245.16
529.90	1255.40
530.09	1255.40
530.29	1275.88
530.49	1271.79
530.69	1320.94
530.89	1310.70
531.09	1273.84
531.28	1249.26
531.48	1290.22
531.68	1277.93
531.88	1292.27
532.08	1302.51
532.28	1290.22
532.47	1302.51
532.67	1363.95
532.87	1245.16
533.07	1271.79
533.27	1261.55
533.46	1357.80
533.66	1243.12
533.86	1304.56
534.06	1306.60
534.26	1271.79
534.45	1232.88
534.65	1306.60
534.85	1423.34
535.05	1263.60
535.25	1343.47
535.44	1222.64
535.64	1284.08
535.84	1298.41
536.04	1355.76
536.24	1388.52
536.43	1220.59
536.63	1316.84
536.83	1261.55
537.03	1261.55
537.22	1325.04
537.42	1286.12
537.62	1292.27
537.82	1294.32
538.02	1296.36
538.21	1304.56
538.41	1353.71
538.61	1292.27
538.81	1306.60
539.00	1304.56
539.20	1263.60
539.40	1277.93
539.60	1296.36
539.79	1263.60
539.99	1327.08
540.19	1263.60
540.39	1210.35
540.58	1228.78
540.78	1251.31
540.98	1312.75
541.18	1349.61
541.37	1325.04
541.57	1239.02
541.77	1294.32
541.97	1239.02
542.16	1306.60
542.36	1275.88
542.56	1318.89
542.76	1271.79
542.95	1271.79
543.15	1314.80
543.35	1286.12
543.54	1318.89
543.74	1247.21
543.94	1216.49
544.14	1314.80
544.33	1335.28
544.53	1290.22
544.73	1271.79
544.93	1282.03
545.12	1196.01
545.32	1300.46
545.52	1308.65
545.71	1282.03
545.91	1251.31
546.11	1306.60
546.30	1300.46
546.50	1308.65
546.70	1263.60
546.90	1325.04
547.09	1306.60
547.29	1288.17
547.49	1263.60
547.68	1316.84
547.88	1282.03
548.08	1243.12
548.27	1312.75
548.47	1232.88
548.67	1243.12
548.87	1286.12
549.06	1255.40
549.26	1339.37
549.46	1296.36
549.65	1284.08
549.85	1296.36
550.05	1290.22
550.24	1314.80
550.44	1228.78
550.64	1255.40
550.83	1308.65
551.03	1255.40
551.23	1284.08
551.42	1279.98
551.62	1241.07
551.82	1255.40
552.01	1265.64
552.21	1243.12
552.41	1271.79
552.60	1236.97
552.80	1331.18
553.00	1220.59
553.19	1306.60
553.39	1273.84
553.59	1247.21
553.78	1312.75
553.98	1329.13
554.17	1310.70
554.37	1271.79
554.57	1331.18
554.76	1316.84
554.96	1343.47
555.16	1247.21
555.35	1302.51
555.55	1304.56
555.75	1271.79
555.94	1251.31
556.14	1282.03
556.33	1288.17
556.53	1322.99
556.73	1255.40
556.92	1304.56
557.12	1279.98
557.32	1288.17
557.51	1298.41
557.71	1210.35
557.90	1306.60
558.10	1320.94
558.30	1302.51
558.49	1361.90
558.69	1292.27
558.88	1284.08
559.08	1290.22
559.28	1284.08
559.47	1322.99
559.67	1290.22
559.86	1320.94
560.06	1191.92
560.26	1298.41
560.45	1298.41
560.65	1288.17
560.84	1243.12
561.04	1300.46
561.24	1239.02
561.43	1286.12
561.63	1302.51
561.82	1304.56
562.02	1318.89
562.22	1232.88
562.41	1234.93
562.61	1249.26
562.80	1236.97
563.00	1294.32
563.19	1300.46
563.39	1347.56
563.59	1300.46
563.78	1316.84
563.98	1363.95
564.17	1255.40
564.37	1298.41
564.56	1275.88
564.76	1228.78
564.96	1318.89
565.15	1282.03
565.35	1339.37
565.54	1325.04
565.74	1298.41
565.93	1253.36
566.13	1239.02
566.32	1296.36
566.52	1314.80
566.71	1261.55
566.91	1271.79
567.11	1304.56
567.30	1277.93
567.50	1296.36
567.69	1243.12
567.89	1251.31
568.08	1288.17
568.28	1279.98
568.47	1247.21
568.67	1249.26
568.86	1325.04
569.06	1259.50
569.25	1290.22
569.45	1277.93
569.64	1241.07
569.84	1341.42
570.04	1234.93
570.23	1163.25
570.43	1232.88
570.62	1261.55
570.82	1288.17
571.01	1214.45
571.21	1318.89
571.40	1300.46
571.60	1249.26
571.79	1261.55
571.99	1368.04
572.18	1306.60
572.38	1329.13
572.57	1282.03
572.77	1357.80
572.96	1259.50
573.16	1325.04
573.35	1265.64
573.55	1316.84
573.74	1310.70
573.94	1345.52
574.13	1290.22
574.33	1249.26
574.52	1245.16
574.71	1310.70
574.91	1290.22
575.10	1306.60
575.30	1259.50
575.49	1345.52
575.69	1234.93
575.88	1222.64
576.08	1343.47
576.27	1331.18
576.47	1234.93
576.66	1292.27
576.86	1292.27
577.05	1288.17
577.25	1230.83
577.44	1314.80
577.64	1251.31
577.83	1216.49
578.02	1265.64
578.22	1253.36
578.41	1253.36
578.61	1269.74
578.80	1265.64
579.00	1310.70
579.19	1306.60
579.39	1255.40
579.58	1290.22
579.77	1306.60
579.97	1257.45
580.16	1331.18
580.36	1232.88
580.55	1288.17
580.75	1327.08
580.94	1296.36
581.13	1290.22
581.33	1259.50
581.52	1302.51
581.72	1327.08
581.91	1224.69
582.11	1261.55
582.30	1234.93
582.49	1245.16
582.69	1243.12
582.88	1312.75
583.08	1312.75
583.27	1243.12
583.47	1224.69
583.66	1259.50
583.85	1239.02
584.05	1337.32
584.24	1308.65
584.44	1271.79
584.63	1310.70
584.82	1253.36
585.02	1255.40
585.21	1279.98
585.41	1290.22
585.60	1232.88
585.79	1271.79
585.99	1308.65
586.18	1271.79
586.37	1296.36
586.57	1257.45
586.76	1304.56
586.96	1257.45
587.15	1296.36
587.34	1247.21
587.54	1331.18
587.73	1304.56
587.93	1286.12
588.12	1269.74
588.31	1322.99
588.51	1318.89
588.70	1230.83
588.89	1343.47
589.09	1236.97
589.28	1316.84
589.47	1316.84
589.67	1279.98
589.86	1318.89
590.06	1239.02
590.25	1249.26
590.44	1271.79
590.64	1275.88
590.83	1294.32
591.02	1331.18
591.22	1255.40
591.41	1224.69
591.60	1292.27
591.80	1271.79
591.99	1265.64
592.18	1298.41
592.38	1284.08
592.57	1236.97
592.76	1288.17
592.96	1243.12
593.15	1288.17
593.34	1288.17
593.54	1339.37
593.73	1259.50
593.92	1308.65
594.12	1232.88
594.31	1277.93
594.50	1255.40
594.70	1263.60
594.89	1308.65
595.08	1241.07
595.28	1296.36
595.47	1329.13
595.66	1333.23
595.86	1214.45
596.05	1249.26
596.24	1226.73
596.43	1261.55
596.63	1243.12
596.82	1284.08
597.01	1239.02
597.21	1298.41
597.40	1304.56
597.59	1261.55
597.79	1318.89
597.98	1325.04
598.17	1212.40
598.36	1300.46
598.56	1271.79
598.75	1269.74
598.94	1320.94
599.14	1304.56
599.33	1255.40
599.52	1349.61
599.71	1337.32
599.91	1271.79
600.10	1253.36
600.29	1263.60
600.48	1335.28
600.68	1245.16
600.87	1263.60
601.06	1255.40
601.26	1306.60
601.45	1273.84
601.64	1306.60
601.83	1310.70
602.03	1251.31
602.22	1282.03
602.41	1308.65
602.60	1320.94
602.80	1218.54
602.99	1216.49
603.18	1257.45
603.37	1269.74
603.57	1288.17
603.76	1212.40
603.95	1224.69
604.14	1234.93
604.34	1339.37
604.53	1255.40
604.72	1302.51
604.91	1341.42
605.10	1261.55
605.30	1249.26
605.49	1314.80
605.68	1296.36
605.87	1335.28
606.07	1269.74
606.26	1302.51
606.45	1325.04
606.64	1202.16
606.84	1296.36
607.03	1216.49
607.22	1277.93
607.41	1261.55
607.60	1296.36
607.80	1251.31
607.99	1212.40
608.18	1259.50
608.37	1314.80
608.56	1265.64
608.76	1286.12
608.95	1294.32
609.14	1253.36
609.33	1255.40
609.52	1257.45
609.72	1269.74
609.91	1255.40
610.10	1271.79
610.29	1320.94
610.48	1292.27
610.68	1292.27
610.87	1210.35
611.06	1343.47
611.25	1253.36
611.44	1257.45
611.63	1286.12
611.83	1208.30
612.02	1249.26
612.21	1257.45
612.40	1189.87
612.59	1322.99
612.79	1224.69
612.98	1298.41
613.17	1269.74
613.36	1253.36
613.55	1290.22
613.74	1216.49
613.93	1230.83
614.13	1298.41
614.32	1308.65
614.51	1288.17
614.70	1306.60
614.89	1298.41
615.08	1343.47
615.28	1271.79
615.47	1236.97
615.66	1284.08
615.85	1308.65
616.04	1300.46
616.23	1196.01
616.42	1259.50
616.62	1271.79
616.81	1249.26
617.00	1316.84
617.19	1300.46
617.38	1392.62
617.57	1257.45
617.76	1318.89
617.95	1263.60
618.15	1269.74
618.34	1337.32
618.53	1261.55
618.72	1314.80
618.91	1275.88
619.10	1212.40
619.29	1306.60
619.48	1298.41
619.68	1265.64
619.87	1296.36
620.06	1236.97
620.25	1320.94
620.44	1271.79
620.63	1275.88
620.82	1220.59
621.01	1337.32
621.20	1331.18
621.39	1353.71
621.59	1298.41
621.78	1216.49
621.97	1292.27
622.16	1310.70
622.35	1314.80
622.54	1292.27
622.73	1308.65
622.92	1249.26
623.11	1290.22
623.30	1361.90
623.49	1347.56
623.68	1359.85
623.88	1261.55
624.07	1275.88
624.26	1322.99
624.45	1318.89
624.64	1277.93
624.83	1228.78
625.02	1329.13
625.21	1253.36
625.40	1316.84
625.59	1277.93
625.78	1261.55
625.97	1232.88
626.16	1335.28
626.35	1306.60
626.54	1349.61
626.74	1355.76
626.93	1273.84
627.12	1306.60
627.31	1284.08
627.50	1302.51
627.69	1279.98
627.88	1304.56
628.07	1279.98
628.26	1329.13
628.45	1292.27
628.64	1284.08
628.83	1282.03
629.02	1251.31
629.21	1290.22
629.40	1347.56
629.59	1247.21
629.78	1320.94
629.97	1247.21
630.16	1322.99
630.35	1308.65
630.54	1337.32
630.73	1327.08
630.92	1316.84
631.11	1277.93
631.30	1335.28
631.49	1333.23
631.68	1386.47
631.87	1484.78
632.06	1662.95
632.25	1560.55
632.44	1597.42
632.63	1679.33
632.82	1953.76
633.01	2138.08
633.20	1959.91
633.39	2033.63
633.58	1910.75
633.77	1984.48
633.96	1918.95
634.15	1845.22
634.34	2043.87
634.53	2009.06
634.72	1910.75
634.91	1732.58
635.10	1691.62
635.29	1617.90
635.48	1558.50
635.67	1454.06
635.86	1511.40
636.05	1423.34
636.24	1380.33
636.43	1384.43
636.62	1435.63
636.81	1347.56
637.00	1376.24
637.19	1347.56
637.38	1390.57
637.57	1329.13
637.76	1273.84
637.95	1316.84
638.14	1288.17
638.33	1269.74
638.52	1316.84
638.71	1247.21
638.89	1300.46
639.08	1376.24
639.27	1273.84
639.46	1253.36
639.65	1265.64
639.84	1267.69
640.03	1263.60
640.22	1179.63
640.41	1374.19
640.60	1316.84
640.79	1339.37
640.98	1286.12
641.17	1298.41
641.36	1318.89
641.55	1273.84
641.74	1265.64
641.92	1308.65
642.11	1245.16
642.30	1325.04
642.49	1257.45
642.68	1347.56
642.87	1255.40
643.06	1322.99
643.25	1228.78
643.44	1296.36
643.63	1239.02
643.82	1241.07
644.00	1267.69
644.19	1259.50
644.38	1259.50
644.57	1249.26
644.76	1290.22
644.95	1349.61
645.14	1255.40
645.33	1337.32
645.52	1257.45
645.71	1269.74
645.89	1277.93
646.08	1325.04
646.27	1220.59
646.46	1173.49
646.65	1214.45
646.84	1284.08
647.03	1234.93
647.22	1259.50
647.40	1314.80
647.59	1255.40
647.78	1241.07
647.97	1273.84
648.16	1286.12
648.35	1220.59
648.54	1318.89
648.73	1322.99
648.91	1271.79
649.10	1302.51
649.29	1284.08
649.48	1257.45
649.67	1247.21
649.86	1249.26
650.05	1296.36
650.23	1263.60
650.42	1265.64
650.61	1241.07
650.80	1294.32
650.99	1271.79
651.18	1284.08
651.36	1257.45
651.55	1279.98
651.74	1288.17
651.93	1294.32
652.12	1245.16
652.31	1267.69
652.49	1273.84
652.68	1279.98
652.87	1263.60
653.06	1286.12
653.25	1316.84
653.44	1216.49
653.62	1214.45
653.81	1318.89
654.00	1228.78
654.19	1275.88
654.38	1343.47
654.56	1255.40
654.75	1253.36
654.94	1314.80
655.13	1222.64
655.32	1304.56
655.51	1275.88
655.69	1284.08
655.88	1312.75
656.07	1273.84
656.26	1273.84
656.45	1245.16
656.63	1282.03
656.82	1290.22
657.01	1265.64
657.20	1347.56
657.38	1353.71
657.57	1239.02
657.76	1288.17
657.95	1257.45
658.14	1214.45
658.32	1273.84
658.51	1298.41
658.70	1329.13
658.89	1308.65
659.08	1222.64
659.26	1331.18
659.45	1198.06
659.64	1265.64
659.83	1255.40
660.01	1265.64
660.20	1243.12
660.39	1181.68
660.58	1304.56
660.76	1341.42
660.95	1265.64
661.14	1251.31
661.33	1232.88
661.51	1327.08
661.70	1249.26
661.89	1259.50
662.08	1302.51
662.26	1269.74
662.45	1296.36
662.64	1228.78
662.83	1241.07
663.01	1325.04
663.20	1298.41
663.39	1316.84
663.58	1310.70
663.76	1277.93
663.95	1300.46
664.14	1173.49
664.32	1282.03
664.51	1214.45
664.70	1273.84
664.89	1312.75
665.07	1269.74
665.26	1288.17
665.45	1267.69
665.64	1275.88
665.82	1267.69
666.01	1314.80
666.20	1214.45
666.38	1341.42
666.57	1265.64
666.76	1273.84
666.95	1267.69
667.13	1290.22
667.32	1282.03
667.51	1290.22
667.69	1230.83
667.88	1239.02
668.07	1236.97
668.25	1236.97
668.44	1320.94
668.63	1312.75
668.81	1251.31
669.00	1230.83
669.19	1230.83
669.38	1282.03
669.56	1310.70
669.75	1255.40
669.94	1236.97
670.12	1271.79
670.31	1353.71
670.50	1294.32
670.68	1282.03
670.87	1239.02
671.06	1312.75
671.24	1259.50
671.43	1282.03
671.62	1218.54
671.80	1296.36
671.99	1310.70
672.18	1243.12
672.36	1296.36
672.55	1279.98
672.74	1245.16
672.92	1241.07
673.11	1273.84
673.29	1306.60
673.48	1310.70
673.67	1306.60
673.85	1312.75
674.04	1292.27
674.23	1257.45
674.41	1290.22
674.60	1286.12
674.79	1245.16
674.97	1298.41
675.16	1253.36
675.34	1288.17
675.53	1263.60
675.72	1220.59
675.90	1263.60
676.09	1247.21
676.28	1241.07
676.46	1275.88
676.65	1245.16
676.83	1239.02
677.02	1279.98
677.21	1343.47
677.39	1308.65
677.58	1267.69
677.77	1312.75
677.95	1239.02
678.14	1255.40
678.32	1273.84
678.51	1284.08
678.70	1277.93
678.88	1259.50
679.07	1265.64
679.25	1265.64
679.44	1257.45
679.63	1230.83
679.81	1200.11
680.00	1288.17
680.18	1333.23
680.37	1294.32
680.55	1198.06
680.74	1294.32
680.93	1290.22
681.11	1265.64
681.30	1314.80
681.48	1255.40
681.67	1327.08
681.85	1249.26
682.04	1310.70
682.23	1230.83
682.41	1191.92
682.60	1279.98
682.78	1302.51
682.97	1282.03
683.15	1228.78
683.34	1249.26
683.53	1251.31
683.71	1265.64
683.90	1200.11
684.08	1206.25
684.27	1277.93
684.45	1290.22
684.64	1273.84
684.82	1208.30
685.01	1304.56
685.19	1310.70
685.38	1298.41
685.57	1243.12
685.75	1265.64
685.94	1245.16
686.12	1288.17
686.31	1312.75
686.49	1322.99
686.68	1200.11
686.86	1277.93
687.05	1294.32
687.23	1263.60
687.42	1247.21
687.60	1216.49
687.79	1198.06
687.97	1331.18
688.16	1294.32
688.34	1329.13
688.53	1239.02
688.71	1239.02
688.90	1269.74
689.08	1322.99
689.27	1273.84
689.45	1284.08
689.64	1200.11
689.82	1329.13
690.01	1253.36
690.19	1232.88
690.38	1259.50
690.56	1304.56
690.75	1216.49
690.93	1224.69
691.12	1292.27
691.30	1208.30
691.49	1265.64
691.67	1331.18
691.86	1308.65
692.04	1198.06
692.23	1208.30
692.41	1337.32
692.60	1243.12
692.78	1243.12
692.97	1249.26
693.15	1224.69
693.34	1253.36
693.52	1249.26
693.71	1259.50
693.89	1255.40
694.08	1185.77
694.26	1339.37
694.44	1236.97
694.63	1239.02
694.81	1245.16
695.00	1308.65
695.18	1214.45
695.37	1279.98
695.55	1236.97
695.74	1245.16
695.92	1253.36
696.10	1214.45
696.29	1277.93
696.47	1300.46
696.66	1275.88
696.84	1267.69
697.03	1316.84
697.21	1259.50
697.40	1374.19
697.58	1286.12
697.76	1273.84
697.95	1279.98
698.13	1267.69
698.32	1210.35
698.50	1224.69
698.68	1292.27
698.87	1275.88
699.05	1273.84
699.24	1277.93
699.42	1302.51
699.61	1157.10
699.79	1245.16
699.97	1236.97
700.16	1325.04
700.34	1271.79
700.53	1253.36
700.71	1294.32
700.89	1339.37
701.08	1228.78
701.26	1267.69
701.45	1322.99
701.63	1249.26
701.81	1302.51
702.00	1265.64
702.18	1329.13
702.37	1265.64
702.55	1263.60
702.73	1294.32
702.92	1306.60
703.10	1236.97
703.28	1206.25
703.47	1236.97
703.65	1263.60
703.84	1292.27
704.02	1304.56
704.20	1261.55
704.39	1241.07
704.57	1226.73
704.75	1343.47
704.94	1247.21
705.12	1259.50
705.30	1294.32
705.49	1226.73
705.67	1222.64
705.86	1263.60
706.04	1292.27
706.22	1259.50
706.41	1304.56
706.59	1247.21
706.77	1320.94
706.96	1273.84
707.14	1251.31
707.32	1222.64
707.51	1316.84
707.69	1239.02
707.87	1290.22
708.06	1224.69
708.24	1370.09
708.42	1200.11
708.61	1267.69
708.79	1279.98
708.97	1300.46
709.16	1275.88
709.34	1265.64
709.52	1339.37
709.71	1275.88
709.89	1261.55
710.07	1296.36
710.26	1206.25
710.44	1263.60
710.62	1343.47
710.80	1236.97
710.99	1255.40
711.17	1322.99
711.35	1224.69
711.54	1298.41
711.72	1232.88
711.90	1359.85
712.09	1273.84
712.27	1271.79
712.45	1269.74
712.63	1271.79
712.82	1279.98
713.00	1304.56
713.18	1300.46
713.37	1304.56
713.55	1302.51
713.73	1366.00
713.91	1218.54
714.10	1271.79
714.28	1245.16
714.46	1255.40
714.65	1314.80
714.83	1288.17
715.01	1236.97
715.19	1265.64
715.38	1206.25
715.56	1292.27
715.74	1310.70
715.92	1189.87
716.11	1279.98
716.29	1298.41
716.47	1232.88
716.65	1212.40
716.84	1224.69
717.02	1296.36
717.20	1312.75
717.38	1300.46
717.57	1236.97
717.75	1255.40
717.93	1275.88
718.11	1273.84
718.30	1253.36
718.48	1265.64
718.66	1286.12
718.84	1263.60
719.03	1257.45
719.21	1355.76
719.39	1239.02
719.57	1337.32
719.75	1304.56
719.94	1214.45
720.12	1177.58
720.30	1249.26
720.48	1228.78
720.67	1257.45
720.85	1322.99
721.03	1259.50
721.21	1224.69
721.39	1312.75
721.58	1314.80
721.76	1265.64
721.94	1290.22
722.12	1257.45
722.30	1251.31
722.49	1286.12
722.67	1331.18
722.85	1261.55
723.03	1286.12
723.21	1304.56
723.40	1230.83
723.58	1286.12
723.76	1222.64
723.94	1271.79
724.12	1204.21
724.30	1273.84
724.49	1351.66
724.67	1239.02
724.85	1282.03
725.03	1239.02
725.21	1259.50
725.40	1214.45
725.58	1320.94
725.76	1306.60
725.94	1275.88
726.12	1294.32
726.30	1241.07
726.49	1286.12
726.67	1286.12
726.85	1302.51
727.03	1230.83
727.21	1314.80
727.39	1249.26
727.57	1304.56
727.76	1306.60
727.94	1239.02
728.12	1216.49
728.30	1271.79
728.48	1284.08
728.66	1314.80
728.84	1277.93
729.03	1325.04
729.21	1275.88
729.39	1271.79
729.57	1243.12
729.75	1261.55
729.93	1286.12
730.11	1247.21
730.30	1202.16
730.48	1247.21
730.66	1265.64
730.84	1308.65
731.02	1208.30
731.20	1224.69
731.38	1320.94
731.56	1312.75
731.74	1294.32
731.93	1265.64
732.11	1253.36
732.29	1304.56
732.47	1263.60
732.65	1183.73
732.83	1296.36
733.01	1296.36
733.19	1296.36
733.37	1263.60
733.56	1206.25
733.74	1298.41
733.92	1220.59
734.10	1230.83
734.28	1271.79
734.46	1228.78
734.64	1292.27
734.82	1298.41
735.00	1146.86
735.18	1212.40
735.36	1269.74
735.54	1249.26
735.73	1335.28
735.91	1353.71
736.09	1310.70
736.27	1288.17
736.45	1232.88
736.63	1204.21
736.81	1257.45
736.99	1263.60
737.17	1228.78
737.35	1329.13
737.53	1261.55
737.71	1239.02
737.89	1300.46
738.07	1216.49
738.25	1247.21
738.43	1263.60
738.61	1253.36
738.80	1286.12
738.98	1220.59
739.16	1355.76
739.34	1253.36
739.52	1212.40
739.70	1284.08
739.88	1335.28
740.06	1263.60
740.24	1265.64
740.42	1216.49
740.60	1255.40
740.78	1296.36
740.96	1185.77
741.14	1239.02
741.32	1294.32
741.50	1294.32
741.68	1247.21
741.86	1234.93
742.04	1228.78
742.22	1279.98
742.40	1279.98
742.58	1234.93
742.76	1265.64
742.94	1263.60
743.12	1212.40
743.30	1292.27
743.48	1292.27
743.66	1298.41
743.84	1298.41
744.02	1292.27
744.20	1255.40
744.38	1210.35
744.56	1200.11
744.74	1208.30
744.92	1263.60
745.10	1257.45
745.28	1273.84
745.46	1271.79
745.64	1251.31
745.82	1277.93
746.00	1341.42
746.18	1232.88
746.36	1245.16
746.54	1241.07
746.72	1200.11
746.90	1159.15
747.08	1318.89
747.26	1320.94
747.44	1232.88
747.62	1241.07
747.80	1339.37
747.98	1308.65
748.15	1249.26
748.33	1306.60
748.51	1282.03
748.69	1236.97
748.87	1292.27
749.05	1230.83
749.23	1318.89
749.41	1253.36
749.59	1255.40
749.77	1337.32
749.95	1314.80
750.13	1284.08
750.31	1302.51
750.49	1239.02
750.67	1249.26
750.85	1247.21
751.03	1335.28
751.20	1183.73
751.38	1243.12
751.56	1277.93
751.74	1241.07
751.92	1241.07
752.10	1255.40
752.28	1247.21
752.46	1222.64
752.64	1228.78
752.82	1298.41
753.00	1267.69
753.18	1314.80
753.35	1273.84
753.53	1271.79
753.71	1232.88
753.89	1239.02
754.07	1226.73
754.25	1265.64
754.43	1243.12
754.61	1204.21
754.79	1245.16
754.97	1265.64
755.14	1230.83
755.32	1290.22
755.50	1243.12
755.68	1302.51
755.86	1259.50
756.04	1222.64
756.22	1282.03
756.40	1306.60
756.57	1288.17
756.75	1257.45
756.93	1288.17
757.11	1249.26
757.29	1263.60
757.47	1263.60
757.65	1239.02
757.82	1253.36
758.00	1282.03
758.18	1279.98
758.36	1224.69
758.54	1208.30
758.72	1302.51
758.90	1275.88
759.07	1286.12
759.25	1275.88
759.43	1212.40
759.61	1290.22
759.79	1224.69
759.97	1247.21
760.15	1189.87
760.32	1308.65
760.50	1234.93
760.68	1234.93
760.86	1288.17
761.04	1320.94
761.22	1265.64
761.39	1288.17
761.57	1220.59
761.75	1208.30
761.93	1245.16
762.11	1331.18
762.28	1236.97
762.46	1226.73
762.64	1259.50
762.82	1196.01
763.00	1284.08
763.18	1275.88
763.35	1212.40
763.53	1284.08
763.71	1345.52
763.89	1286.12
764.07	1290.22
764.24	1288.17
764.42	1259.50
764.60	1263.60
764.78	1302.51
764.96	1298.41
765.13	1320.94
765.31	1306.60
765.49	1345.52
765.67	1261.55
765.84	1247.21
766.02	1304.56
766.20	1304.56
766.38	1271.79
766.56	1302.51
766.73	1292.27
766.91	1288.17
767.09	1257.45
767.27	1255.40
767.44	1308.65
767.62	1292.27
767.80	1304.56
767.98	1234.93
768.15	1257.45
768.33	1247.21
768.51	1306.60
768.69	1206.25
768.87	1228.78
769.04	1259.50
769.22	1290.22
769.40	1296.36
769.58	1200.11
769.75	1341.42
769.93	1245.16
770.11	1284.08
770.28	1269.74
770.46	1257.45
770.64	1279.98
770.82	1249.26
770.99	1189.87
771.17	1290.22
771.35	1353.71
771.53	1212.40
771.70	1208.30
771.88	1273.84
772.06	1306.60
772.23	1208.30
772.41	1314.80
772.59	1304.56
772.77	1241.07
772.94	1296.36
773.12	1294.32
773.30	1327.08
773.47	1224.69
773.65	1212.40
773.83	1320.94
774.01	1138.67
774.18	1193.97
774.36	1210.35
774.54	1181.68
774.71	1253.36
774.89	1255.40
775.07	1275.88
775.24	1267.69
775.42	1327.08
775.60	1277.93
775.78	1230.83
775.95	1236.97
776.13	1239.02
776.31	1273.84
776.48	1249.26
776.66	1275.88
776.84	1200.11
777.01	1265.64
777.19	1265.64
777.37	1302.51
777.54	1275.88
777.72	1245.16
777.90	1224.69
778.07	1296.36
778.25	1316.84
778.43	1318.89
778.60	1269.74
778.78	1220.59
778.96	1183.73
779.13	1314.80
779.31	1224.69
779.49	1310.70
779.66	1249.26
779.84	1249.26
780.01	1261.55
780.19	1251.31
780.37	1320.94
780.54	1241.07
780.72	1282.03
780.90	1306.60
781.07	1224.69
781.25	1288.17
781.43	1232.88
781.60	1286.12
781.78	1273.84
781.95	1279.98
782.13	1284.08
782.31	1253.36
782.48	1239.02
782.66	1263.60
782.83	1185.77
783.01	1208.30
783.19	1251.31
783.36	1234.93
783.54	1212.40
783.72	1241.07
783.89	1298.41
784.07	1265.64
784.24	1304.56
784.42	1228.78
784.60	1263.60
784.77	1271.79
784.95	1228.78
785.12	1261.55
785.30	1255.40
785.47	1273.84
785.65	1200.11
785.83	1273.84
786.00	1308.65
786.18	1243.12
786.35	1247.21
786.53	1239.02
786.71	1277.93
786.88	1230.83
787.06	1230.83
787.23	1314.80
787.41	1187.82
787.58	1245.16
787.76	1245.16
787.94	1279.98
788.11	1279.98
788.29	1239.02
788.46	1216.49
788.64	1230.83
788.81	1228.78
788.99	1224.69
789.16	1279.98
789.34	1228.78
789.52	1259.50
789.69	1277.93
789.87	1212.40
790.04	1314.80
790.22	1304.56
790.39	1296.36
790.57	1261.55
790.74	1241.07
790.92	1282.03
791.09	1306.60
791.27	1236.97
791.44	1271.79
791.62	1273.84
791.79	1251.31
791.97	1267.69
792.15	1314.80
792.32	1316.84
792.50	1279.98
792.67	1312.75
792.85	1290.22
793.02	1191.92
793.20	1245.16
793.37	1249.26
793.55	1271.79
793.72	1234.93
793.90	1232.88
794.07	1269.74
794.25	1308.65
794.42	1204.21
794.60	1296.36
794.77	1239.02
794.95	1230.83
795.12	1259.50
795.30	1208.30
795.47	1245.16
795.65	1255.40
795.82	1263.60
796.00	1265.64
796.17	1306.60
796.34	1261.55
796.52	1279.98
796.69	1210.35
796.87	1288.17
797.04	1273.84
797.22	1255.40
797.39	1363.95
797.57	1294.32
797.74	1167.34
797.92	1277.93
798.09	1247.21
798.27	1279.98
798.44	1273.84
798.62	1282.03
798.79	1245.16
798.96	1267.69
799.14	1216.49
799.31	1277.93
799.49	1224.69
799.66	1249.26
799.84	1255.40
800.01	1175.53
800.19	1269.74
800.36	1183.73
800.53	1232.88
800.71	1259.50
800.88	1232.88
801.06	1247.21
801.23	1189.87
801.41	1253.36
801.58	1265.64
801.75	1273.84
801.93	1224.69
802.10	1230.83
802.28	1263.60
802.45	1259.50
802.63	1255.40
802.80	1273.84
802.97	1191.92
803.15	1220.59
803.32	1232.88
803.50	1275.88
803.67	1269.74
803.84	1236.97
804.02	1282.03
804.19	1275.88
804.37	1337.32
804.54	1181.68
804.71	1357.80
804.89	1277.93
805.06	1206.25
805.24	1251.31
805.41	1306.60
805.58	1232.88
805.76	1214.45
805.93	1331.18
806.10	1277.93
806.28	1251.31
806.45	1273.84
806.63	1228.78
806.80	1277.93
806.97	1390.57
807.15	1273.84
807.32	1310.70
807.49	1282.03
807.67	1288.17
807.84	1277.93
808.01	1230.83
808.19	1290.22
808.36	1322.99
808.54	1292.27
808.71	1234.93
808.88	1249.26
809.06	1267.69
809.23	1259.50
809.40	1255.40
809.58	1298.41
809.75	1329.13
809.92	1234.93
810.10	1290.22
810.27	1269.74
810.44	1230.83
810.62	1259.50
810.79	1204.21
810.96	1294.32
811.14	1251.31
811.31	1259.50
811.48	1273.84
811.66	1253.36
811.83	1253.36
812.00	1253.36
812.18	1288.17
812.35	1271.79
812.52	1239.02
812.69	1282.03
812.87	1286.12
813.04	1320.94
813.21	1202.16
813.39	1239.02
813.56	1320.94
813.73	1314.80
813.91	1206.25
814.08	1239.02
814.25	1183.73
814.42	1343.47
814.60	1304.56
814.77	1265.64
814.94	1306.60
815.12	1277.93
815.29	1269.74
815.46	1218.54
815.63	1259.50
815.81	1296.36
815.98	1226.73
816.15	1257.45
816.33	1220.59
816.50	1267.69
816.67	1314.80
816.84	1302.51
817.02	1265.64
817.19	1292.27
817.36	1333.23
817.53	1320.94
817.71	1257.45
817.88	1284.08
818.05	1208.30
818.22	1239.02
818.40	1290.22
818.57	1255.40
818.74	1314.80
818.91	1265.64
819.09	1339.37
819.26	1279.98
819.43	1265.64
819.60	1290.22
819.78	1273.84
819.95	1241.07
820.12	1234.93
820.29	1245.16
820.47	1249.26
820.64	1239.02
820.81	1196.01
820.98	1251.31
821.15	1308.65
821.33	1361.90
821.50	1273.84
821.67	1286.12
821.84	1339.37
822.02	1347.56
822.19	1277.93
822.36	1239.02
822.53	1222.64
822.70	1279.98
822.88	1292.27
823.05	1247.21
823.22	1282.03
823.39	1288.17
823.56	1318.89
823.74	1273.84
823.91	1216.49
824.08	1273.84
824.25	1269.74
824.42	1300.46
824.60	1310.70
824.77	1306.60
824.94	1249.26
825.11	1284.08
825.28	1282.03
825.45	1271.79
825.63	1269.74
825.80	1245.16
825.97	1335.28
826.14	1314.80
826.31	1253.36
826.48	1265.64
826.66	1271.79
826.83	1282.03
827.00	1279.98
827.17	1251.31
827.34	1187.82
827.51	1296.36
827.69	1290.22
827.86	1193.97
828.03	1251.31
828.20	1273.84
828.37	1273.84
828.54	1239.02
828.71	1208.30
828.89	1292.27
829.06	1269.74
829.23	1249.26
829.40	1271.79
829.57	1267.69
829.74	1212.40
829.91	1259.50
830.09	1191.92
830.26	1347.56
830.43	1263.60
830.60	1286.12
830.77	1228.78
830.94	1263.60
831.11	1275.88
831.28	1257.45
831.46	1269.74
831.63	1218.54
831.80	1249.26
831.97	1290.22
832.14	1310.70
832.31	1312.75
832.48	1249.26
832.65	1288.17
832.82	1224.69
832.99	1333.23
833.17	1273.84
833.34	1269.74
833.51	1314.80
833.68	1236.97
833.85	1243.12
834.02	1243.12
834.19	1222.64
834.36	1300.46
834.53	1251.31
834.70	1257.45
834.87	1316.84
835.04	1226.73
835.22	1187.82
835.39	1290.22
835.56	1312.75
835.73	1263.60
835.90	1300.46
836.07	1320.94
836.24	1322.99
836.41	1366.00
836.58	1204.21
836.75	1241.07
836.92	1245.16
837.09	1241.07
837.26	1286.12
837.43	1298.41
837.60	1198.06
837.77	1310.70
837.94	1335.28
838.12	1263.60
838.29	1290.22
838.46	1286.12
838.63	1259.50
838.80	1273.84
838.97	1267.69
839.14	1267.69
839.31	1298.41
839.48	1300.46
839.65	1306.60
839.82	1277.93
839.99	1306.60
840.16	1275.88
840.33	1259.50
840.50	1298.41
840.67	1288.17
840.84	1279.98
841.01	1212.40
841.18	1253.36
841.35	1282.03
841.52	1230.83
841.69	1216.49
841.86	1259.50
842.03	1257.45
842.20	1245.16
842.37	1208.30
842.54	1325.04
842.71	1286.12
842.88	1347.56
843.05	1306.60
843.22	1224.69
843.39	1239.02
843.56	1302.51
843.73	1312.75
843.90	1249.26
844.07	1327.08
844.24	1302.51
844.41	1292.27
844.58	1253.36
844.75	1265.64
844.92	1255.40
845.09	1306.60
845.26	1269.74
845.43	1212.40
845.60	1282.03
845.77	1212.40
845.94	1306.60
846.10	1208.30
846.27	1208.30
846.44	1306.60
846.61	1241.07
846.78	1243.12
846.95	1241.07
847.12	1230.83
847.29	1306.60
847.46	1228.78
847.63	1175.53
847.80	1243.12
847.97	1286.12
848.14	1288.17
848.31	1247.21
848.48	1218.54
848.65	1314.80
848.82	1263.60
848.98	1265.64
849.15	1277.93
849.32	1277.93
849.49	1298.41
849.66	1279.98
849.83	1284.08
850.00	1224.69
850.17	1243.12
850.34	1245.16
850.51	1196.01
850.68	1273.84
850.85	1255.40
851.01	1236.97
851.18	1310.70
851.35	1308.65
851.52	1249.26
851.69	1306.60
851.86	1185.77
852.03	1232.88
852.20	1302.51
852.37	1282.03
852.53	1230.83
852.70	1269.74
852.87	1249.26
853.04	1253.36
853.21	1296.36
853.38	1255.40
853.55	1316.84
853.72	1271.79
853.89	1298.41
854.05	1255.40
854.22	1251.31
854.39	1366.00
854.56	1245.16
854.73	1230.83
854.90	1300.46
855.07	1171.44
855.23	1148.91
855.40	1245.16
855.57	1282.03
855.74	1351.66
855.91	1275.88
856.08	1249.26
856.25	1263.60
856.41	1271.79
856.58	1150.96
856.75	1236.97
856.92	1265.64
857.09	1327.08
857.26	1245.16
857.42	1247.21
857.59	1228.78
857.76	1228.78
857.93	1329.13
858.10	1310.70
858.27	1265.64
858.43	1279.98
858.60	1259.50
858.77	1261.55
858.94	1261.55
859.11	1191.92
859.27	1306.60
859.44	1341.42
859.61	1226.73
859.78	1249.26
859.95	1353.71
860.12	1228.78
860.28	1294.32
860.45	1310.70
860.62	1290.22
860.79	1265.64
860.95	1257.45
861.12	1282.03
861.29	1259.50
861.46	1214.45
861.63	1273.84
861.79	1230.83
861.96	1234.93
862.13	1239.02
862.30	1253.36
862.47	1271.79
862.63	1251.31
862.80	1228.78
862.97	1206.25
863.14	1292.27
863.30	1277.93
863.47	1261.55
863.64	1222.64
863.81	1284.08
863.97	1257.45
864.14	1230.83
864.31	1304.56
864.48	1245.16
864.65	1271.79
864.81	1271.79
864.98	1216.49
865.15	1263.60
865.32	1230.83
865.48	1239.02
865.65	1308.65
865.82	1257.45
865.98	1210.35
866.15	1255.40
866.32	1273.84
866.49	1202.16
866.65	1277.93
866.82	1325.04
866.99	1279.98
867.16	1331.18
867.32	1288.17
867.49	1302.51
867.66	1282.03
867.83	1282.03
867.99	1312.75
868.16	1302.51
868.33	1314.80
868.49	1236.97
868.66	1251.31
868.83	1288.17
868.99	1265.64
869.16	1267.69
869.33	1368.04
869.50	1224.69
869.66	1257.45
869.83	1286.12
870.00	1263.60
870.16	1273.84
870.33	1230.83
870.50	1275.88
870.66	1243.12
870.83	1288.17
871.00	1255.40
871.17	1368.04
871.33	1261.55
871.50	1314.80
871.67	1251.31
871.83	1269.74
872.00	1306.60
872.17	1249.26
872.33	1261.55
872.50	1279.98
872.67	1234.93
872.83	1230.83
873.00	1271.79
873.17	1329.13
873.33	1189.87
873.50	1239.02
873.67	1282.03
873.83	1216.49
874.00	1327.08
874.16	1263.60
874.33	1220.59
874.50	1363.95
874.66	1241.07
874.83	1239.02
875.00	1294.32
875.16	1255.40
875.33	1222.64
875.50	1261.55
875.66	1236.97
875.83	1265.64
875.99	1310.70
876.16	1355.76
876.33	1267.69
876.49	1320.94
876.66	1210.35
876.83	1279.98
876.99	1245.16
877.16	1228.78
877.32	1234.93
877.49	1271.79
877.66	1181.68
877.82	1249.26
877.99	1275.88
878.15	1191.92
878.32	1239.02
878.49	1273.84
878.65	1279.98
878.82	1239.02
878.98	1331.18
879.15	1230.83
879.32	1183.73
879.48	1314.80
879.65	1232.88
879.81	1290.22
879.98	1165.29
880.15	1239.02
880.31	1300.46
880.48	1251.31
880.64	1208.30
880.81	1247.21
880.97	1300.46
881.14	1216.49
881.31	1249.26
881.47	1300.46
881.64	1318.89
881.80	1316.84
881.97	1331.18
882.13	1214.45
882.30	1286.12
882.47	1282.03
882.63	1302.51
882.80	1191.92
882.96	1255.40
883.13	1265.64
883.29	1236.97
883.46	1236.97
883.62	1224.69
883.79	1214.45
883.95	1277.93
884.12	1329.13
884.29	1273.84
884.45	1322.99
884.62	1251.31
884.78	1247.21
884.95	1265.64
885.11	1316.84
885.28	1306.60
885.44	1292.27
885.61	1259.50
885.77	1298.41
885.94	1222.64
886.10	1263.60
886.27	1331.18
886.43	1189.87
886.60	1253.36
886.76	1265.64
886.93	1347.56
887.09	1263.60
887.26	1234.93
887.42	1273.84
887.59	1263.60
887.75	1347.56
887.92	1232.88
888.08	1314.80
888.25	1314.80
888.41	1249.26
888.58	1265.64
888.74	1255.40
888.91	1204.21
>>>>>End Processed Spectral Data<<<<<
