SpectraSuite Data File
++++++++++++++++++++++++++++++++++++
Date: Sun Apr 03 19:55:21 CEST 2016
User: root
Dark Spectrum Present: No
Reference Spectrum Present: No
Number of Sampled Component Spectra: 1
Spectrometers: USB4C02835
Integration Time (usec): 10000 (USB4C02835)
Spectra Averaged: 1 (USB4C02835)
Boxcar Smoothing: 0 (USB4C02835)
Correct for Electrical Dark: No (USB4C02835)
Strobe/Lamp Enabled: No (USB4C02835)
Correct for Detector Non-linearity: No (USB4C02835)
Correct for Stray Light: No (USB4C02835)
Number of Pixels in Processed Spectrum: 3648
>>>>>Begin Processed Spectral Data<<<<<
177.47	1193.97
177.69	1193.97
177.91	1193.97
178.13	1222.64
178.36	1218.54
178.58	1204.21
178.80	1255.40
179.02	1279.98
179.24	1259.50
179.46	1294.32
179.68	1263.60
179.90	1234.93
180.13	1202.16
180.35	1241.07
180.57	1331.18
180.79	1226.73
181.01	1224.69
181.23	1300.46
181.45	1263.60
181.67	1327.08
181.90	1335.28
182.12	1275.88
182.34	1298.41
182.56	1243.12
182.78	1245.16
183.00	1241.07
183.22	1282.03
183.44	1269.74
183.66	1349.61
183.89	1263.60
184.11	1257.45
184.33	1216.49
184.55	1322.99
184.77	1318.89
184.99	1316.84
185.21	1251.31
185.43	1241.07
185.65	1243.12
185.87	1267.69
186.10	1206.25
186.32	1372.14
186.54	1279.98
186.76	1161.20
186.98	1204.21
187.20	1294.32
187.42	1267.69
187.64	1222.64
187.86	1218.54
188.08	1282.03
188.30	1171.44
188.52	1247.21
188.75	1259.50
188.97	1230.83
189.19	1251.31
189.41	1327.08
189.63	1261.55
189.85	1290.22
190.07	1245.16
190.29	1337.32
190.51	1351.66
190.73	1302.51
190.95	1257.45
191.17	1275.88
191.39	1292.27
191.61	1288.17
191.84	1284.08
192.06	1304.56
192.28	1300.46
192.50	1316.84
192.72	1320.94
192.94	1300.46
193.16	1310.70
193.38	1241.07
193.60	1255.40
193.82	1261.55
194.04	1282.03
194.26	1181.68
194.48	1298.41
194.70	1368.04
194.92	1265.64
195.14	1253.36
195.36	1214.45
195.58	1263.60
195.80	1212.40
196.02	1372.14
196.24	1320.94
196.46	1325.04
196.69	1222.64
196.91	1245.16
197.13	1257.45
197.35	1245.16
197.57	1243.12
197.79	1265.64
198.01	1329.13
198.23	1243.12
198.45	1245.16
198.67	1298.41
198.89	1241.07
199.11	1322.99
199.33	1263.60
199.55	1261.55
199.77	1310.70
199.99	1267.69
200.21	1257.45
200.43	1239.02
200.65	1279.98
200.87	1380.33
201.09	1349.61
201.31	1345.52
201.53	1232.88
201.75	1224.69
201.97	1290.22
202.19	1257.45
202.41	1249.26
202.63	1306.60
202.85	1150.96
203.07	1279.98
203.29	1239.02
203.51	1292.27
203.73	1241.07
203.95	1247.21
204.17	1282.03
204.39	1247.21
204.61	1267.69
204.83	1253.36
205.05	1286.12
205.27	1267.69
205.49	1288.17
205.71	1241.07
205.93	1212.40
206.15	1279.98
206.37	1273.84
206.59	1347.56
206.81	1263.60
207.03	1316.84
207.25	1243.12
207.47	1230.83
207.69	1232.88
207.91	1294.32
208.13	1253.36
208.34	1259.50
208.56	1298.41
208.78	1341.42
209.00	1282.03
209.22	1193.97
209.44	1249.26
209.66	1232.88
209.88	1361.90
210.10	1345.52
210.32	1247.21
210.54	1329.13
210.76	1232.88
210.98	1243.12
211.20	1251.31
211.42	1269.74
211.64	1214.45
211.86	1210.35
212.08	1251.31
212.30	1212.40
212.52	1277.93
212.74	1208.30
212.96	1265.64
213.17	1241.07
213.39	1226.73
213.61	1343.47
213.83	1253.36
214.05	1222.64
214.27	1206.25
214.49	1288.17
214.71	1286.12
214.93	1275.88
215.15	1296.36
215.37	1259.50
215.59	1234.93
215.81	1224.69
216.03	1253.36
216.24	1239.02
216.46	1243.12
216.68	1292.27
216.90	1357.80
217.12	1265.64
217.34	1230.83
217.56	1284.08
217.78	1243.12
218.00	1259.50
218.22	1333.23
218.44	1259.50
218.66	1239.02
218.87	1247.21
219.09	1224.69
219.31	1312.75
219.53	1322.99
219.75	1234.93
219.97	1239.02
220.19	1243.12
220.41	1273.84
220.63	1230.83
220.85	1249.26
221.06	1255.40
221.28	1222.64
221.50	1275.88
221.72	1269.74
221.94	1273.84
222.16	1279.98
222.38	1290.22
222.60	1239.02
222.82	1265.64
223.03	1245.16
223.25	1275.88
223.47	1329.13
223.69	1200.11
223.91	1200.11
224.13	1322.99
224.35	1288.17
224.57	1292.27
224.78	1275.88
225.00	1320.94
225.22	1241.07
225.44	1191.92
225.66	1234.93
225.88	1265.64
226.10	1214.45
226.32	1239.02
226.53	1306.60
226.75	1320.94
226.97	1314.80
227.19	1347.56
227.41	1255.40
227.63	1196.01
227.85	1216.49
228.06	1212.40
228.28	1249.26
228.50	1296.36
228.72	1263.60
228.94	1257.45
229.16	1304.56
229.37	1243.12
229.59	1314.80
229.81	1312.75
230.03	1230.83
230.25	1265.64
230.47	1300.46
230.69	1314.80
230.90	1304.56
231.12	1255.40
231.34	1288.17
231.56	1353.71
231.78	1204.21
232.00	1249.26
232.21	1312.75
232.43	1286.12
232.65	1243.12
232.87	1163.25
233.09	1271.79
233.30	1277.93
233.52	1247.21
233.74	1249.26
233.96	1249.26
234.18	1339.37
234.40	1173.49
234.61	1286.12
234.83	1312.75
235.05	1284.08
235.27	1169.39
235.49	1239.02
235.70	1245.16
235.92	1277.93
236.14	1261.55
236.36	1236.97
236.58	1239.02
236.79	1232.88
237.01	1196.01
237.23	1322.99
237.45	1286.12
237.67	1294.32
237.88	1245.16
238.10	1273.84
238.32	1245.16
238.54	1277.93
238.76	1214.45
238.97	1269.74
239.19	1306.60
239.41	1337.32
239.63	1298.41
239.85	1214.45
240.06	1214.45
240.28	1241.07
240.50	1275.88
240.72	1306.60
240.93	1325.04
241.15	1234.93
241.37	1325.04
241.59	1304.56
241.81	1271.79
242.02	1218.54
242.24	1290.22
242.46	1304.56
242.68	1353.71
242.89	1245.16
243.11	1300.46
243.33	1265.64
243.55	1263.60
243.76	1251.31
243.98	1232.88
244.20	1259.50
244.42	1263.60
244.64	1214.45
244.85	1265.64
245.07	1294.32
245.29	1247.21
245.51	1290.22
245.72	1351.66
245.94	1224.69
246.16	1290.22
246.38	1257.45
246.59	1228.78
246.81	1228.78
247.03	1349.61
247.24	1249.26
247.46	1310.70
247.68	1290.22
247.90	1259.50
248.11	1230.83
248.33	1263.60
248.55	1292.27
248.77	1212.40
248.98	1185.77
249.20	1263.60
249.42	1257.45
249.64	1226.73
249.85	1279.98
250.07	1279.98
250.29	1224.69
250.50	1257.45
250.72	1320.94
250.94	1335.28
251.16	1236.97
251.37	1275.88
251.59	1322.99
251.81	1255.40
252.02	1245.16
252.24	1269.74
252.46	1275.88
252.68	1288.17
252.89	1247.21
253.11	1267.69
253.33	1312.75
253.54	1261.55
253.76	1314.80
253.98	1236.97
254.20	1318.89
254.41	1310.70
254.63	1204.21
254.85	1255.40
255.06	1214.45
255.28	1314.80
255.50	1343.47
255.71	1249.26
255.93	1310.70
256.15	1236.97
256.36	1267.69
256.58	1288.17
256.80	1216.49
257.02	1241.07
257.23	1308.65
257.45	1327.08
257.67	1279.98
257.88	1243.12
258.10	1322.99
258.32	1339.37
258.53	1228.78
258.75	1196.01
258.97	1325.04
259.18	1183.73
259.40	1298.41
259.62	1292.27
259.83	1259.50
260.05	1286.12
260.27	1275.88
260.48	1249.26
260.70	1277.93
260.92	1306.60
261.13	1255.40
261.35	1247.21
261.57	1271.79
261.78	1234.93
262.00	1196.01
262.22	1286.12
262.43	1259.50
262.65	1220.59
262.86	1218.54
263.08	1239.02
263.30	1214.45
263.51	1230.83
263.73	1261.55
263.95	1234.93
264.16	1279.98
264.38	1230.83
264.60	1161.20
264.81	1245.16
265.03	1318.89
265.25	1241.07
265.46	1273.84
265.68	1378.28
265.89	1318.89
266.11	1214.45
266.33	1193.97
266.54	1286.12
266.76	1275.88
266.98	1290.22
267.19	1249.26
267.41	1282.03
267.62	1224.69
267.84	1259.50
268.06	1304.56
268.27	1263.60
268.49	1253.36
268.70	1167.34
268.92	1230.83
269.14	1230.83
269.35	1335.28
269.57	1198.06
269.79	1292.27
270.00	1339.37
270.22	1322.99
270.43	1314.80
270.65	1253.36
270.87	1290.22
271.08	1265.64
271.30	1222.64
271.51	1298.41
271.73	1273.84
271.95	1300.46
272.16	1296.36
272.38	1239.02
272.59	1273.84
272.81	1277.93
273.02	1312.75
273.24	1282.03
273.46	1232.88
273.67	1265.64
273.89	1251.31
274.10	1302.51
274.32	1320.94
274.54	1304.56
274.75	1322.99
274.97	1257.45
275.18	1236.97
275.40	1329.13
275.61	1234.93
275.83	1335.28
276.05	1298.41
276.26	1202.16
276.48	1181.68
276.69	1273.84
276.91	1236.97
277.12	1279.98
277.34	1284.08
277.55	1304.56
277.77	1249.26
277.99	1292.27
278.20	1239.02
278.42	1247.21
278.63	1236.97
278.85	1261.55
279.06	1269.74
279.28	1251.31
279.49	1353.71
279.71	1304.56
279.93	1230.83
280.14	1226.73
280.36	1245.16
280.57	1282.03
280.79	1193.97
281.00	1300.46
281.22	1247.21
281.43	1232.88
281.65	1275.88
281.86	1236.97
282.08	1333.23
282.29	1265.64
282.51	1224.69
282.73	1257.45
282.94	1310.70
283.16	1249.26
283.37	1253.36
283.59	1255.40
283.80	1232.88
284.02	1282.03
284.23	1296.36
284.45	1302.51
284.66	1230.83
284.88	1355.76
285.09	1255.40
285.31	1277.93
285.52	1286.12
285.74	1183.73
285.95	1253.36
286.17	1277.93
286.38	1357.80
286.60	1185.77
286.81	1263.60
287.03	1306.60
287.24	1267.69
287.46	1277.93
287.67	1243.12
287.89	1298.41
288.10	1220.59
288.32	1265.64
288.53	1273.84
288.75	1216.49
288.96	1292.27
289.18	1257.45
289.39	1249.26
289.61	1263.60
289.82	1279.98
290.04	1331.18
290.25	1355.76
290.47	1271.79
290.68	1234.93
290.90	1277.93
291.11	1290.22
291.33	1320.94
291.54	1300.46
291.76	1277.93
291.97	1284.08
292.18	1273.84
292.40	1243.12
292.61	1294.32
292.83	1341.42
293.04	1284.08
293.26	1269.74
293.47	1163.25
293.69	1302.51
293.90	1298.41
294.12	1234.93
294.33	1234.93
294.55	1339.37
294.76	1273.84
294.97	1300.46
295.19	1181.68
295.40	1247.21
295.62	1273.84
295.83	1232.88
296.05	1251.31
296.26	1261.55
296.48	1269.74
296.69	1294.32
296.90	1232.88
297.12	1322.99
297.33	1245.16
297.55	1239.02
297.76	1347.56
297.98	1290.22
298.19	1298.41
298.41	1200.11
298.62	1279.98
298.83	1318.89
299.05	1292.27
299.26	1212.40
299.48	1224.69
299.69	1290.22
299.90	1214.45
300.12	1282.03
300.33	1251.31
300.55	1265.64
300.76	1228.78
300.98	1316.84
301.19	1335.28
301.40	1322.99
301.62	1243.12
301.83	1236.97
302.05	1202.16
302.26	1243.12
302.47	1279.98
302.69	1275.88
302.90	1294.32
303.12	1267.69
303.33	1232.88
303.54	1347.56
303.76	1302.51
303.97	1230.83
304.19	1273.84
304.40	1284.08
304.61	1316.84
304.83	1232.88
305.04	1247.21
305.26	1284.08
305.47	1279.98
305.68	1277.93
305.90	1282.03
306.11	1284.08
306.33	1263.60
306.54	1306.60
306.75	1302.51
306.97	1320.94
307.18	1269.74
307.39	1277.93
307.61	1251.31
307.82	1265.64
308.04	1236.97
308.25	1261.55
308.46	1343.47
308.68	1302.51
308.89	1261.55
309.10	1271.79
309.32	1226.73
309.53	1251.31
309.74	1265.64
309.96	1286.12
310.17	1279.98
310.39	1376.24
310.60	1304.56
310.81	1206.25
311.03	1167.34
311.24	1259.50
311.45	1230.83
311.67	1212.40
311.88	1333.23
312.09	1263.60
312.31	1251.31
312.52	1253.36
312.73	1198.06
312.95	1306.60
313.16	1202.16
313.37	1351.66
313.59	1261.55
313.80	1257.45
314.01	1318.89
314.23	1304.56
314.44	1284.08
314.65	1320.94
314.87	1232.88
315.08	1284.08
315.29	1253.36
315.51	1361.90
315.72	1241.07
315.93	1265.64
316.15	1314.80
316.36	1179.63
316.57	1296.36
316.79	1187.82
317.00	1351.66
317.21	1284.08
317.43	1224.69
317.64	1290.22
317.85	1277.93
318.07	1294.32
318.28	1263.60
318.49	1202.16
318.70	1224.69
318.92	1331.18
319.13	1220.59
319.34	1175.53
319.56	1241.07
319.77	1224.69
319.98	1329.13
320.20	1243.12
320.41	1232.88
320.62	1253.36
320.83	1333.23
321.05	1241.07
321.26	1165.29
321.47	1210.35
321.69	1290.22
321.90	1298.41
322.11	1335.28
322.32	1189.87
322.54	1294.32
322.75	1253.36
322.96	1265.64
323.18	1222.64
323.39	1247.21
323.60	1232.88
323.81	1265.64
324.03	1345.52
324.24	1279.98
324.45	1218.54
324.66	1271.79
324.88	1228.78
325.09	1263.60
325.30	1325.04
325.52	1224.69
325.73	1290.22
325.94	1286.12
326.15	1187.82
326.37	1318.89
326.58	1296.36
326.79	1234.93
327.00	1232.88
327.22	1284.08
327.43	1312.75
327.64	1214.45
327.85	1239.02
328.07	1232.88
328.28	1239.02
328.49	1249.26
328.70	1239.02
328.92	1206.25
329.13	1251.31
329.34	1363.95
329.55	1306.60
329.76	1226.73
329.98	1300.46
330.19	1257.45
330.40	1239.02
330.61	1191.92
330.83	1249.26
331.04	1214.45
331.25	1239.02
331.46	1265.64
331.68	1273.84
331.89	1232.88
332.10	1191.92
332.31	1277.93
332.52	1279.98
332.74	1312.75
332.95	1206.25
333.16	1267.69
333.37	1275.88
333.58	1247.21
333.80	1226.73
334.01	1269.74
334.22	1322.99
334.43	1279.98
334.64	1273.84
334.86	1263.60
335.07	1239.02
335.28	1269.74
335.49	1200.11
335.70	1228.78
335.92	1261.55
336.13	1212.40
336.34	1273.84
336.55	1263.60
336.76	1249.26
336.98	1322.99
337.19	1261.55
337.40	1345.52
337.61	1292.27
337.82	1234.93
338.04	1335.28
338.25	1263.60
338.46	1284.08
338.67	1269.74
338.88	1257.45
339.09	1249.26
339.31	1269.74
339.52	1345.52
339.73	1253.36
339.94	1189.87
340.15	1251.31
340.36	1198.06
340.58	1288.17
340.79	1298.41
341.00	1275.88
341.21	1302.51
341.42	1314.80
341.63	1267.69
341.85	1273.84
342.06	1232.88
342.27	1232.88
342.48	1259.50
342.69	1253.36
342.90	1200.11
343.12	1306.60
343.33	1294.32
343.54	1312.75
343.75	1288.17
343.96	1251.31
344.17	1282.03
344.38	1286.12
344.60	1206.25
344.81	1261.55
345.02	1247.21
345.23	1222.64
345.44	1286.12
345.65	1236.97
345.86	1277.93
346.07	1247.21
346.29	1216.49
346.50	1241.07
346.71	1218.54
346.92	1239.02
347.13	1359.85
347.34	1275.88
347.55	1282.03
347.76	1296.36
347.98	1224.69
348.19	1271.79
348.40	1282.03
348.61	1275.88
348.82	1318.89
349.03	1198.06
349.24	1206.25
349.45	1327.08
349.66	1282.03
349.88	1226.73
350.09	1316.84
350.30	1300.46
350.51	1263.60
350.72	1284.08
350.93	1273.84
351.14	1257.45
351.35	1187.82
351.56	1230.83
351.77	1310.70
351.99	1331.18
352.20	1282.03
352.41	1277.93
352.62	1343.47
352.83	1361.90
353.04	1222.64
353.25	1193.97
353.46	1298.41
353.67	1249.26
353.88	1216.49
354.09	1218.54
354.30	1269.74
354.52	1277.93
354.73	1228.78
354.94	1325.04
355.15	1298.41
355.36	1245.16
355.57	1222.64
355.78	1269.74
355.99	1286.12
356.20	1277.93
356.41	1255.40
356.62	1339.37
356.83	1236.97
357.04	1318.89
357.25	1200.11
357.46	1288.17
357.68	1222.64
357.89	1329.13
358.10	1263.60
358.31	1232.88
358.52	1193.97
358.73	1267.69
358.94	1200.11
359.15	1243.12
359.36	1282.03
359.57	1222.64
359.78	1257.45
359.99	1353.71
360.20	1249.26
360.41	1298.41
360.62	1279.98
360.83	1187.82
361.04	1292.27
361.25	1255.40
361.46	1333.23
361.67	1204.21
361.88	1239.02
362.09	1322.99
362.30	1210.35
362.51	1185.77
362.72	1198.06
362.93	1234.93
363.14	1279.98
363.35	1167.34
363.56	1320.94
363.78	1208.30
363.99	1208.30
364.20	1261.55
364.41	1251.31
364.62	1312.75
364.83	1288.17
365.04	1259.50
365.25	1374.19
365.46	1277.93
365.67	1275.88
365.88	1294.32
366.09	1234.93
366.30	1224.69
366.51	1298.41
366.72	1271.79
366.93	1226.73
367.14	1282.03
367.35	1286.12
367.56	1247.21
367.77	1226.73
367.98	1224.69
368.18	1208.30
368.39	1267.69
368.60	1261.55
368.81	1265.64
369.02	1241.07
369.23	1333.23
369.44	1353.71
369.65	1282.03
369.86	1257.45
370.07	1308.65
370.28	1251.31
370.49	1300.46
370.70	1267.69
370.91	1183.73
371.12	1275.88
371.33	1331.18
371.54	1259.50
371.75	1175.53
371.96	1181.68
372.17	1259.50
372.38	1230.83
372.59	1222.64
372.80	1288.17
373.01	1300.46
373.22	1239.02
373.43	1284.08
373.64	1273.84
373.85	1271.79
374.06	1179.63
374.26	1253.36
374.47	1284.08
374.68	1210.35
374.89	1308.65
375.10	1284.08
375.31	1265.64
375.52	1310.70
375.73	1230.83
375.94	1286.12
376.15	1288.17
376.36	1279.98
376.57	1234.93
376.78	1282.03
376.99	1331.18
377.20	1273.84
377.40	1300.46
377.61	1282.03
377.82	1224.69
378.03	1325.04
378.24	1265.64
378.45	1265.64
378.66	1261.55
378.87	1236.97
379.08	1294.32
379.29	1216.49
379.50	1347.56
379.71	1298.41
379.91	1234.93
380.12	1282.03
380.33	1243.12
380.54	1247.21
380.75	1220.59
380.96	1325.04
381.17	1279.98
381.38	1265.64
381.59	1306.60
381.80	1251.31
382.00	1277.93
382.21	1286.12
382.42	1273.84
382.63	1308.65
382.84	1224.69
383.05	1322.99
383.26	1267.69
383.47	1204.21
383.68	1230.83
383.88	1288.17
384.09	1249.26
384.30	1316.84
384.51	1247.21
384.72	1312.75
384.93	1210.35
385.14	1320.94
385.35	1232.88
385.55	1153.01
385.76	1312.75
385.97	1271.79
386.18	1288.17
386.39	1282.03
386.60	1320.94
386.81	1243.12
387.02	1316.84
387.22	1316.84
387.43	1339.37
387.64	1296.36
387.85	1265.64
388.06	1257.45
388.27	1212.40
388.48	1322.99
388.68	1255.40
388.89	1212.40
389.10	1368.04
389.31	1251.31
389.52	1312.75
389.73	1271.79
389.93	1222.64
390.14	1232.88
390.35	1284.08
390.56	1329.13
390.77	1275.88
390.98	1341.42
391.18	1232.88
391.39	1314.80
391.60	1241.07
391.81	1286.12
392.02	1253.36
392.23	1257.45
392.43	1251.31
392.64	1345.52
392.85	1282.03
393.06	1218.54
393.27	1191.92
393.47	1245.16
393.68	1263.60
393.89	1261.55
394.10	1263.60
394.31	1241.07
394.52	1292.27
394.72	1261.55
394.93	1247.21
395.14	1284.08
395.35	1277.93
395.56	1263.60
395.76	1269.74
395.97	1284.08
396.18	1282.03
396.39	1241.07
396.60	1273.84
396.80	1265.64
397.01	1273.84
397.22	1361.90
397.43	1298.41
397.64	1234.93
397.84	1263.60
398.05	1241.07
398.26	1290.22
398.47	1245.16
398.67	1284.08
398.88	1277.93
399.09	1304.56
399.30	1261.55
399.51	1249.26
399.71	1298.41
399.92	1222.64
400.13	1232.88
400.34	1269.74
400.54	1327.08
400.75	1257.45
400.96	1312.75
401.17	1286.12
401.37	1300.46
401.58	1288.17
401.79	1277.93
402.00	1271.79
402.21	1218.54
402.41	1259.50
402.62	1224.69
402.83	1198.06
403.04	1277.93
403.24	1290.22
403.45	1247.21
403.66	1247.21
403.87	1245.16
404.07	1224.69
404.28	1275.88
404.49	1316.84
404.70	1322.99
404.90	1269.74
405.11	1234.93
405.32	1239.02
405.52	1316.84
405.73	1300.46
405.94	1230.83
406.15	1331.18
406.35	1320.94
406.56	1282.03
406.77	1243.12
406.98	1314.80
407.18	1251.31
407.39	1255.40
407.60	1204.21
407.80	1320.94
408.01	1286.12
408.22	1183.73
408.43	1232.88
408.63	1253.36
408.84	1187.82
409.05	1269.74
409.25	1200.11
409.46	1288.17
409.67	1198.06
409.88	1298.41
410.08	1173.49
410.29	1222.64
410.50	1325.04
410.70	1353.71
410.91	1265.64
411.12	1296.36
411.32	1320.94
411.53	1196.01
411.74	1288.17
411.95	1318.89
412.15	1282.03
412.36	1320.94
412.57	1210.35
412.77	1220.59
412.98	1269.74
413.19	1284.08
413.39	1259.50
413.60	1269.74
413.81	1259.50
414.01	1189.87
414.22	1302.51
414.43	1286.12
414.63	1210.35
414.84	1222.64
415.05	1288.17
415.25	1234.93
415.46	1261.55
415.67	1273.84
415.87	1253.36
416.08	1290.22
416.29	1265.64
416.49	1257.45
416.70	1239.02
416.91	1263.60
417.11	1300.46
417.32	1249.26
417.53	1249.26
417.73	1322.99
417.94	1255.40
418.15	1239.02
418.35	1239.02
418.56	1269.74
418.77	1300.46
418.97	1169.39
419.18	1150.96
419.38	1259.50
419.59	1284.08
419.80	1282.03
420.00	1300.46
420.21	1220.59
420.42	1234.93
420.62	1275.88
420.83	1263.60
421.04	1249.26
421.24	1247.21
421.45	1304.56
421.65	1308.65
421.86	1290.22
422.07	1200.11
422.27	1247.21
422.48	1304.56
422.69	1282.03
422.89	1292.27
423.10	1290.22
423.30	1292.27
423.51	1259.50
423.72	1189.87
423.92	1298.41
424.13	1218.54
424.33	1339.37
424.54	1255.40
424.75	1345.52
424.95	1247.21
425.16	1200.11
425.36	1318.89
425.57	1349.61
425.78	1277.93
425.98	1269.74
426.19	1220.59
426.39	1343.47
426.60	1259.50
426.81	1239.02
427.01	1245.16
427.22	1312.75
427.42	1255.40
427.63	1318.89
427.83	1263.60
428.04	1277.93
428.25	1314.80
428.45	1316.84
428.66	1261.55
428.86	1222.64
429.07	1318.89
429.28	1259.50
429.48	1298.41
429.69	1255.40
429.89	1294.32
430.10	1208.30
430.30	1292.27
430.51	1275.88
430.71	1228.78
430.92	1222.64
431.13	1275.88
431.33	1216.49
431.54	1253.36
431.74	1331.18
431.95	1316.84
432.15	1282.03
432.36	1290.22
432.56	1165.29
432.77	1267.69
432.98	1296.36
433.18	1325.04
433.39	1298.41
433.59	1300.46
433.80	1247.21
434.00	1275.88
434.21	1300.46
434.41	1273.84
434.62	1269.74
434.82	1241.07
435.03	1292.27
435.23	1331.18
435.44	1247.21
435.64	1286.12
435.85	1236.97
436.06	1314.80
436.26	1310.70
436.47	1191.92
436.67	1343.47
436.88	1257.45
437.08	1314.80
437.29	1308.65
437.49	1265.64
437.70	1230.83
437.90	1267.69
438.11	1322.99
438.31	1277.93
438.52	1271.79
438.72	1267.69
438.93	1241.07
439.13	1257.45
439.34	1271.79
439.54	1294.32
439.75	1269.74
439.95	1261.55
440.16	1216.49
440.36	1273.84
440.57	1284.08
440.77	1253.36
440.98	1214.45
441.18	1329.13
441.39	1271.79
441.59	1255.40
441.80	1325.04
442.00	1222.64
442.21	1306.60
442.41	1257.45
442.62	1263.60
442.82	1288.17
443.02	1265.64
443.23	1288.17
443.43	1218.54
443.64	1239.02
443.84	1288.17
444.05	1302.51
444.25	1255.40
444.46	1236.97
444.66	1218.54
444.87	1236.97
445.07	1331.18
445.28	1304.56
445.48	1257.45
445.69	1308.65
445.89	1257.45
446.09	1308.65
446.30	1191.92
446.50	1333.23
446.71	1218.54
446.91	1241.07
447.12	1296.36
447.32	1355.76
447.53	1298.41
447.73	1275.88
447.93	1271.79
448.14	1232.88
448.34	1292.27
448.55	1290.22
448.75	1284.08
448.96	1243.12
449.16	1265.64
449.36	1320.94
449.57	1234.93
449.77	1232.88
449.98	1263.60
450.18	1247.21
450.39	1290.22
450.59	1288.17
450.79	1247.21
451.00	1224.69
451.20	1249.26
451.41	1236.97
451.61	1179.63
451.81	1296.36
452.02	1241.07
452.22	1288.17
452.43	1261.55
452.63	1339.37
452.84	1271.79
453.04	1239.02
453.24	1267.69
453.45	1314.80
453.65	1212.40
453.86	1329.13
454.06	1288.17
454.26	1312.75
454.47	1286.12
454.67	1239.02
454.87	1218.54
455.08	1257.45
455.28	1296.36
455.49	1226.73
455.69	1216.49
455.89	1296.36
456.10	1314.80
456.30	1224.69
456.51	1273.84
456.71	1333.23
456.91	1286.12
457.12	1255.40
457.32	1290.22
457.52	1314.80
457.73	1196.01
457.93	1329.13
458.14	1320.94
458.34	1263.60
458.54	1277.93
458.75	1351.66
458.95	1290.22
459.15	1198.06
459.36	1261.55
459.56	1357.80
459.76	1245.16
459.97	1241.07
460.17	1290.22
460.37	1269.74
460.58	1253.36
460.78	1329.13
460.99	1241.07
461.19	1259.50
461.39	1300.46
461.60	1232.88
461.80	1286.12
462.00	1255.40
462.21	1243.12
462.41	1310.70
462.61	1320.94
462.82	1247.21
463.02	1302.51
463.22	1296.36
463.43	1269.74
463.63	1284.08
463.83	1243.12
464.04	1259.50
464.24	1318.89
464.44	1228.78
464.64	1269.74
464.85	1204.21
465.05	1286.12
465.25	1286.12
465.46	1329.13
465.66	1267.69
465.86	1253.36
466.07	1271.79
466.27	1298.41
466.47	1341.42
466.68	1247.21
466.88	1261.55
467.08	1230.83
467.29	1279.98
467.49	1232.88
467.69	1279.98
467.89	1261.55
468.10	1277.93
468.30	1218.54
468.50	1241.07
468.71	1216.49
468.91	1226.73
469.11	1282.03
469.31	1345.52
469.52	1200.11
469.72	1314.80
469.92	1253.36
470.13	1204.21
470.33	1296.36
470.53	1249.26
470.73	1265.64
470.94	1282.03
471.14	1196.01
471.34	1277.93
471.54	1239.02
471.75	1306.60
471.95	1239.02
472.15	1277.93
472.36	1230.83
472.56	1245.16
472.76	1236.97
472.96	1249.26
473.17	1316.84
473.37	1337.32
473.57	1284.08
473.77	1378.28
473.98	1286.12
474.18	1261.55
474.38	1300.46
474.58	1292.27
474.79	1271.79
474.99	1261.55
475.19	1214.45
475.39	1263.60
475.60	1214.45
475.80	1306.60
476.00	1310.70
476.20	1306.60
476.41	1302.51
476.61	1302.51
476.81	1300.46
477.01	1241.07
477.21	1351.66
477.42	1292.27
477.62	1214.45
477.82	1286.12
478.02	1284.08
478.23	1298.41
478.43	1224.69
478.63	1265.64
478.83	1189.87
479.03	1288.17
479.24	1267.69
479.44	1288.17
479.64	1218.54
479.84	1212.40
480.04	1241.07
480.25	1210.35
480.45	1247.21
480.65	1296.36
480.85	1253.36
481.06	1265.64
481.26	1251.31
481.46	1277.93
481.66	1210.35
481.86	1241.07
482.06	1263.60
482.27	1230.83
482.47	1230.83
482.67	1206.25
482.87	1288.17
483.07	1312.75
483.28	1220.59
483.48	1347.56
483.68	1269.74
483.88	1259.50
484.08	1249.26
484.29	1286.12
484.49	1275.88
484.69	1245.16
484.89	1198.06
485.09	1253.36
485.29	1198.06
485.50	1290.22
485.70	1275.88
485.90	1300.46
486.10	1308.65
486.30	1288.17
486.50	1273.84
486.71	1292.27
486.91	1284.08
487.11	1228.78
487.31	1292.27
487.51	1310.70
487.71	1267.69
487.91	1265.64
488.12	1251.31
488.32	1261.55
488.52	1333.23
488.72	1150.96
488.92	1304.56
489.12	1232.88
489.32	1259.50
489.53	1288.17
489.73	1302.51
489.93	1312.75
490.13	1236.97
490.33	1318.89
490.53	1263.60
490.73	1265.64
490.94	1273.84
491.14	1230.83
491.34	1239.02
491.54	1236.97
491.74	1275.88
491.94	1290.22
492.14	1288.17
492.34	1230.83
492.54	1288.17
492.75	1241.07
492.95	1386.47
493.15	1261.55
493.35	1302.51
493.55	1316.84
493.75	1277.93
493.95	1322.99
494.15	1220.59
494.35	1296.36
494.56	1284.08
494.76	1310.70
494.96	1263.60
495.16	1320.94
495.36	1226.73
495.56	1298.41
495.76	1284.08
495.96	1292.27
496.16	1275.88
496.36	1333.23
496.56	1247.21
496.77	1236.97
496.97	1288.17
497.17	1288.17
497.37	1284.08
497.57	1261.55
497.77	1267.69
497.97	1251.31
498.17	1226.73
498.37	1253.36
498.57	1239.02
498.77	1253.36
498.97	1228.78
499.17	1347.56
499.38	1273.84
499.58	1239.02
499.78	1259.50
499.98	1189.87
500.18	1290.22
500.38	1322.99
500.58	1257.45
500.78	1259.50
500.98	1296.36
501.18	1226.73
501.38	1282.03
501.58	1316.84
501.78	1267.69
501.98	1232.88
502.18	1345.52
502.38	1275.88
502.58	1277.93
502.78	1228.78
502.98	1331.18
503.18	1191.92
503.38	1271.79
503.59	1290.22
503.79	1290.22
503.99	1257.45
504.19	1277.93
504.39	1298.41
504.59	1320.94
504.79	1236.97
504.99	1279.98
505.19	1310.70
505.39	1374.19
505.59	1298.41
505.79	1230.83
505.99	1279.98
506.19	1325.04
506.39	1267.69
506.59	1257.45
506.79	1335.28
506.99	1200.11
507.19	1273.84
507.39	1300.46
507.59	1310.70
507.79	1208.30
507.99	1292.27
508.19	1234.93
508.39	1331.18
508.59	1249.26
508.79	1337.32
508.99	1269.74
509.19	1210.35
509.39	1214.45
509.59	1243.12
509.79	1312.75
509.99	1198.06
510.19	1288.17
510.39	1239.02
510.59	1265.64
510.79	1257.45
510.99	1314.80
511.19	1355.76
511.39	1327.08
511.59	1320.94
511.79	1306.60
511.99	1251.31
512.19	1222.64
512.38	1308.65
512.58	1298.41
512.78	1249.26
512.98	1331.18
513.18	1275.88
513.38	1224.69
513.58	1245.16
513.78	1275.88
513.98	1259.50
514.18	1290.22
514.38	1337.32
514.58	1269.74
514.78	1249.26
514.98	1288.17
515.18	1279.98
515.38	1306.60
515.58	1316.84
515.78	1335.28
515.98	1337.32
516.18	1253.36
516.38	1222.64
516.57	1220.59
516.77	1275.88
516.97	1335.28
517.17	1187.82
517.37	1290.22
517.57	1282.03
517.77	1271.79
517.97	1179.63
518.17	1239.02
518.37	1304.56
518.57	1271.79
518.77	1284.08
518.97	1218.54
519.16	1232.88
519.36	1294.32
519.56	1296.36
519.76	1292.27
519.96	1251.31
520.16	1292.27
520.36	1249.26
520.56	1239.02
520.76	1247.21
520.96	1347.56
521.16	1173.49
521.35	1226.73
521.55	1265.64
521.75	1230.83
521.95	1282.03
522.15	1409.00
522.35	1271.79
522.55	1253.36
522.75	1320.94
522.95	1366.00
523.14	1247.21
523.34	1208.30
523.54	1249.26
523.74	1214.45
523.94	1310.70
524.14	1245.16
524.34	1273.84
524.54	1218.54
524.73	1251.31
524.93	1306.60
525.13	1329.13
525.33	1220.59
525.53	1271.79
525.73	1351.66
525.93	1224.69
526.13	1296.36
526.32	1224.69
526.52	1257.45
526.72	1282.03
526.92	1220.59
527.12	1306.60
527.32	1234.93
527.52	1316.84
527.71	1308.65
527.91	1333.23
528.11	1255.40
528.31	1208.30
528.51	1226.73
528.71	1198.06
528.90	1322.99
529.10	1288.17
529.30	1337.32
529.50	1279.98
529.70	1284.08
529.90	1230.83
530.09	1279.98
530.29	1345.52
530.49	1351.66
530.69	1236.97
530.89	1232.88
531.09	1292.27
531.28	1310.70
531.48	1241.07
531.68	1232.88
531.88	1279.98
532.08	1259.50
532.28	1269.74
532.47	1308.65
532.67	1284.08
532.87	1249.26
533.07	1253.36
533.27	1304.56
533.46	1320.94
533.66	1343.47
533.86	1325.04
534.06	1247.21
534.26	1269.74
534.45	1282.03
534.65	1247.21
534.85	1327.08
535.05	1298.41
535.25	1292.27
535.44	1302.51
535.64	1275.88
535.84	1288.17
536.04	1263.60
536.24	1267.69
536.43	1236.97
536.63	1341.42
536.83	1230.83
537.03	1288.17
537.22	1222.64
537.42	1257.45
537.62	1230.83
537.82	1294.32
538.02	1279.98
538.21	1196.01
538.41	1304.56
538.61	1337.32
538.81	1296.36
539.00	1298.41
539.20	1261.55
539.40	1304.56
539.60	1232.88
539.79	1320.94
539.99	1284.08
540.19	1318.89
540.39	1224.69
540.58	1257.45
540.78	1273.84
540.98	1255.40
541.18	1316.84
541.37	1320.94
541.57	1294.32
541.77	1279.98
541.97	1298.41
542.16	1320.94
542.36	1253.36
542.56	1359.85
542.76	1245.16
542.95	1308.65
543.15	1341.42
543.35	1249.26
543.54	1275.88
543.74	1282.03
543.94	1263.60
544.14	1279.98
544.33	1247.21
544.53	1359.85
544.73	1300.46
544.93	1216.49
545.12	1286.12
545.32	1290.22
545.52	1298.41
545.71	1355.76
545.91	1245.16
546.11	1265.64
546.30	1222.64
546.50	1302.51
546.70	1329.13
546.90	1304.56
547.09	1226.73
547.29	1288.17
547.49	1257.45
547.68	1222.64
547.88	1224.69
548.08	1224.69
548.27	1322.99
548.47	1325.04
548.67	1236.97
548.87	1304.56
549.06	1257.45
549.26	1304.56
549.46	1253.36
549.65	1304.56
549.85	1312.75
550.05	1284.08
550.24	1298.41
550.44	1284.08
550.64	1200.11
550.83	1308.65
551.03	1269.74
551.23	1245.16
551.42	1302.51
551.62	1294.32
551.82	1355.76
552.01	1296.36
552.21	1232.88
552.41	1288.17
552.60	1341.42
552.80	1306.60
553.00	1247.21
553.19	1331.18
553.39	1288.17
553.59	1245.16
553.78	1269.74
553.98	1349.61
554.17	1243.12
554.37	1343.47
554.57	1292.27
554.76	1318.89
554.96	1304.56
555.16	1316.84
555.35	1302.51
555.55	1234.93
555.75	1273.84
555.94	1339.37
556.14	1265.64
556.33	1288.17
556.53	1308.65
556.73	1302.51
556.92	1296.36
557.12	1308.65
557.32	1312.75
557.51	1300.46
557.71	1294.32
557.90	1263.60
558.10	1257.45
558.30	1183.73
558.49	1314.80
558.69	1273.84
558.88	1218.54
559.08	1294.32
559.28	1378.28
559.47	1298.41
559.67	1329.13
559.86	1296.36
560.06	1241.07
560.26	1191.92
560.45	1259.50
560.65	1282.03
560.84	1310.70
561.04	1257.45
561.24	1261.55
561.43	1271.79
561.63	1249.26
561.82	1212.40
562.02	1273.84
562.22	1251.31
562.41	1310.70
562.61	1208.30
562.80	1286.12
563.00	1304.56
563.19	1271.79
563.39	1331.18
563.59	1296.36
563.78	1257.45
563.98	1173.49
564.17	1298.41
564.37	1320.94
564.56	1224.69
564.76	1243.12
564.96	1247.21
565.15	1353.71
565.35	1284.08
565.54	1255.40
565.74	1224.69
565.93	1265.64
566.13	1257.45
566.32	1337.32
566.52	1296.36
566.71	1230.83
566.91	1298.41
567.11	1337.32
567.30	1298.41
567.50	1241.07
567.69	1298.41
567.89	1277.93
568.08	1284.08
568.28	1273.84
568.47	1218.54
568.67	1294.32
568.86	1320.94
569.06	1226.73
569.25	1265.64
569.45	1282.03
569.64	1296.36
569.84	1316.84
570.04	1251.31
570.23	1288.17
570.43	1282.03
570.62	1345.52
570.82	1275.88
571.01	1292.27
571.21	1247.21
571.40	1282.03
571.60	1288.17
571.79	1304.56
571.99	1224.69
572.18	1304.56
572.38	1357.80
572.57	1247.21
572.77	1322.99
572.96	1320.94
573.16	1259.50
573.35	1290.22
573.55	1269.74
573.74	1300.46
573.94	1322.99
574.13	1243.12
574.33	1239.02
574.52	1224.69
574.71	1294.32
574.91	1302.51
575.10	1304.56
575.30	1392.62
575.49	1306.60
575.69	1189.87
575.88	1337.32
576.08	1226.73
576.27	1347.56
576.47	1288.17
576.66	1318.89
576.86	1232.88
577.05	1265.64
577.25	1312.75
577.44	1226.73
577.64	1234.93
577.83	1355.76
578.02	1255.40
578.22	1275.88
578.41	1259.50
578.61	1290.22
578.80	1318.89
579.00	1325.04
579.19	1298.41
579.39	1249.26
579.58	1224.69
579.77	1314.80
579.97	1228.78
580.16	1271.79
580.36	1286.12
580.55	1249.26
580.75	1316.84
580.94	1271.79
581.13	1239.02
581.33	1288.17
581.52	1284.08
581.72	1320.94
581.91	1275.88
582.11	1255.40
582.30	1251.31
582.49	1316.84
582.69	1298.41
582.88	1277.93
583.08	1206.25
583.27	1279.98
583.47	1282.03
583.66	1230.83
583.85	1284.08
584.05	1310.70
584.24	1314.80
584.44	1312.75
584.63	1269.74
584.82	1284.08
585.02	1290.22
585.21	1269.74
585.41	1275.88
585.60	1263.60
585.79	1261.55
585.99	1304.56
586.18	1312.75
586.37	1273.84
586.57	1239.02
586.76	1263.60
586.96	1218.54
587.15	1243.12
587.34	1284.08
587.54	1230.83
587.73	1253.36
587.93	1253.36
588.12	1286.12
588.31	1273.84
588.51	1220.59
588.70	1257.45
588.89	1259.50
589.09	1257.45
589.28	1230.83
589.47	1288.17
589.67	1269.74
589.86	1312.75
590.06	1255.40
590.25	1261.55
590.44	1318.89
590.64	1224.69
590.83	1271.79
591.02	1263.60
591.22	1282.03
591.41	1331.18
591.60	1296.36
591.80	1284.08
591.99	1296.36
592.18	1271.79
592.38	1333.23
592.57	1349.61
592.76	1310.70
592.96	1232.88
593.15	1265.64
593.34	1261.55
593.54	1296.36
593.73	1312.75
593.92	1300.46
594.12	1247.21
594.31	1269.74
594.50	1271.79
594.70	1245.16
594.89	1316.84
595.08	1331.18
595.28	1220.59
595.47	1314.80
595.66	1325.04
595.86	1312.75
596.05	1288.17
596.24	1294.32
596.43	1300.46
596.63	1232.88
596.82	1191.92
597.01	1370.09
597.21	1290.22
597.40	1243.12
597.59	1249.26
597.79	1312.75
597.98	1304.56
598.17	1296.36
598.36	1265.64
598.56	1312.75
598.75	1296.36
598.94	1308.65
599.14	1286.12
599.33	1310.70
599.52	1263.60
599.71	1331.18
599.91	1341.42
600.10	1355.76
600.29	1247.21
600.48	1275.88
600.68	1253.36
600.87	1308.65
601.06	1310.70
601.26	1308.65
601.45	1329.13
601.64	1286.12
601.83	1253.36
602.03	1234.93
602.22	1271.79
602.41	1279.98
602.60	1353.71
602.80	1304.56
602.99	1277.93
603.18	1314.80
603.37	1288.17
603.57	1255.40
603.76	1206.25
603.95	1343.47
604.14	1337.32
604.34	1275.88
604.53	1335.28
604.72	1306.60
604.91	1302.51
605.10	1292.27
605.30	1288.17
605.49	1284.08
605.68	1288.17
605.87	1322.99
606.07	1308.65
606.26	1243.12
606.45	1316.84
606.64	1322.99
606.84	1312.75
607.03	1279.98
607.22	1372.14
607.41	1245.16
607.60	1298.41
607.80	1257.45
607.99	1279.98
608.18	1253.36
608.37	1263.60
608.56	1290.22
608.76	1320.94
608.95	1265.64
609.14	1241.07
609.33	1363.95
609.52	1241.07
609.72	1355.76
609.91	1339.37
610.10	1257.45
610.29	1325.04
610.48	1294.32
610.68	1366.00
610.87	1335.28
611.06	1288.17
611.25	1269.74
611.44	1273.84
611.63	1294.32
611.83	1288.17
612.02	1312.75
612.21	1345.52
612.40	1306.60
612.59	1214.45
612.79	1282.03
612.98	1296.36
613.17	1257.45
613.36	1236.97
613.55	1273.84
613.74	1368.04
613.93	1263.60
614.13	1308.65
614.32	1298.41
614.51	1294.32
614.70	1257.45
614.89	1275.88
615.08	1351.66
615.28	1277.93
615.47	1273.84
615.66	1290.22
615.85	1212.40
616.04	1288.17
616.23	1263.60
616.42	1368.04
616.62	1310.70
616.81	1325.04
617.00	1253.36
617.19	1286.12
617.38	1269.74
617.57	1206.25
617.76	1300.46
617.95	1286.12
618.15	1241.07
618.34	1273.84
618.53	1239.02
618.72	1337.32
618.91	1312.75
619.10	1261.55
619.29	1245.16
619.48	1267.69
619.68	1210.35
619.87	1294.32
620.06	1263.60
620.25	1257.45
620.44	1257.45
620.63	1302.51
620.82	1322.99
621.01	1271.79
621.20	1224.69
621.39	1284.08
621.59	1304.56
621.78	1277.93
621.97	1322.99
622.16	1191.92
622.35	1282.03
622.54	1368.04
622.73	1329.13
622.92	1314.80
623.11	1255.40
623.30	1302.51
623.49	1257.45
623.68	1306.60
623.88	1366.00
624.07	1259.50
624.26	1320.94
624.45	1259.50
624.64	1216.49
624.83	1318.89
625.02	1249.26
625.21	1265.64
625.40	1282.03
625.59	1220.59
625.78	1329.13
625.97	1345.52
626.16	1296.36
626.35	1302.51
626.54	1300.46
626.74	1327.08
626.93	1273.84
627.12	1255.40
627.31	1269.74
627.50	1304.56
627.69	1286.12
627.88	1206.25
628.07	1343.47
628.26	1335.28
628.45	1294.32
628.64	1320.94
628.83	1279.98
629.02	1263.60
629.21	1302.51
629.40	1304.56
629.59	1294.32
629.78	1320.94
629.97	1347.56
630.16	1322.99
630.35	1327.08
630.54	1282.03
630.73	1325.04
630.92	1292.27
631.11	1351.66
631.30	1329.13
631.49	1351.66
631.68	1998.82
631.87	5875.62
632.06	20868.80
632.25	40324.50
632.44	43265.39
632.63	46574.91
632.82	22560.42
633.01	11347.79
633.20	5920.68
633.39	2826.20
633.58	2432.99
633.77	2357.21
633.96	2146.27
634.15	2047.97
634.34	1859.56
634.53	1802.21
634.72	1834.98
634.91	1640.42
635.10	1501.16
635.29	1574.89
635.48	1587.18
635.67	1570.79
635.86	1456.11
636.05	1429.48
636.24	1449.96
636.43	1372.14
636.62	1435.63
636.81	1376.24
637.00	1388.52
637.19	1390.57
637.38	1355.76
637.57	1404.91
637.76	1318.89
637.95	1384.43
638.14	1355.76
638.33	1359.85
638.52	1265.64
638.71	1355.76
638.89	1282.03
639.08	1259.50
639.27	1306.60
639.46	1243.12
639.65	1257.45
639.84	1290.22
640.03	1216.49
640.22	1279.98
640.41	1263.60
640.60	1224.69
640.79	1265.64
640.98	1282.03
641.17	1273.84
641.36	1253.36
641.55	1318.89
641.74	1282.03
641.92	1253.36
642.11	1239.02
642.30	1261.55
642.49	1294.32
642.68	1292.27
642.87	1269.74
643.06	1298.41
643.25	1339.37
643.44	1337.32
643.63	1257.45
643.82	1298.41
644.00	1310.70
644.19	1265.64
644.38	1320.94
644.57	1263.60
644.76	1282.03
644.95	1259.50
645.14	1263.60
645.33	1249.26
645.52	1239.02
645.71	1189.87
645.89	1302.51
646.08	1318.89
646.27	1271.79
646.46	1339.37
646.65	1282.03
646.84	1294.32
647.03	1257.45
647.22	1218.54
647.40	1316.84
647.59	1222.64
647.78	1273.84
647.97	1335.28
648.16	1236.97
648.35	1261.55
648.54	1310.70
648.73	1312.75
648.91	1310.70
649.10	1265.64
649.29	1265.64
649.48	1296.36
649.67	1277.93
649.86	1304.56
650.05	1214.45
650.23	1265.64
650.42	1206.25
650.61	1292.27
650.80	1292.27
650.99	1298.41
651.18	1277.93
651.36	1251.31
651.55	1284.08
651.74	1298.41
651.93	1286.12
652.12	1277.93
652.31	1331.18
652.49	1255.40
652.68	1286.12
652.87	1275.88
653.06	1255.40
653.25	1232.88
653.44	1290.22
653.62	1306.60
653.81	1286.12
654.00	1232.88
654.19	1294.32
654.38	1298.41
654.56	1232.88
654.75	1247.21
654.94	1306.60
655.13	1294.32
655.32	1279.98
655.51	1251.31
655.69	1288.17
655.88	1322.99
656.07	1314.80
656.26	1306.60
656.45	1249.26
656.63	1302.51
656.82	1269.74
657.01	1261.55
657.20	1226.73
657.38	1265.64
657.57	1318.89
657.76	1290.22
657.95	1314.80
658.14	1185.77
658.32	1220.59
658.51	1253.36
658.70	1284.08
658.89	1284.08
659.08	1249.26
659.26	1263.60
659.45	1249.26
659.64	1292.27
659.83	1335.28
660.01	1320.94
660.20	1322.99
660.39	1269.74
660.58	1232.88
660.76	1257.45
660.95	1187.82
661.14	1320.94
661.33	1302.51
661.51	1247.21
661.70	1269.74
661.89	1249.26
662.08	1247.21
662.26	1290.22
662.45	1200.11
662.64	1306.60
662.83	1275.88
663.01	1257.45
663.20	1273.84
663.39	1306.60
663.58	1253.36
663.76	1327.08
663.95	1353.71
664.14	1322.99
664.32	1335.28
664.51	1241.07
664.70	1245.16
664.89	1355.76
665.07	1302.51
665.26	1339.37
665.45	1243.12
665.64	1251.31
665.82	1265.64
666.01	1218.54
666.20	1216.49
666.38	1333.23
666.57	1222.64
666.76	1290.22
666.95	1282.03
667.13	1284.08
667.32	1226.73
667.51	1257.45
667.69	1220.59
667.88	1331.18
668.07	1251.31
668.25	1298.41
668.44	1363.95
668.63	1267.69
668.81	1228.78
669.00	1273.84
669.19	1228.78
669.38	1249.26
669.56	1257.45
669.75	1325.04
669.94	1296.36
670.12	1230.83
670.31	1236.97
670.50	1304.56
670.68	1210.35
670.87	1220.59
671.06	1277.93
671.24	1277.93
671.43	1218.54
671.62	1314.80
671.80	1314.80
671.99	1314.80
672.18	1298.41
672.36	1286.12
672.55	1286.12
672.74	1245.16
672.92	1245.16
673.11	1265.64
673.29	1271.79
673.48	1304.56
673.67	1257.45
673.85	1302.51
674.04	1236.97
674.23	1165.29
674.41	1366.00
674.60	1288.17
674.79	1298.41
674.97	1232.88
675.16	1265.64
675.34	1310.70
675.53	1247.21
675.72	1296.36
675.90	1269.74
676.09	1282.03
676.28	1236.97
676.46	1337.32
676.65	1329.13
676.83	1288.17
677.02	1187.82
677.21	1249.26
677.39	1253.36
677.58	1228.78
677.77	1271.79
677.95	1208.30
678.14	1251.31
678.32	1273.84
678.51	1226.73
678.70	1277.93
678.88	1286.12
679.07	1261.55
679.25	1273.84
679.44	1247.21
679.63	1253.36
679.81	1271.79
680.00	1245.16
680.18	1273.84
680.37	1292.27
680.55	1341.42
680.74	1288.17
680.93	1245.16
681.11	1298.41
681.30	1247.21
681.48	1294.32
681.67	1232.88
681.85	1284.08
682.04	1234.93
682.23	1222.64
682.41	1265.64
682.60	1261.55
682.78	1249.26
682.97	1204.21
683.15	1255.40
683.34	1279.98
683.53	1333.23
683.71	1269.74
683.90	1314.80
684.08	1282.03
684.27	1241.07
684.45	1200.11
684.64	1300.46
684.82	1335.28
685.01	1189.87
685.19	1343.47
685.38	1288.17
685.57	1316.84
685.75	1214.45
685.94	1310.70
686.12	1329.13
686.31	1296.36
686.49	1314.80
686.68	1226.73
686.86	1277.93
687.05	1224.69
687.23	1214.45
687.42	1271.79
687.60	1247.21
687.79	1148.91
687.97	1318.89
688.16	1230.83
688.34	1341.42
688.53	1353.71
688.71	1269.74
688.90	1322.99
689.08	1337.32
689.27	1251.31
689.45	1275.88
689.64	1286.12
689.82	1279.98
690.01	1187.82
690.19	1241.07
690.38	1306.60
690.56	1318.89
690.75	1230.83
690.93	1282.03
691.12	1222.64
691.30	1243.12
691.49	1247.21
691.67	1298.41
691.86	1282.03
692.04	1290.22
692.23	1265.64
692.41	1245.16
692.60	1300.46
692.78	1241.07
692.97	1294.32
693.15	1263.60
693.34	1236.97
693.52	1206.25
693.71	1243.12
693.89	1288.17
694.08	1298.41
694.26	1275.88
694.44	1191.92
694.63	1298.41
694.81	1282.03
695.00	1320.94
695.18	1191.92
695.37	1282.03
695.55	1290.22
695.74	1247.21
695.92	1208.30
696.10	1288.17
696.29	1224.69
696.47	1292.27
696.66	1396.71
696.84	1279.98
697.03	1257.45
697.21	1290.22
697.40	1288.17
697.58	1318.89
697.76	1210.35
697.95	1257.45
698.13	1284.08
698.32	1230.83
698.50	1247.21
698.68	1265.64
698.87	1241.07
699.05	1255.40
699.24	1296.36
699.42	1349.61
699.61	1243.12
699.79	1255.40
699.97	1286.12
700.16	1269.74
700.34	1222.64
700.53	1279.98
700.71	1290.22
700.89	1230.83
701.08	1234.93
701.26	1304.56
701.45	1296.36
701.63	1232.88
701.81	1277.93
702.00	1304.56
702.18	1290.22
702.37	1247.21
702.55	1296.36
702.73	1273.84
702.92	1222.64
703.10	1284.08
703.28	1255.40
703.47	1288.17
703.65	1339.37
703.84	1298.41
704.02	1241.07
704.20	1302.51
704.39	1318.89
704.57	1249.26
704.75	1226.73
704.94	1290.22
705.12	1245.16
705.30	1265.64
705.49	1257.45
705.67	1259.50
705.86	1243.12
706.04	1314.80
706.22	1304.56
706.41	1239.02
706.59	1304.56
706.77	1257.45
706.96	1177.58
707.14	1251.31
707.32	1347.56
707.51	1286.12
707.69	1230.83
707.87	1265.64
708.06	1243.12
708.24	1308.65
708.42	1316.84
708.61	1292.27
708.79	1265.64
708.97	1333.23
709.16	1279.98
709.34	1320.94
709.52	1236.97
709.71	1345.52
709.89	1277.93
710.07	1255.40
710.26	1265.64
710.44	1273.84
710.62	1279.98
710.80	1230.83
710.99	1273.84
711.17	1206.25
711.35	1191.92
711.54	1253.36
711.72	1214.45
711.90	1261.55
712.09	1277.93
712.27	1236.97
712.45	1314.80
712.63	1234.93
712.82	1298.41
713.00	1282.03
713.18	1265.64
713.37	1300.46
713.55	1310.70
713.73	1245.16
713.91	1251.31
714.10	1263.60
714.28	1249.26
714.46	1320.94
714.65	1329.13
714.83	1204.21
715.01	1279.98
715.19	1366.00
715.38	1290.22
715.56	1269.74
715.74	1259.50
715.92	1257.45
716.11	1279.98
716.29	1290.22
716.47	1331.18
716.65	1290.22
716.84	1320.94
717.02	1294.32
717.20	1212.40
717.38	1239.02
717.57	1386.47
717.75	1245.16
717.93	1294.32
718.11	1290.22
718.30	1232.88
718.48	1316.84
718.66	1232.88
718.84	1282.03
719.03	1282.03
719.21	1282.03
719.39	1200.11
719.57	1269.74
719.75	1232.88
719.94	1366.00
720.12	1163.25
720.30	1279.98
720.48	1277.93
720.67	1275.88
720.85	1249.26
721.03	1243.12
721.21	1212.40
721.39	1290.22
721.58	1263.60
721.76	1308.65
721.94	1277.93
722.12	1316.84
722.30	1265.64
722.49	1304.56
722.67	1277.93
722.85	1277.93
723.03	1222.64
723.21	1316.84
723.40	1236.97
723.58	1224.69
723.76	1224.69
723.94	1241.07
724.12	1255.40
724.30	1288.17
724.49	1216.49
724.67	1304.56
724.85	1245.16
725.03	1198.06
725.21	1214.45
725.40	1282.03
725.58	1232.88
725.76	1208.30
725.94	1279.98
726.12	1306.60
726.30	1279.98
726.49	1294.32
726.67	1265.64
726.85	1273.84
727.03	1255.40
727.21	1322.99
727.39	1183.73
727.57	1220.59
727.76	1206.25
727.94	1243.12
728.12	1232.88
728.30	1236.97
728.48	1261.55
728.66	1239.02
728.84	1255.40
729.03	1269.74
729.21	1304.56
729.39	1279.98
729.57	1284.08
729.75	1261.55
729.93	1255.40
730.11	1322.99
730.30	1277.93
730.48	1296.36
730.66	1296.36
730.84	1300.46
731.02	1320.94
731.20	1337.32
731.38	1316.84
731.56	1271.79
731.74	1232.88
731.93	1257.45
732.11	1359.85
732.29	1255.40
732.47	1282.03
732.65	1279.98
732.83	1222.64
733.01	1304.56
733.19	1200.11
733.37	1284.08
733.56	1228.78
733.74	1267.69
733.92	1269.74
734.10	1236.97
734.28	1255.40
734.46	1267.69
734.64	1314.80
734.82	1245.16
735.00	1220.59
735.18	1245.16
735.36	1236.97
735.54	1306.60
735.73	1265.64
735.91	1234.93
736.09	1241.07
736.27	1273.84
736.45	1226.73
736.63	1198.06
736.81	1288.17
736.99	1253.36
737.17	1355.76
737.35	1353.71
737.53	1218.54
737.71	1298.41
737.89	1279.98
738.07	1273.84
738.25	1189.87
738.43	1247.21
738.61	1236.97
738.80	1228.78
738.98	1228.78
739.16	1294.32
739.34	1253.36
739.52	1312.75
739.70	1179.63
739.88	1271.79
740.06	1228.78
740.24	1259.50
740.42	1343.47
740.60	1232.88
740.78	1298.41
740.96	1265.64
741.14	1302.51
741.32	1277.93
741.50	1257.45
741.68	1363.95
741.86	1304.56
742.04	1259.50
742.22	1277.93
742.40	1222.64
742.58	1265.64
742.76	1290.22
742.94	1275.88
743.12	1286.12
743.30	1212.40
743.48	1251.31
743.66	1241.07
743.84	1232.88
744.02	1212.40
744.20	1226.73
744.38	1169.39
744.56	1230.83
744.74	1325.04
744.92	1312.75
745.10	1277.93
745.28	1331.18
745.46	1292.27
745.64	1265.64
745.82	1187.82
746.00	1204.21
746.18	1212.40
746.36	1265.64
746.54	1232.88
746.72	1265.64
746.90	1214.45
747.08	1249.26
747.26	1255.40
747.44	1320.94
747.62	1196.01
747.80	1263.60
747.98	1241.07
748.15	1306.60
748.33	1312.75
748.51	1306.60
748.69	1267.69
748.87	1249.26
749.05	1239.02
749.23	1286.12
749.41	1226.73
749.59	1253.36
749.77	1277.93
749.95	1259.50
750.13	1234.93
750.31	1296.36
750.49	1253.36
750.67	1208.30
750.85	1232.88
751.03	1222.64
751.20	1208.30
751.38	1310.70
751.56	1273.84
751.74	1234.93
751.92	1224.69
752.10	1239.02
752.28	1214.45
752.46	1253.36
752.64	1261.55
752.82	1255.40
753.00	1243.12
753.18	1279.98
753.35	1251.31
753.53	1257.45
753.71	1314.80
753.89	1292.27
754.07	1290.22
754.25	1329.13
754.43	1302.51
754.61	1234.93
754.79	1277.93
754.97	1300.46
755.14	1296.36
755.32	1273.84
755.50	1263.60
755.68	1282.03
755.86	1294.32
756.04	1329.13
756.22	1263.60
756.40	1286.12
756.57	1265.64
756.75	1333.23
756.93	1327.08
757.11	1310.70
757.29	1259.50
757.47	1302.51
757.65	1329.13
757.82	1249.26
758.00	1206.25
758.18	1214.45
758.36	1337.32
758.54	1304.56
758.72	1294.32
758.90	1290.22
759.07	1265.64
759.25	1349.61
759.43	1275.88
759.61	1212.40
759.79	1335.28
759.97	1236.97
760.15	1255.40
760.32	1282.03
760.50	1265.64
760.68	1284.08
760.86	1255.40
761.04	1288.17
761.22	1271.79
761.39	1251.31
761.57	1277.93
761.75	1271.79
761.93	1275.88
762.11	1282.03
762.28	1208.30
762.46	1232.88
762.64	1257.45
762.82	1234.93
763.00	1279.98
763.18	1214.45
763.35	1279.98
763.53	1347.56
763.71	1198.06
763.89	1304.56
764.07	1218.54
764.24	1271.79
764.42	1284.08
764.60	1314.80
764.78	1273.84
764.96	1247.21
765.13	1312.75
765.31	1273.84
765.49	1273.84
765.67	1273.84
765.84	1335.28
766.02	1206.25
766.20	1298.41
766.38	1277.93
766.56	1271.79
766.73	1277.93
766.91	1259.50
767.09	1198.06
767.27	1239.02
767.44	1273.84
767.62	1239.02
767.80	1245.16
767.98	1271.79
768.15	1288.17
768.33	1247.21
768.51	1241.07
768.69	1214.45
768.87	1298.41
769.04	1345.52
769.22	1247.21
769.40	1308.65
769.58	1279.98
769.75	1263.60
769.93	1259.50
770.11	1222.64
770.28	1220.59
770.46	1267.69
770.64	1239.02
770.82	1232.88
770.99	1314.80
771.17	1236.97
771.35	1279.98
771.53	1327.08
771.70	1316.84
771.88	1310.70
772.06	1245.16
772.23	1239.02
772.41	1257.45
772.59	1261.55
772.77	1331.18
772.94	1251.31
773.12	1269.74
773.30	1275.88
773.47	1239.02
773.65	1279.98
773.83	1241.07
774.01	1320.94
774.18	1271.79
774.36	1249.26
774.54	1271.79
774.71	1210.35
774.89	1316.84
775.07	1294.32
775.24	1306.60
775.42	1239.02
775.60	1236.97
775.78	1251.31
775.95	1247.21
776.13	1265.64
776.31	1290.22
776.48	1224.69
776.66	1306.60
776.84	1220.59
777.01	1236.97
777.19	1239.02
777.37	1314.80
777.54	1300.46
777.72	1331.18
777.90	1228.78
778.07	1230.83
778.25	1314.80
778.43	1304.56
778.60	1202.16
778.78	1275.88
778.96	1253.36
779.13	1320.94
779.31	1241.07
779.49	1255.40
779.66	1214.45
779.84	1271.79
780.01	1294.32
780.19	1277.93
780.37	1275.88
780.54	1277.93
780.72	1220.59
780.90	1282.03
781.07	1279.98
781.25	1167.34
781.43	1288.17
781.60	1222.64
781.78	1234.93
781.95	1202.16
782.13	1275.88
782.31	1142.77
782.48	1290.22
782.66	1255.40
782.83	1325.04
783.01	1282.03
783.19	1282.03
783.36	1251.31
783.54	1245.16
783.72	1265.64
783.89	1249.26
784.07	1275.88
784.24	1277.93
784.42	1277.93
784.60	1275.88
784.77	1247.21
784.95	1220.59
785.12	1316.84
785.30	1304.56
785.47	1171.44
785.65	1222.64
785.83	1261.55
786.00	1241.07
786.18	1351.66
786.35	1255.40
786.53	1316.84
786.71	1247.21
786.88	1222.64
787.06	1296.36
787.23	1253.36
787.41	1296.36
787.58	1239.02
787.76	1279.98
787.94	1183.73
788.11	1230.83
788.29	1267.69
788.46	1296.36
788.64	1265.64
788.81	1263.60
788.99	1296.36
789.16	1232.88
789.34	1255.40
789.52	1318.89
789.69	1265.64
789.87	1253.36
790.04	1220.59
790.22	1239.02
790.39	1249.26
790.57	1216.49
790.74	1322.99
790.92	1314.80
791.09	1261.55
791.27	1349.61
791.44	1267.69
791.62	1230.83
791.79	1243.12
791.97	1277.93
792.15	1173.49
792.32	1271.79
792.50	1259.50
792.67	1255.40
792.85	1249.26
793.02	1284.08
793.20	1265.64
793.37	1308.65
793.55	1265.64
793.72	1269.74
793.90	1284.08
794.07	1216.49
794.25	1282.03
794.42	1343.47
794.60	1304.56
794.77	1200.11
794.95	1241.07
795.12	1284.08
795.30	1230.83
795.47	1234.93
795.65	1302.51
795.82	1181.68
796.00	1234.93
796.17	1282.03
796.34	1273.84
796.52	1148.91
796.69	1257.45
796.87	1331.18
797.04	1222.64
797.22	1255.40
797.39	1265.64
797.57	1257.45
797.74	1273.84
797.92	1234.93
798.09	1275.88
798.27	1220.59
798.44	1275.88
798.62	1241.07
798.79	1320.94
798.96	1243.12
799.14	1286.12
799.31	1290.22
799.49	1320.94
799.66	1239.02
799.84	1310.70
800.01	1253.36
800.19	1257.45
800.36	1300.46
800.53	1267.69
800.71	1265.64
800.88	1327.08
801.06	1286.12
801.23	1282.03
801.41	1277.93
801.58	1279.98
801.75	1261.55
801.93	1292.27
802.10	1236.97
802.28	1337.32
802.45	1271.79
802.63	1300.46
802.80	1187.82
802.97	1241.07
803.15	1191.92
803.32	1241.07
803.50	1241.07
803.67	1322.99
803.84	1224.69
804.02	1271.79
804.19	1236.97
804.37	1236.97
804.54	1271.79
804.71	1269.74
804.89	1286.12
805.06	1327.08
805.24	1232.88
805.41	1241.07
805.58	1232.88
805.76	1208.30
805.93	1249.26
806.10	1271.79
806.28	1341.42
806.45	1243.12
806.63	1269.74
806.80	1206.25
806.97	1251.31
807.15	1206.25
807.32	1288.17
807.49	1288.17
807.67	1200.11
807.84	1224.69
808.01	1251.31
808.19	1282.03
808.36	1241.07
808.54	1243.12
808.71	1220.59
808.88	1277.93
809.06	1290.22
809.23	1306.60
809.40	1302.51
809.58	1327.08
809.75	1261.55
809.92	1306.60
810.10	1292.27
810.27	1310.70
810.44	1245.16
810.62	1241.07
810.79	1312.75
810.96	1331.18
811.14	1277.93
811.31	1243.12
811.48	1306.60
811.66	1224.69
811.83	1239.02
812.00	1265.64
812.18	1343.47
812.35	1257.45
812.52	1292.27
812.69	1271.79
812.87	1296.36
813.04	1312.75
813.21	1196.01
813.39	1214.45
813.56	1222.64
813.73	1208.30
813.91	1312.75
814.08	1257.45
814.25	1273.84
814.42	1304.56
814.60	1220.59
814.77	1322.99
814.94	1292.27
815.12	1265.64
815.29	1220.59
815.46	1298.41
815.63	1257.45
815.81	1241.07
815.98	1243.12
816.15	1300.46
816.33	1273.84
816.50	1288.17
816.67	1300.46
816.84	1271.79
817.02	1265.64
817.19	1327.08
817.36	1251.31
817.53	1267.69
817.71	1282.03
817.88	1273.84
818.05	1304.56
818.22	1294.32
818.40	1353.71
818.57	1290.22
818.74	1220.59
818.91	1279.98
819.09	1267.69
819.26	1310.70
819.43	1173.49
819.60	1302.51
819.78	1245.16
819.95	1318.89
820.12	1257.45
820.29	1257.45
820.47	1216.49
820.64	1247.21
820.81	1290.22
820.98	1331.18
821.15	1249.26
821.33	1251.31
821.50	1314.80
821.67	1228.78
821.84	1220.59
822.02	1296.36
822.19	1198.06
822.36	1271.79
822.53	1239.02
822.70	1318.89
822.88	1288.17
823.05	1306.60
823.22	1325.04
823.39	1255.40
823.56	1263.60
823.74	1265.64
823.91	1277.93
824.08	1347.56
824.25	1259.50
824.42	1249.26
824.60	1251.31
824.77	1236.97
824.94	1273.84
825.11	1288.17
825.28	1306.60
825.45	1255.40
825.63	1263.60
825.80	1304.56
825.97	1314.80
826.14	1247.21
826.31	1253.36
826.48	1271.79
826.66	1275.88
826.83	1245.16
827.00	1255.40
827.17	1218.54
827.34	1368.04
827.51	1191.92
827.69	1265.64
827.86	1288.17
828.03	1191.92
828.20	1253.36
828.37	1189.87
828.54	1282.03
828.71	1257.45
828.89	1261.55
829.06	1216.49
829.23	1228.78
829.40	1243.12
829.57	1234.93
829.74	1282.03
829.91	1230.83
830.09	1236.97
830.26	1273.84
830.43	1269.74
830.60	1273.84
830.77	1220.59
830.94	1300.46
831.11	1292.27
831.28	1296.36
831.46	1279.98
831.63	1189.87
831.80	1318.89
831.97	1261.55
832.14	1284.08
832.31	1282.03
832.48	1232.88
832.65	1267.69
832.82	1341.42
832.99	1284.08
833.17	1320.94
833.34	1263.60
833.51	1236.97
833.68	1230.83
833.85	1271.79
834.02	1226.73
834.19	1273.84
834.36	1220.59
834.53	1224.69
834.70	1222.64
834.87	1310.70
835.04	1273.84
835.22	1177.58
835.39	1261.55
835.56	1243.12
835.73	1247.21
835.90	1279.98
836.07	1204.21
836.24	1286.12
836.41	1249.26
836.58	1314.80
836.75	1316.84
836.92	1304.56
837.09	1279.98
837.26	1271.79
837.43	1292.27
837.60	1290.22
837.77	1249.26
837.94	1302.51
838.12	1216.49
838.29	1243.12
838.46	1200.11
838.63	1271.79
838.80	1259.50
838.97	1288.17
839.14	1337.32
839.31	1290.22
839.48	1284.08
839.65	1261.55
839.82	1206.25
839.99	1249.26
840.16	1208.30
840.33	1230.83
840.50	1294.32
840.67	1247.21
840.84	1247.21
841.01	1206.25
841.18	1224.69
841.35	1220.59
841.52	1282.03
841.69	1279.98
841.86	1345.52
842.03	1261.55
842.20	1191.92
842.37	1271.79
842.54	1282.03
842.71	1273.84
842.88	1259.50
843.05	1212.40
843.22	1267.69
843.39	1267.69
843.56	1255.40
843.73	1316.84
843.90	1312.75
844.07	1275.88
844.24	1304.56
844.41	1331.18
844.58	1220.59
844.75	1255.40
844.92	1288.17
845.09	1325.04
845.26	1265.64
845.43	1193.97
845.60	1208.30
845.77	1302.51
845.94	1241.07
846.10	1286.12
846.27	1261.55
846.44	1306.60
846.61	1306.60
846.78	1275.88
846.95	1255.40
847.12	1257.45
847.29	1277.93
847.46	1200.11
847.63	1302.51
847.80	1284.08
847.97	1220.59
848.14	1236.97
848.31	1288.17
848.48	1208.30
848.65	1255.40
848.82	1271.79
848.98	1253.36
849.15	1239.02
849.32	1353.71
849.49	1216.49
849.66	1230.83
849.83	1241.07
850.00	1232.88
850.17	1296.36
850.34	1200.11
850.51	1232.88
850.68	1222.64
850.85	1282.03
851.01	1257.45
851.18	1243.12
851.35	1294.32
851.52	1241.07
851.69	1296.36
851.86	1249.26
852.03	1236.97
852.20	1249.26
852.37	1290.22
852.53	1247.21
852.70	1208.30
852.87	1288.17
853.04	1236.97
853.21	1216.49
853.38	1277.93
853.55	1292.27
853.72	1288.17
853.89	1230.83
854.05	1275.88
854.22	1245.16
854.39	1198.06
854.56	1271.79
854.73	1308.65
854.90	1292.27
855.07	1314.80
855.23	1282.03
855.40	1267.69
855.57	1273.84
855.74	1298.41
855.91	1247.21
856.08	1271.79
856.25	1212.40
856.41	1218.54
856.58	1208.30
856.75	1306.60
856.92	1349.61
857.09	1343.47
857.26	1247.21
857.42	1261.55
857.59	1329.13
857.76	1273.84
857.93	1310.70
858.10	1265.64
858.27	1277.93
858.43	1255.40
858.60	1269.74
858.77	1220.59
858.94	1273.84
859.11	1259.50
859.27	1314.80
859.44	1222.64
859.61	1255.40
859.78	1318.89
859.95	1292.27
860.12	1314.80
860.28	1277.93
860.45	1232.88
860.62	1241.07
860.79	1286.12
860.95	1368.04
861.12	1224.69
861.29	1224.69
861.46	1247.21
861.63	1322.99
861.79	1255.40
861.96	1196.01
862.13	1310.70
862.30	1239.02
862.47	1251.31
862.63	1253.36
862.80	1206.25
862.97	1239.02
863.14	1279.98
863.30	1224.69
863.47	1230.83
863.64	1257.45
863.81	1296.36
863.97	1243.12
864.14	1273.84
864.31	1306.60
864.48	1206.25
864.65	1275.88
864.81	1232.88
864.98	1228.78
865.15	1310.70
865.32	1294.32
865.48	1279.98
865.65	1277.93
865.82	1198.06
865.98	1339.37
866.15	1265.64
866.32	1249.26
866.49	1216.49
866.65	1169.39
866.82	1214.45
866.99	1275.88
867.16	1271.79
867.32	1273.84
867.49	1218.54
867.66	1294.32
867.83	1265.64
867.99	1214.45
868.16	1282.03
868.33	1318.89
868.49	1282.03
868.66	1181.68
868.83	1316.84
868.99	1224.69
869.16	1255.40
869.33	1247.21
869.50	1325.04
869.66	1351.66
869.83	1214.45
870.00	1247.21
870.16	1267.69
870.33	1222.64
870.50	1279.98
870.66	1224.69
870.83	1267.69
871.00	1216.49
871.17	1243.12
871.33	1247.21
871.50	1304.56
871.67	1318.89
871.83	1259.50
872.00	1286.12
872.17	1198.06
872.33	1329.13
872.50	1312.75
872.67	1306.60
872.83	1249.26
873.00	1277.93
873.17	1216.49
873.33	1228.78
873.50	1277.93
873.67	1228.78
873.83	1259.50
874.00	1200.11
874.16	1304.56
874.33	1251.31
874.50	1288.17
874.66	1302.51
874.83	1267.69
875.00	1255.40
875.16	1275.88
875.33	1294.32
875.50	1279.98
875.66	1255.40
875.83	1292.27
875.99	1255.40
876.16	1253.36
876.33	1312.75
876.49	1271.79
876.66	1284.08
876.83	1245.16
876.99	1306.60
877.16	1322.99
877.32	1269.74
877.49	1232.88
877.66	1261.55
877.82	1288.17
877.99	1218.54
878.15	1292.27
878.32	1224.69
878.49	1288.17
878.65	1222.64
878.82	1310.70
878.98	1275.88
879.15	1320.94
879.32	1271.79
879.48	1228.78
879.65	1279.98
879.81	1206.25
879.98	1372.14
880.15	1234.93
880.31	1247.21
880.48	1263.60
880.64	1296.36
880.81	1322.99
880.97	1273.84
881.14	1306.60
881.31	1249.26
881.47	1310.70
881.64	1333.23
881.80	1292.27
881.97	1298.41
882.13	1308.65
882.30	1210.35
882.47	1267.69
882.63	1243.12
882.80	1204.21
882.96	1265.64
883.13	1239.02
883.29	1214.45
883.46	1210.35
883.62	1273.84
883.79	1239.02
883.95	1275.88
884.12	1196.01
884.29	1316.84
884.45	1284.08
884.62	1263.60
884.78	1253.36
884.95	1320.94
885.11	1271.79
885.28	1206.25
885.44	1306.60
885.61	1251.31
885.77	1275.88
885.94	1302.51
886.10	1329.13
886.27	1226.73
886.43	1265.64
886.60	1263.60
886.76	1247.21
886.93	1343.47
887.09	1239.02
887.26	1230.83
887.42	1308.65
887.59	1189.87
887.75	1259.50
887.92	1216.49
888.08	1265.64
888.25	1257.45
888.41	1302.51
888.58	1271.79
888.74	1304.56
888.91	1312.75
>>>>>End Processed Spectral Data<<<<<
