SpectraSuite Data File
++++++++++++++++++++++++++++++++++++
Date: Sun Apr 03 19:55:31 CEST 2016
User: root
Dark Spectrum Present: No
Reference Spectrum Present: No
Number of Sampled Component Spectra: 1
Spectrometers: USB4C02835
Integration Time (usec): 10000 (USB4C02835)
Spectra Averaged: 1 (USB4C02835)
Boxcar Smoothing: 0 (USB4C02835)
Correct for Electrical Dark: No (USB4C02835)
Strobe/Lamp Enabled: No (USB4C02835)
Correct for Detector Non-linearity: No (USB4C02835)
Correct for Stray Light: No (USB4C02835)
Number of Pixels in Processed Spectrum: 3648
>>>>>Begin Processed Spectral Data<<<<<
177.47	1226.73
177.69	1226.73
177.91	1226.73
178.13	1210.35
178.36	1277.93
178.58	1247.21
178.80	1218.54
179.02	1200.11
179.24	1300.46
179.46	1347.56
179.68	1259.50
179.90	1220.59
180.13	1341.42
180.35	1239.02
180.57	1273.84
180.79	1193.97
181.01	1335.28
181.23	1208.30
181.45	1333.23
181.67	1265.64
181.90	1302.51
182.12	1310.70
182.34	1230.83
182.56	1255.40
182.78	1228.78
183.00	1322.99
183.22	1263.60
183.44	1247.21
183.66	1277.93
183.89	1189.87
184.11	1269.74
184.33	1339.37
184.55	1224.69
184.77	1271.79
184.99	1257.45
185.21	1259.50
185.43	1273.84
185.65	1187.82
185.87	1282.03
186.10	1165.29
186.32	1292.27
186.54	1165.29
186.76	1247.21
186.98	1247.21
187.20	1320.94
187.42	1288.17
187.64	1271.79
187.86	1239.02
188.08	1241.07
188.30	1245.16
188.52	1253.36
188.75	1351.66
188.97	1261.55
189.19	1322.99
189.41	1306.60
189.63	1314.80
189.85	1271.79
190.07	1222.64
190.29	1290.22
190.51	1236.97
190.73	1277.93
190.95	1273.84
191.17	1316.84
191.39	1253.36
191.61	1284.08
191.84	1259.50
192.06	1345.52
192.28	1214.45
192.50	1275.88
192.72	1243.12
192.94	1245.16
193.16	1251.31
193.38	1282.03
193.60	1187.82
193.82	1294.32
194.04	1304.56
194.26	1322.99
194.48	1304.56
194.70	1243.12
194.92	1320.94
195.14	1284.08
195.36	1277.93
195.58	1353.71
195.80	1261.55
196.02	1292.27
196.24	1296.36
196.46	1257.45
196.69	1183.73
196.91	1228.78
197.13	1294.32
197.35	1271.79
197.57	1322.99
197.79	1232.88
198.01	1226.73
198.23	1288.17
198.45	1271.79
198.67	1265.64
198.89	1265.64
199.11	1265.64
199.33	1206.25
199.55	1239.02
199.77	1253.36
199.99	1234.93
200.21	1277.93
200.43	1267.69
200.65	1157.10
200.87	1239.02
201.09	1236.97
201.31	1351.66
201.53	1292.27
201.75	1253.36
201.97	1300.46
202.19	1232.88
202.41	1290.22
202.63	1234.93
202.85	1228.78
203.07	1236.97
203.29	1236.97
203.51	1316.84
203.73	1306.60
203.95	1265.64
204.17	1210.35
204.39	1206.25
204.61	1251.31
204.83	1290.22
205.05	1265.64
205.27	1261.55
205.49	1241.07
205.71	1210.35
205.93	1255.40
206.15	1251.31
206.37	1318.89
206.59	1236.97
206.81	1273.84
207.03	1234.93
207.25	1296.36
207.47	1355.76
207.69	1277.93
207.91	1163.25
208.13	1318.89
208.34	1200.11
208.56	1273.84
208.78	1349.61
209.00	1206.25
209.22	1261.55
209.44	1302.51
209.66	1234.93
209.88	1314.80
210.10	1298.41
210.32	1316.84
210.54	1304.56
210.76	1339.37
210.98	1265.64
211.20	1206.25
211.42	1288.17
211.64	1290.22
211.86	1265.64
212.08	1214.45
212.30	1288.17
212.52	1318.89
212.74	1191.92
212.96	1251.31
213.17	1327.08
213.39	1224.69
213.61	1331.18
213.83	1202.16
214.05	1269.74
214.27	1331.18
214.49	1284.08
214.71	1208.30
214.93	1304.56
215.15	1243.12
215.37	1222.64
215.59	1290.22
215.81	1232.88
216.03	1198.06
216.24	1247.21
216.46	1261.55
216.68	1302.51
216.90	1345.52
217.12	1279.98
217.34	1257.45
217.56	1255.40
217.78	1257.45
218.00	1234.93
218.22	1333.23
218.44	1230.83
218.66	1273.84
218.87	1271.79
219.09	1236.97
219.31	1230.83
219.53	1275.88
219.75	1273.84
219.97	1267.69
220.19	1296.36
220.41	1206.25
220.63	1265.64
220.85	1325.04
221.06	1239.02
221.28	1302.51
221.50	1384.43
221.72	1277.93
221.94	1273.84
222.16	1310.70
222.38	1312.75
222.60	1329.13
222.82	1300.46
223.03	1294.32
223.25	1255.40
223.47	1284.08
223.69	1267.69
223.91	1310.70
224.13	1345.52
224.35	1196.01
224.57	1279.98
224.78	1259.50
225.00	1265.64
225.22	1228.78
225.44	1284.08
225.66	1302.51
225.88	1245.16
226.10	1220.59
226.32	1257.45
226.53	1179.63
226.75	1284.08
226.97	1267.69
227.19	1290.22
227.41	1255.40
227.63	1322.99
227.85	1279.98
228.06	1255.40
228.28	1251.31
228.50	1257.45
228.72	1269.74
228.94	1265.64
229.16	1202.16
229.37	1275.88
229.59	1204.21
229.81	1279.98
230.03	1165.29
230.25	1269.74
230.47	1314.80
230.69	1320.94
230.90	1251.31
231.12	1218.54
231.34	1249.26
231.56	1224.69
231.78	1206.25
232.00	1189.87
232.21	1271.79
232.43	1298.41
232.65	1316.84
232.87	1288.17
233.09	1239.02
233.30	1249.26
233.52	1292.27
233.74	1294.32
233.96	1214.45
234.18	1329.13
234.40	1322.99
234.61	1251.31
234.83	1312.75
235.05	1257.45
235.27	1316.84
235.49	1314.80
235.70	1265.64
235.92	1310.70
236.14	1257.45
236.36	1279.98
236.58	1265.64
236.79	1257.45
237.01	1228.78
237.23	1263.60
237.45	1304.56
237.67	1282.03
237.88	1267.69
238.10	1320.94
238.32	1273.84
238.54	1222.64
238.76	1302.51
238.97	1279.98
239.19	1310.70
239.41	1306.60
239.63	1214.45
239.85	1261.55
240.06	1312.75
240.28	1198.06
240.50	1198.06
240.72	1263.60
240.93	1210.35
241.15	1279.98
241.37	1296.36
241.59	1310.70
241.81	1282.03
242.02	1224.69
242.24	1269.74
242.46	1267.69
242.68	1222.64
242.89	1349.61
243.11	1263.60
243.33	1263.60
243.55	1257.45
243.76	1241.07
243.98	1261.55
244.20	1290.22
244.42	1263.60
244.64	1290.22
244.85	1308.65
245.07	1300.46
245.29	1214.45
245.51	1277.93
245.72	1273.84
245.94	1232.88
246.16	1308.65
246.38	1288.17
246.59	1271.79
246.81	1261.55
247.03	1212.40
247.24	1255.40
247.46	1222.64
247.68	1230.83
247.90	1294.32
248.11	1263.60
248.33	1183.73
248.55	1331.18
248.77	1296.36
248.98	1228.78
249.20	1333.23
249.42	1234.93
249.64	1277.93
249.85	1316.84
250.07	1286.12
250.29	1306.60
250.50	1370.09
250.72	1333.23
250.94	1341.42
251.16	1282.03
251.37	1279.98
251.59	1220.59
251.81	1329.13
252.02	1245.16
252.24	1212.40
252.46	1271.79
252.68	1255.40
252.89	1318.89
253.11	1189.87
253.33	1230.83
253.54	1224.69
253.76	1329.13
253.98	1306.60
254.20	1200.11
254.41	1271.79
254.63	1302.51
254.85	1245.16
255.06	1263.60
255.28	1202.16
255.50	1245.16
255.71	1206.25
255.93	1269.74
256.15	1347.56
256.36	1261.55
256.58	1271.79
256.80	1191.92
257.02	1202.16
257.23	1241.07
257.45	1308.65
257.67	1249.26
257.88	1224.69
258.10	1296.36
258.32	1269.74
258.53	1312.75
258.75	1200.11
258.97	1200.11
259.18	1179.63
259.40	1306.60
259.62	1279.98
259.83	1261.55
260.05	1239.02
260.27	1273.84
260.48	1290.22
260.70	1294.32
260.92	1247.21
261.13	1288.17
261.35	1236.97
261.57	1257.45
261.78	1218.54
262.00	1318.89
262.22	1257.45
262.43	1298.41
262.65	1335.28
262.86	1271.79
263.08	1200.11
263.30	1335.28
263.51	1226.73
263.73	1273.84
263.95	1253.36
264.16	1294.32
264.38	1325.04
264.60	1228.78
264.81	1218.54
265.03	1316.84
265.25	1312.75
265.46	1226.73
265.68	1284.08
265.89	1261.55
266.11	1245.16
266.33	1275.88
266.54	1226.73
266.76	1224.69
266.98	1273.84
267.19	1228.78
267.41	1339.37
267.62	1245.16
267.84	1279.98
268.06	1261.55
268.27	1300.46
268.49	1306.60
268.70	1267.69
268.92	1310.70
269.14	1245.16
269.35	1253.36
269.57	1275.88
269.79	1224.69
270.00	1261.55
270.22	1282.03
270.43	1216.49
270.65	1269.74
270.87	1286.12
271.08	1202.16
271.30	1206.25
271.51	1218.54
271.73	1234.93
271.95	1243.12
272.16	1253.36
272.38	1263.60
272.59	1247.21
272.81	1263.60
273.02	1259.50
273.24	1322.99
273.46	1290.22
273.67	1206.25
273.89	1279.98
274.10	1304.56
274.32	1275.88
274.54	1241.07
274.75	1302.51
274.97	1421.29
275.18	1234.93
275.40	1290.22
275.61	1224.69
275.83	1279.98
276.05	1255.40
276.26	1255.40
276.48	1200.11
276.69	1224.69
276.91	1259.50
277.12	1282.03
277.34	1247.21
277.55	1302.51
277.77	1249.26
277.99	1304.56
278.20	1269.74
278.42	1255.40
278.63	1294.32
278.85	1269.74
279.06	1259.50
279.28	1304.56
279.49	1261.55
279.71	1282.03
279.93	1263.60
280.14	1249.26
280.36	1245.16
280.57	1296.36
280.79	1300.46
281.00	1271.79
281.22	1255.40
281.43	1288.17
281.65	1257.45
281.86	1312.75
282.08	1271.79
282.29	1302.51
282.51	1255.40
282.73	1282.03
282.94	1349.61
283.16	1277.93
283.37	1222.64
283.59	1261.55
283.80	1325.04
284.02	1198.06
284.23	1327.08
284.45	1259.50
284.66	1224.69
284.88	1320.94
285.09	1245.16
285.31	1347.56
285.52	1327.08
285.74	1257.45
285.95	1249.26
286.17	1257.45
286.38	1261.55
286.60	1312.75
286.81	1271.79
287.03	1243.12
287.24	1263.60
287.46	1337.32
287.67	1275.88
287.89	1314.80
288.10	1239.02
288.32	1368.04
288.53	1337.32
288.75	1198.06
288.96	1210.35
289.18	1230.83
289.39	1177.58
289.61	1277.93
289.82	1279.98
290.04	1308.65
290.25	1298.41
290.47	1253.36
290.68	1318.89
290.90	1290.22
291.11	1224.69
291.33	1255.40
291.54	1232.88
291.76	1339.37
291.97	1245.16
292.18	1310.70
292.40	1249.26
292.61	1204.21
292.83	1267.69
293.04	1249.26
293.26	1286.12
293.47	1302.51
293.69	1243.12
293.90	1267.69
294.12	1232.88
294.33	1288.17
294.55	1273.84
294.76	1288.17
294.97	1263.60
295.19	1216.49
295.40	1224.69
295.62	1253.36
295.83	1214.45
296.05	1249.26
296.26	1310.70
296.48	1284.08
296.69	1247.21
296.90	1294.32
297.12	1314.80
297.33	1286.12
297.55	1214.45
297.76	1308.65
297.98	1230.83
298.19	1327.08
298.41	1279.98
298.62	1222.64
298.83	1249.26
299.05	1294.32
299.26	1236.97
299.48	1337.32
299.69	1208.30
299.90	1318.89
300.12	1310.70
300.33	1259.50
300.55	1226.73
300.76	1292.27
300.98	1292.27
301.19	1245.16
301.40	1304.56
301.62	1249.26
301.83	1282.03
302.05	1241.07
302.26	1255.40
302.47	1245.16
302.69	1224.69
302.90	1263.60
303.12	1257.45
303.33	1249.26
303.54	1300.46
303.76	1279.98
303.97	1271.79
304.19	1308.65
304.40	1228.78
304.61	1230.83
304.83	1290.22
305.04	1300.46
305.26	1341.42
305.47	1286.12
305.68	1298.41
305.90	1298.41
306.11	1249.26
306.33	1286.12
306.54	1134.57
306.75	1286.12
306.97	1220.59
307.18	1257.45
307.39	1249.26
307.61	1222.64
307.82	1234.93
308.04	1251.31
308.25	1261.55
308.46	1255.40
308.68	1261.55
308.89	1230.83
309.10	1265.64
309.32	1284.08
309.53	1288.17
309.74	1269.74
309.96	1241.07
310.17	1294.32
310.39	1382.38
310.60	1316.84
310.81	1165.29
311.03	1255.40
311.24	1284.08
311.45	1259.50
311.67	1228.78
311.88	1320.94
312.09	1220.59
312.31	1331.18
312.52	1273.84
312.73	1298.41
312.95	1234.93
313.16	1261.55
313.37	1282.03
313.59	1277.93
313.80	1261.55
314.01	1286.12
314.23	1181.68
314.44	1277.93
314.65	1189.87
314.87	1298.41
315.08	1177.58
315.29	1337.32
315.51	1298.41
315.72	1245.16
315.93	1312.75
316.15	1267.69
316.36	1325.04
316.57	1279.98
316.79	1327.08
317.00	1228.78
317.21	1275.88
317.43	1337.32
317.64	1263.60
317.85	1306.60
318.07	1318.89
318.28	1214.45
318.49	1204.21
318.70	1290.22
318.92	1220.59
319.13	1288.17
319.34	1249.26
319.56	1282.03
319.77	1286.12
319.98	1325.04
320.20	1243.12
320.41	1275.88
320.62	1318.89
320.83	1327.08
321.05	1255.40
321.26	1318.89
321.47	1267.69
321.69	1347.56
321.90	1306.60
322.11	1275.88
322.32	1241.07
322.54	1263.60
322.75	1171.44
322.96	1181.68
323.18	1210.35
323.39	1263.60
323.60	1234.93
323.81	1286.12
324.03	1302.51
324.24	1222.64
324.45	1349.61
324.66	1202.16
324.88	1200.11
325.09	1290.22
325.30	1239.02
325.52	1241.07
325.73	1284.08
325.94	1251.31
326.15	1261.55
326.37	1255.40
326.58	1234.93
326.79	1220.59
327.00	1302.51
327.22	1322.99
327.43	1343.47
327.64	1241.07
327.85	1247.21
328.07	1380.33
328.28	1314.80
328.49	1288.17
328.70	1249.26
328.92	1226.73
329.13	1245.16
329.34	1361.90
329.55	1267.69
329.76	1232.88
329.98	1279.98
330.19	1284.08
330.40	1245.16
330.61	1261.55
330.83	1339.37
331.04	1282.03
331.25	1290.22
331.46	1230.83
331.68	1273.84
331.89	1214.45
332.10	1298.41
332.31	1269.74
332.52	1271.79
332.74	1273.84
332.95	1341.42
333.16	1212.40
333.37	1253.36
333.58	1255.40
333.80	1249.26
334.01	1251.31
334.22	1284.08
334.43	1271.79
334.64	1288.17
334.86	1265.64
335.07	1300.46
335.28	1241.07
335.49	1277.93
335.70	1206.25
335.92	1249.26
336.13	1337.32
336.34	1239.02
336.55	1193.97
336.76	1247.21
336.98	1296.36
337.19	1267.69
337.40	1257.45
337.61	1251.31
337.82	1187.82
338.04	1257.45
338.25	1243.12
338.46	1265.64
338.67	1241.07
338.88	1275.88
339.09	1226.73
339.31	1263.60
339.52	1300.46
339.73	1224.69
339.94	1153.01
340.15	1255.40
340.36	1214.45
340.58	1273.84
340.79	1318.89
341.00	1277.93
341.21	1284.08
341.42	1294.32
341.63	1239.02
341.85	1249.26
342.06	1277.93
342.27	1275.88
342.48	1271.79
342.69	1230.83
342.90	1282.03
343.12	1251.31
343.33	1228.78
343.54	1269.74
343.75	1251.31
343.96	1284.08
344.17	1310.70
344.38	1247.21
344.60	1198.06
344.81	1253.36
345.02	1251.31
345.23	1220.59
345.44	1314.80
345.65	1302.51
345.86	1304.56
346.07	1261.55
346.29	1171.44
346.50	1275.88
346.71	1271.79
346.92	1363.95
347.13	1296.36
347.34	1224.69
347.55	1292.27
347.76	1271.79
347.98	1224.69
348.19	1261.55
348.40	1284.08
348.61	1312.75
348.82	1284.08
349.03	1202.16
349.24	1210.35
349.45	1302.51
349.66	1273.84
349.88	1187.82
350.09	1361.90
350.30	1257.45
350.51	1294.32
350.72	1273.84
350.93	1288.17
351.14	1241.07
351.35	1245.16
351.56	1218.54
351.77	1275.88
351.99	1286.12
352.20	1273.84
352.41	1298.41
352.62	1183.73
352.83	1261.55
353.04	1279.98
353.25	1318.89
353.46	1296.36
353.67	1298.41
353.88	1220.59
354.09	1384.43
354.30	1296.36
354.52	1241.07
354.73	1226.73
354.94	1214.45
355.15	1282.03
355.36	1259.50
355.57	1228.78
355.78	1236.97
355.99	1316.84
356.20	1294.32
356.41	1341.42
356.62	1239.02
356.83	1210.35
357.04	1288.17
357.25	1267.69
357.46	1239.02
357.68	1212.40
357.89	1251.31
358.10	1214.45
358.31	1257.45
358.52	1232.88
358.73	1212.40
358.94	1222.64
359.15	1202.16
359.36	1216.49
359.57	1228.78
359.78	1265.64
359.99	1232.88
360.20	1271.79
360.41	1163.25
360.62	1265.64
360.83	1269.74
361.04	1265.64
361.25	1343.47
361.46	1292.27
361.67	1286.12
361.88	1265.64
362.09	1257.45
362.30	1294.32
362.51	1314.80
362.72	1267.69
362.93	1314.80
363.14	1308.65
363.35	1269.74
363.56	1243.12
363.78	1257.45
363.99	1241.07
364.20	1243.12
364.41	1314.80
364.62	1261.55
364.83	1286.12
365.04	1251.31
365.25	1239.02
365.46	1239.02
365.67	1320.94
365.88	1259.50
366.09	1302.51
366.30	1277.93
366.51	1204.21
366.72	1257.45
366.93	1251.31
367.14	1255.40
367.35	1257.45
367.56	1234.93
367.77	1310.70
367.98	1261.55
368.18	1265.64
368.39	1222.64
368.60	1322.99
368.81	1277.93
369.02	1261.55
369.23	1273.84
369.44	1259.50
369.65	1308.65
369.86	1312.75
370.07	1230.83
370.28	1226.73
370.49	1267.69
370.70	1222.64
370.91	1214.45
371.12	1341.42
371.33	1230.83
371.54	1220.59
371.75	1353.71
371.96	1214.45
372.17	1306.60
372.38	1265.64
372.59	1263.60
372.80	1325.04
373.01	1261.55
373.22	1284.08
373.43	1202.16
373.64	1279.98
373.85	1212.40
374.06	1245.16
374.26	1249.26
374.47	1253.36
374.68	1320.94
374.89	1400.81
375.10	1218.54
375.31	1343.47
375.52	1339.37
375.73	1241.07
375.94	1271.79
376.15	1302.51
376.36	1243.12
376.57	1228.78
376.78	1247.21
376.99	1267.69
377.20	1279.98
377.40	1279.98
377.61	1239.02
377.82	1279.98
378.03	1269.74
378.24	1298.41
378.45	1308.65
378.66	1222.64
378.87	1286.12
379.08	1335.28
379.29	1314.80
379.50	1230.83
379.71	1277.93
379.91	1316.84
380.12	1253.36
380.33	1282.03
380.54	1296.36
380.75	1261.55
380.96	1263.60
381.17	1212.40
381.38	1355.76
381.59	1308.65
381.80	1267.69
382.00	1322.99
382.21	1224.69
382.42	1372.14
382.63	1232.88
382.84	1255.40
383.05	1241.07
383.26	1288.17
383.47	1320.94
383.68	1253.36
383.88	1204.21
384.09	1271.79
384.30	1249.26
384.51	1247.21
384.72	1271.79
384.93	1282.03
385.14	1263.60
385.35	1331.18
385.55	1247.21
385.76	1243.12
385.97	1312.75
386.18	1245.16
386.39	1265.64
386.60	1255.40
386.81	1298.41
387.02	1302.51
387.22	1273.84
387.43	1265.64
387.64	1341.42
387.85	1302.51
388.06	1249.26
388.27	1224.69
388.48	1263.60
388.68	1239.02
388.89	1290.22
389.10	1241.07
389.31	1257.45
389.52	1255.40
389.73	1257.45
389.93	1263.60
390.14	1245.16
390.35	1277.93
390.56	1228.78
390.77	1312.75
390.98	1296.36
391.18	1322.99
391.39	1239.02
391.60	1249.26
391.81	1304.56
392.02	1296.36
392.23	1298.41
392.43	1239.02
392.64	1286.12
392.85	1306.60
393.06	1247.21
393.27	1251.31
393.47	1304.56
393.68	1257.45
393.89	1230.83
394.10	1218.54
394.31	1310.70
394.52	1329.13
394.72	1261.55
394.93	1261.55
395.14	1271.79
395.35	1265.64
395.56	1290.22
395.76	1304.56
395.97	1312.75
396.18	1282.03
396.39	1249.26
396.60	1269.74
396.80	1296.36
397.01	1263.60
397.22	1228.78
397.43	1232.88
397.64	1214.45
397.84	1159.15
398.05	1304.56
398.26	1241.07
398.47	1296.36
398.67	1286.12
398.88	1208.30
399.09	1245.16
399.30	1222.64
399.51	1304.56
399.71	1329.13
399.92	1247.21
400.13	1292.27
400.34	1275.88
400.54	1234.93
400.75	1337.32
400.96	1259.50
401.17	1296.36
401.37	1198.06
401.58	1288.17
401.79	1226.73
402.00	1251.31
402.21	1316.84
402.41	1322.99
402.62	1169.39
402.83	1265.64
403.04	1255.40
403.24	1224.69
403.45	1267.69
403.66	1345.52
403.87	1245.16
404.07	1349.61
404.28	1255.40
404.49	1239.02
404.70	1267.69
404.90	1300.46
405.11	1286.12
405.32	1181.68
405.52	1282.03
405.73	1273.84
405.94	1275.88
406.15	1249.26
406.35	1247.21
406.56	1298.41
406.77	1284.08
406.98	1208.30
407.18	1269.74
407.39	1269.74
407.60	1234.93
407.80	1255.40
408.01	1251.31
408.22	1222.64
408.43	1318.89
408.63	1277.93
408.84	1284.08
409.05	1322.99
409.25	1302.51
409.46	1239.02
409.67	1265.64
409.88	1327.08
410.08	1271.79
410.29	1179.63
410.50	1232.88
410.70	1257.45
410.91	1247.21
411.12	1204.21
411.32	1187.82
411.53	1189.87
411.74	1255.40
411.95	1275.88
412.15	1359.85
412.36	1222.64
412.57	1263.60
412.77	1357.80
412.98	1327.08
413.19	1273.84
413.39	1304.56
413.60	1236.97
413.81	1298.41
414.01	1224.69
414.22	1296.36
414.43	1259.50
414.63	1290.22
414.84	1243.12
415.05	1253.36
415.25	1236.97
415.46	1241.07
415.67	1288.17
415.87	1234.93
416.08	1259.50
416.29	1236.97
416.49	1267.69
416.70	1316.84
416.91	1318.89
417.11	1292.27
417.32	1251.31
417.53	1249.26
417.73	1273.84
417.94	1196.01
418.15	1290.22
418.35	1253.36
418.56	1300.46
418.77	1222.64
418.97	1200.11
419.18	1284.08
419.38	1161.20
419.59	1243.12
419.80	1298.41
420.00	1273.84
420.21	1277.93
420.42	1302.51
420.62	1230.83
420.83	1275.88
421.04	1234.93
421.24	1322.99
421.45	1257.45
421.65	1279.98
421.86	1327.08
422.07	1298.41
422.27	1216.49
422.48	1271.79
422.69	1259.50
422.89	1187.82
423.10	1241.07
423.30	1331.18
423.51	1179.63
423.72	1312.75
423.92	1226.73
424.13	1259.50
424.33	1245.16
424.54	1259.50
424.75	1228.78
424.95	1304.56
425.16	1261.55
425.36	1273.84
425.57	1329.13
425.78	1263.60
425.98	1187.82
426.19	1294.32
426.39	1257.45
426.60	1251.31
426.81	1306.60
427.01	1290.22
427.22	1259.50
427.42	1296.36
427.63	1318.89
427.83	1320.94
428.04	1247.21
428.25	1239.02
428.45	1275.88
428.66	1288.17
428.86	1267.69
429.07	1245.16
429.28	1255.40
429.48	1318.89
429.69	1347.56
429.89	1239.02
430.10	1243.12
430.30	1286.12
430.51	1329.13
430.71	1249.26
430.92	1284.08
431.13	1230.83
431.33	1296.36
431.54	1228.78
431.74	1325.04
431.95	1257.45
432.15	1239.02
432.36	1236.97
432.56	1261.55
432.77	1232.88
432.98	1347.56
433.18	1351.66
433.39	1296.36
433.59	1277.93
433.80	1212.40
434.00	1308.65
434.21	1361.90
434.41	1210.35
434.62	1234.93
434.82	1230.83
435.03	1329.13
435.23	1288.17
435.44	1251.31
435.64	1241.07
435.85	1275.88
436.06	1298.41
436.26	1230.83
436.47	1329.13
436.67	1304.56
436.88	1232.88
437.08	1259.50
437.29	1239.02
437.49	1261.55
437.70	1210.35
437.90	1224.69
438.11	1245.16
438.31	1271.79
438.52	1259.50
438.72	1279.98
438.93	1234.93
439.13	1308.65
439.34	1316.84
439.54	1269.74
439.75	1220.59
439.95	1279.98
440.16	1210.35
440.36	1282.03
440.57	1249.26
440.77	1214.45
440.98	1191.92
441.18	1255.40
441.39	1294.32
441.59	1253.36
441.80	1206.25
442.00	1210.35
442.21	1255.40
442.41	1277.93
442.62	1232.88
442.82	1282.03
443.02	1204.21
443.23	1214.45
443.43	1200.11
443.64	1247.21
443.84	1249.26
444.05	1261.55
444.25	1236.97
444.46	1232.88
444.66	1243.12
444.87	1306.60
445.07	1230.83
445.28	1282.03
445.48	1282.03
445.69	1273.84
445.89	1259.50
446.09	1277.93
446.30	1288.17
446.50	1282.03
446.71	1230.83
446.91	1320.94
447.12	1320.94
447.32	1249.26
447.53	1279.98
447.73	1353.71
447.93	1325.04
448.14	1243.12
448.34	1284.08
448.55	1298.41
448.75	1222.64
448.96	1318.89
449.16	1253.36
449.36	1370.09
449.57	1298.41
449.77	1374.19
449.98	1261.55
450.18	1314.80
450.39	1245.16
450.59	1300.46
450.79	1292.27
451.00	1273.84
451.20	1290.22
451.41	1277.93
451.61	1261.55
451.81	1247.21
452.02	1171.44
452.22	1286.12
452.43	1275.88
452.63	1261.55
452.84	1284.08
453.04	1228.78
453.24	1292.27
453.45	1279.98
453.65	1257.45
453.86	1271.79
454.06	1347.56
454.26	1271.79
454.47	1257.45
454.67	1370.09
454.87	1247.21
455.08	1187.82
455.28	1306.60
455.49	1261.55
455.69	1245.16
455.89	1273.84
456.10	1284.08
456.30	1234.93
456.51	1296.36
456.71	1275.88
456.91	1275.88
457.12	1255.40
457.32	1228.78
457.52	1277.93
457.73	1279.98
457.93	1206.25
458.14	1255.40
458.34	1261.55
458.54	1286.12
458.75	1208.30
458.95	1271.79
459.15	1228.78
459.36	1308.65
459.56	1271.79
459.76	1322.99
459.97	1271.79
460.17	1363.95
460.37	1327.08
460.58	1247.21
460.78	1312.75
460.99	1251.31
461.19	1298.41
461.39	1275.88
461.60	1306.60
461.80	1253.36
462.00	1265.64
462.21	1277.93
462.41	1220.59
462.61	1208.30
462.82	1314.80
463.02	1296.36
463.22	1232.88
463.43	1304.56
463.63	1239.02
463.83	1243.12
464.04	1349.61
464.24	1294.32
464.44	1316.84
464.64	1253.36
464.85	1304.56
465.05	1277.93
465.25	1247.21
465.46	1288.17
465.66	1325.04
465.86	1296.36
466.07	1298.41
466.27	1288.17
466.47	1232.88
466.68	1357.80
466.88	1239.02
467.08	1298.41
467.29	1247.21
467.49	1275.88
467.69	1282.03
467.89	1236.97
468.10	1255.40
468.30	1308.65
468.50	1271.79
468.71	1191.92
468.91	1288.17
469.11	1247.21
469.31	1372.14
469.52	1329.13
469.72	1275.88
469.92	1300.46
470.13	1345.52
470.33	1208.30
470.53	1318.89
470.73	1300.46
470.94	1351.66
471.14	1202.16
471.34	1255.40
471.54	1210.35
471.75	1257.45
471.95	1259.50
472.15	1282.03
472.36	1282.03
472.56	1226.73
472.76	1230.83
472.96	1277.93
473.17	1212.40
473.37	1363.95
473.57	1214.45
473.77	1241.07
473.98	1267.69
474.18	1202.16
474.38	1288.17
474.58	1279.98
474.79	1228.78
474.99	1200.11
475.19	1241.07
475.39	1263.60
475.60	1292.27
475.80	1216.49
476.00	1245.16
476.20	1265.64
476.41	1349.61
476.61	1277.93
476.81	1234.93
477.01	1288.17
477.21	1267.69
477.42	1343.47
477.62	1175.53
477.82	1214.45
478.02	1312.75
478.23	1271.79
478.43	1251.31
478.63	1284.08
478.83	1267.69
479.03	1292.27
479.24	1298.41
479.44	1261.55
479.64	1273.84
479.84	1259.50
480.04	1300.46
480.25	1288.17
480.45	1210.35
480.65	1251.31
480.85	1286.12
481.06	1249.26
481.26	1288.17
481.46	1318.89
481.66	1316.84
481.86	1261.55
482.06	1257.45
482.27	1298.41
482.47	1273.84
482.67	1286.12
482.87	1171.44
483.07	1308.65
483.28	1236.97
483.48	1327.08
483.68	1241.07
483.88	1294.32
484.08	1279.98
484.29	1204.21
484.49	1296.36
484.69	1275.88
484.89	1245.16
485.09	1359.85
485.29	1257.45
485.50	1230.83
485.70	1196.01
485.90	1247.21
486.10	1224.69
486.30	1312.75
486.50	1286.12
486.71	1265.64
486.91	1316.84
487.11	1331.18
487.31	1241.07
487.51	1308.65
487.71	1204.21
487.91	1236.97
488.12	1269.74
488.32	1214.45
488.52	1230.83
488.72	1282.03
488.92	1267.69
489.12	1292.27
489.32	1320.94
489.53	1325.04
489.73	1239.02
489.93	1290.22
490.13	1218.54
490.33	1247.21
490.53	1329.13
490.73	1245.16
490.94	1363.95
491.14	1249.26
491.34	1343.47
491.54	1275.88
491.74	1239.02
491.94	1284.08
492.14	1251.31
492.34	1288.17
492.54	1380.33
492.75	1304.56
492.95	1333.23
493.15	1249.26
493.35	1271.79
493.55	1249.26
493.75	1218.54
493.95	1253.36
494.15	1171.44
494.35	1257.45
494.56	1236.97
494.76	1245.16
494.96	1298.41
495.16	1300.46
495.36	1263.60
495.56	1191.92
495.76	1230.83
495.96	1265.64
496.16	1261.55
496.36	1273.84
496.56	1243.12
496.77	1271.79
496.97	1232.88
497.17	1226.73
497.37	1232.88
497.57	1290.22
497.77	1255.40
497.97	1230.83
498.17	1320.94
498.37	1290.22
498.57	1247.21
498.77	1282.03
498.97	1241.07
499.17	1222.64
499.38	1230.83
499.58	1265.64
499.78	1306.60
499.98	1310.70
500.18	1329.13
500.38	1282.03
500.58	1277.93
500.78	1298.41
500.98	1290.22
501.18	1277.93
501.38	1282.03
501.58	1224.69
501.78	1331.18
501.98	1320.94
502.18	1300.46
502.38	1388.52
502.58	1273.84
502.78	1314.80
502.98	1255.40
503.18	1331.18
503.38	1232.88
503.59	1259.50
503.79	1286.12
503.99	1226.73
504.19	1257.45
504.39	1249.26
504.59	1327.08
504.79	1257.45
504.99	1316.84
505.19	1300.46
505.39	1267.69
505.59	1288.17
505.79	1316.84
505.99	1251.31
506.19	1325.04
506.39	1335.28
506.59	1222.64
506.79	1265.64
506.99	1259.50
507.19	1282.03
507.39	1234.93
507.59	1300.46
507.79	1304.56
507.99	1292.27
508.19	1284.08
508.39	1339.37
508.59	1282.03
508.79	1255.40
508.99	1294.32
509.19	1306.60
509.39	1265.64
509.59	1304.56
509.79	1191.92
509.99	1318.89
510.19	1214.45
510.39	1269.74
510.59	1284.08
510.79	1232.88
510.99	1294.32
511.19	1271.79
511.39	1341.42
511.59	1273.84
511.79	1327.08
511.99	1298.41
512.19	1181.68
512.38	1265.64
512.58	1298.41
512.78	1236.97
512.98	1247.21
513.18	1249.26
513.38	1318.89
513.58	1363.95
513.78	1288.17
513.98	1298.41
514.18	1220.59
514.38	1282.03
514.58	1282.03
514.78	1265.64
514.98	1343.47
515.18	1269.74
515.38	1314.80
515.58	1306.60
515.78	1341.42
515.98	1255.40
516.18	1230.83
516.38	1343.47
516.57	1247.21
516.77	1357.80
516.97	1261.55
517.17	1275.88
517.37	1282.03
517.57	1247.21
517.77	1245.16
517.97	1257.45
518.17	1275.88
518.37	1220.59
518.57	1292.27
518.77	1298.41
518.97	1288.17
519.16	1300.46
519.36	1337.32
519.56	1302.51
519.76	1202.16
519.96	1265.64
520.16	1275.88
520.36	1228.78
520.56	1331.18
520.76	1279.98
520.96	1255.40
521.16	1265.64
521.35	1325.04
521.55	1363.95
521.75	1290.22
521.95	1249.26
522.15	1241.07
522.35	1296.36
522.55	1243.12
522.75	1312.75
522.95	1150.96
523.14	1257.45
523.34	1267.69
523.54	1284.08
523.74	1230.83
523.94	1232.88
524.14	1304.56
524.34	1247.21
524.54	1265.64
524.73	1288.17
524.93	1263.60
525.13	1232.88
525.33	1249.26
525.53	1320.94
525.73	1261.55
525.93	1243.12
526.13	1259.50
526.32	1255.40
526.52	1300.46
526.72	1255.40
526.92	1271.79
527.12	1275.88
527.32	1310.70
527.52	1286.12
527.71	1279.98
527.91	1286.12
528.11	1179.63
528.31	1208.30
528.51	1279.98
528.71	1249.26
528.90	1200.11
529.10	1329.13
529.30	1370.09
529.50	1339.37
529.70	1298.41
529.90	1355.76
530.09	1333.23
530.29	1306.60
530.49	1322.99
530.69	1267.69
530.89	1288.17
531.09	1241.07
531.28	1286.12
531.48	1261.55
531.68	1322.99
531.88	1300.46
532.08	1314.80
532.28	1241.07
532.47	1236.97
532.67	1271.79
532.87	1310.70
533.07	1273.84
533.27	1220.59
533.46	1273.84
533.66	1284.08
533.86	1312.75
534.06	1290.22
534.26	1265.64
534.45	1306.60
534.65	1302.51
534.85	1261.55
535.05	1228.78
535.25	1269.74
535.44	1208.30
535.64	1279.98
535.84	1318.89
536.04	1251.31
536.24	1243.12
536.43	1355.76
536.63	1257.45
536.83	1304.56
537.03	1271.79
537.22	1273.84
537.42	1224.69
537.62	1216.49
537.82	1259.50
538.02	1343.47
538.21	1286.12
538.41	1253.36
538.61	1218.54
538.81	1277.93
539.00	1271.79
539.20	1269.74
539.40	1234.93
539.60	1316.84
539.79	1271.79
539.99	1282.03
540.19	1335.28
540.39	1292.27
540.58	1304.56
540.78	1331.18
540.98	1282.03
541.18	1271.79
541.37	1312.75
541.57	1265.64
541.77	1257.45
541.97	1265.64
542.16	1288.17
542.36	1337.32
542.56	1331.18
542.76	1275.88
542.95	1251.31
543.15	1298.41
543.35	1286.12
543.54	1298.41
543.74	1314.80
543.94	1325.04
544.14	1222.64
544.33	1271.79
544.53	1304.56
544.73	1277.93
544.93	1249.26
545.12	1286.12
545.32	1230.83
545.52	1206.25
545.71	1290.22
545.91	1245.16
546.11	1277.93
546.30	1288.17
546.50	1279.98
546.70	1241.07
546.90	1255.40
547.09	1304.56
547.29	1236.97
547.49	1353.71
547.68	1279.98
547.88	1243.12
548.08	1288.17
548.27	1331.18
548.47	1243.12
548.67	1310.70
548.87	1275.88
549.06	1210.35
549.26	1372.14
549.46	1279.98
549.65	1292.27
549.85	1228.78
550.05	1279.98
550.24	1269.74
550.44	1329.13
550.64	1247.21
550.83	1261.55
551.03	1298.41
551.23	1316.84
551.42	1271.79
551.62	1335.28
551.82	1216.49
552.01	1335.28
552.21	1277.93
552.41	1298.41
552.60	1249.26
552.80	1214.45
553.00	1327.08
553.19	1241.07
553.39	1322.99
553.59	1255.40
553.78	1208.30
553.98	1257.45
554.17	1232.88
554.37	1251.31
554.57	1282.03
554.76	1269.74
554.96	1243.12
555.16	1228.78
555.35	1286.12
555.55	1286.12
555.75	1236.97
555.94	1329.13
556.14	1267.69
556.33	1325.04
556.53	1263.60
556.73	1228.78
556.92	1257.45
557.12	1282.03
557.32	1284.08
557.51	1298.41
557.71	1210.35
557.90	1279.98
558.10	1290.22
558.30	1273.84
558.49	1255.40
558.69	1247.21
558.88	1220.59
559.08	1167.34
559.28	1255.40
559.47	1265.64
559.67	1335.28
559.86	1359.85
560.06	1255.40
560.26	1275.88
560.45	1277.93
560.65	1380.33
560.84	1273.84
561.04	1279.98
561.24	1245.16
561.43	1331.18
561.63	1333.23
561.82	1304.56
562.02	1255.40
562.22	1265.64
562.41	1273.84
562.61	1343.47
562.80	1253.36
563.00	1314.80
563.19	1277.93
563.39	1320.94
563.59	1212.40
563.78	1347.56
563.98	1232.88
564.17	1224.69
564.37	1331.18
564.56	1341.42
564.76	1337.32
564.96	1239.02
565.15	1275.88
565.35	1259.50
565.54	1325.04
565.74	1304.56
565.93	1322.99
566.13	1312.75
566.32	1232.88
566.52	1253.36
566.71	1220.59
566.91	1282.03
567.11	1257.45
567.30	1251.31
567.50	1167.34
567.69	1269.74
567.89	1245.16
568.08	1273.84
568.28	1259.50
568.47	1288.17
568.67	1245.16
568.86	1263.60
569.06	1241.07
569.25	1298.41
569.45	1232.88
569.64	1322.99
569.84	1294.32
570.04	1304.56
570.23	1251.31
570.43	1294.32
570.62	1355.76
570.82	1271.79
571.01	1286.12
571.21	1271.79
571.40	1296.36
571.60	1335.28
571.79	1347.56
571.99	1306.60
572.18	1325.04
572.38	1249.26
572.57	1294.32
572.77	1271.79
572.96	1306.60
573.16	1273.84
573.35	1294.32
573.55	1294.32
573.74	1267.69
573.94	1292.27
574.13	1282.03
574.33	1230.83
574.52	1263.60
574.71	1298.41
574.91	1257.45
575.10	1245.16
575.30	1257.45
575.49	1347.56
575.69	1273.84
575.88	1378.28
576.08	1282.03
576.27	1294.32
576.47	1259.50
576.66	1306.60
576.86	1273.84
577.05	1263.60
577.25	1247.21
577.44	1314.80
577.64	1310.70
577.83	1234.93
578.02	1314.80
578.22	1279.98
578.41	1292.27
578.61	1236.97
578.80	1302.51
579.00	1339.37
579.19	1288.17
579.39	1322.99
579.58	1261.55
579.77	1302.51
579.97	1275.88
580.16	1263.60
580.36	1224.69
580.55	1267.69
580.75	1314.80
580.94	1306.60
581.13	1286.12
581.33	1314.80
581.52	1257.45
581.72	1355.76
581.91	1282.03
582.11	1279.98
582.30	1290.22
582.49	1351.66
582.69	1331.18
582.88	1320.94
583.08	1275.88
583.27	1247.21
583.47	1251.31
583.66	1310.70
583.85	1298.41
584.05	1308.65
584.24	1218.54
584.44	1261.55
584.63	1292.27
584.82	1306.60
585.02	1269.74
585.21	1318.89
585.41	1359.85
585.60	1314.80
585.79	1218.54
585.99	1329.13
586.18	1255.40
586.37	1279.98
586.57	1257.45
586.76	1216.49
586.96	1255.40
587.15	1341.42
587.34	1345.52
587.54	1284.08
587.73	1343.47
587.93	1220.59
588.12	1384.43
588.31	1279.98
588.51	1288.17
588.70	1226.73
588.89	1302.51
589.09	1286.12
589.28	1224.69
589.47	1226.73
589.67	1245.16
589.86	1310.70
590.06	1263.60
590.25	1243.12
590.44	1279.98
590.64	1239.02
590.83	1286.12
591.02	1363.95
591.22	1265.64
591.41	1298.41
591.60	1329.13
591.80	1286.12
591.99	1271.79
592.18	1263.60
592.38	1251.31
592.57	1343.47
592.76	1284.08
592.96	1288.17
593.15	1361.90
593.34	1183.73
593.54	1259.50
593.73	1302.51
593.92	1239.02
594.12	1335.28
594.31	1339.37
594.50	1208.30
594.70	1263.60
594.89	1294.32
595.08	1206.25
595.28	1294.32
595.47	1320.94
595.66	1320.94
595.86	1230.83
596.05	1306.60
596.24	1263.60
596.43	1347.56
596.63	1277.93
596.82	1329.13
597.01	1300.46
597.21	1345.52
597.40	1236.97
597.59	1277.93
597.79	1292.27
597.98	1298.41
598.17	1243.12
598.36	1325.04
598.56	1208.30
598.75	1269.74
598.94	1284.08
599.14	1212.40
599.33	1265.64
599.52	1320.94
599.71	1282.03
599.91	1273.84
600.10	1288.17
600.29	1279.98
600.48	1234.93
600.68	1277.93
600.87	1267.69
601.06	1269.74
601.26	1271.79
601.45	1236.97
601.64	1355.76
601.83	1302.51
602.03	1304.56
602.22	1310.70
602.41	1265.64
602.60	1247.21
602.80	1275.88
602.99	1314.80
603.18	1302.51
603.37	1273.84
603.57	1294.32
603.76	1314.80
603.95	1366.00
604.14	1306.60
604.34	1306.60
604.53	1290.22
604.72	1327.08
604.91	1329.13
605.10	1298.41
605.30	1249.26
605.49	1310.70
605.68	1292.27
605.87	1292.27
606.07	1288.17
606.26	1282.03
606.45	1290.22
606.64	1263.60
606.84	1257.45
607.03	1267.69
607.22	1308.65
607.41	1251.31
607.60	1241.07
607.80	1239.02
607.99	1306.60
608.18	1304.56
608.37	1269.74
608.56	1161.20
608.76	1277.93
608.95	1230.83
609.14	1314.80
609.33	1220.59
609.52	1267.69
609.72	1310.70
609.91	1249.26
610.10	1241.07
610.29	1298.41
610.48	1277.93
610.68	1318.89
610.87	1357.80
611.06	1245.16
611.25	1329.13
611.44	1339.37
611.63	1273.84
611.83	1294.32
612.02	1298.41
612.21	1273.84
612.40	1236.97
612.59	1226.73
612.79	1290.22
612.98	1275.88
613.17	1308.65
613.36	1304.56
613.55	1271.79
613.74	1198.06
613.93	1253.36
614.13	1165.29
614.32	1331.18
614.51	1253.36
614.70	1277.93
614.89	1312.75
615.08	1316.84
615.28	1261.55
615.47	1267.69
615.66	1277.93
615.85	1296.36
616.04	1320.94
616.23	1302.51
616.42	1288.17
616.62	1277.93
616.81	1239.02
617.00	1265.64
617.19	1312.75
617.38	1247.21
617.57	1325.04
617.76	1296.36
617.95	1329.13
618.15	1296.36
618.34	1249.26
618.53	1267.69
618.72	1320.94
618.91	1228.78
619.10	1222.64
619.29	1267.69
619.48	1337.32
619.68	1239.02
619.87	1275.88
620.06	1339.37
620.25	1308.65
620.44	1279.98
620.63	1306.60
620.82	1294.32
621.01	1310.70
621.20	1298.41
621.39	1277.93
621.59	1318.89
621.78	1292.27
621.97	1347.56
622.16	1286.12
622.35	1279.98
622.54	1314.80
622.73	1343.47
622.92	1296.36
623.11	1275.88
623.30	1316.84
623.49	1306.60
623.68	1271.79
623.88	1288.17
624.07	1288.17
624.26	1322.99
624.45	1282.03
624.64	1322.99
624.83	1341.42
625.02	1275.88
625.21	1316.84
625.40	1316.84
625.59	1271.79
625.78	1296.36
625.97	1437.67
626.16	1245.16
626.35	1329.13
626.54	1257.45
626.74	1292.27
626.93	1282.03
627.12	1263.60
627.31	1265.64
627.50	1241.07
627.69	1304.56
627.88	1259.50
628.07	1359.85
628.26	1265.64
628.45	1257.45
628.64	1247.21
628.83	1327.08
629.02	1370.09
629.21	1312.75
629.40	1290.22
629.59	1282.03
629.78	1232.88
629.97	1284.08
630.16	1310.70
630.35	1269.74
630.54	1345.52
630.73	1296.36
630.92	1304.56
631.11	1286.12
631.30	1314.80
631.49	1394.67
631.68	1411.05
631.87	1681.38
632.06	2947.03
632.25	2250.72
632.44	2496.47
632.63	2279.39
632.82	2320.35
633.01	3424.20
633.20	5420.97
633.39	6348.70
633.58	7733.13
633.77	15363.86
633.96	30588.46
634.15	48684.31
634.34	56263.85
634.53	48379.17
634.72	32898.57
634.91	19181.28
635.10	11110.23
635.29	6555.55
635.48	4374.46
635.67	3178.45
635.86	2486.23
636.05	2353.12
636.24	2133.98
636.43	1970.15
636.62	1923.04
636.81	1882.08
637.00	1630.18
637.19	1556.46
637.38	1509.35
637.57	1476.59
637.76	1486.83
637.95	1390.57
638.14	1380.33
638.33	1423.34
638.52	1382.38
638.71	1386.47
638.89	1308.65
639.08	1257.45
639.27	1275.88
639.46	1257.45
639.65	1296.36
639.84	1339.37
640.03	1304.56
640.22	1245.16
640.41	1349.61
640.60	1261.55
640.79	1198.06
640.98	1341.42
641.17	1202.16
641.36	1294.32
641.55	1284.08
641.74	1239.02
641.92	1282.03
642.11	1318.89
642.30	1327.08
642.49	1214.45
642.68	1366.00
642.87	1282.03
643.06	1279.98
643.25	1263.60
643.44	1296.36
643.63	1247.21
643.82	1257.45
644.00	1294.32
644.19	1251.31
644.38	1165.29
644.57	1273.84
644.76	1259.50
644.95	1361.90
645.14	1243.12
645.33	1273.84
645.52	1257.45
645.71	1368.04
645.89	1308.65
646.08	1234.93
646.27	1304.56
646.46	1292.27
646.65	1286.12
646.84	1261.55
647.03	1216.49
647.22	1214.45
647.40	1320.94
647.59	1253.36
647.78	1363.95
647.97	1263.60
648.16	1298.41
648.35	1241.07
648.54	1255.40
648.73	1370.09
648.91	1357.80
649.10	1312.75
649.29	1204.21
649.48	1284.08
649.67	1277.93
649.86	1249.26
650.05	1298.41
650.23	1294.32
650.42	1216.49
650.61	1318.89
650.80	1198.06
650.99	1288.17
651.18	1333.23
651.36	1329.13
651.55	1277.93
651.74	1279.98
651.93	1300.46
652.12	1290.22
652.31	1277.93
652.49	1273.84
652.68	1314.80
652.87	1267.69
653.06	1241.07
653.25	1306.60
653.44	1234.93
653.62	1318.89
653.81	1318.89
654.00	1298.41
654.19	1333.23
654.38	1300.46
654.56	1318.89
654.75	1343.47
654.94	1236.97
655.13	1320.94
655.32	1277.93
655.51	1236.97
655.69	1269.74
655.88	1243.12
656.07	1335.28
656.26	1292.27
656.45	1288.17
656.63	1255.40
656.82	1284.08
657.01	1288.17
657.20	1239.02
657.38	1329.13
657.57	1243.12
657.76	1259.50
657.95	1320.94
658.14	1308.65
658.32	1271.79
658.51	1310.70
658.70	1214.45
658.89	1236.97
659.08	1232.88
659.26	1265.64
659.45	1234.93
659.64	1322.99
659.83	1306.60
660.01	1345.52
660.20	1288.17
660.39	1306.60
660.58	1282.03
660.76	1222.64
660.95	1234.93
661.14	1282.03
661.33	1302.51
661.51	1286.12
661.70	1265.64
661.89	1349.61
662.08	1222.64
662.26	1284.08
662.45	1296.36
662.64	1345.52
662.83	1318.89
663.01	1251.31
663.20	1261.55
663.39	1279.98
663.58	1331.18
663.76	1249.26
663.95	1314.80
664.14	1249.26
664.32	1269.74
664.51	1279.98
664.70	1269.74
664.89	1318.89
665.07	1277.93
665.26	1230.83
665.45	1265.64
665.64	1189.87
665.82	1267.69
666.01	1251.31
666.20	1236.97
666.38	1253.36
666.57	1273.84
666.76	1316.84
666.95	1347.56
667.13	1279.98
667.32	1273.84
667.51	1249.26
667.69	1333.23
667.88	1273.84
668.07	1255.40
668.25	1333.23
668.44	1257.45
668.63	1306.60
668.81	1263.60
669.00	1275.88
669.19	1310.70
669.38	1294.32
669.56	1298.41
669.75	1292.27
669.94	1153.01
670.12	1249.26
670.31	1284.08
670.50	1206.25
670.68	1320.94
670.87	1247.21
671.06	1230.83
671.24	1312.75
671.43	1288.17
671.62	1255.40
671.80	1327.08
671.99	1234.93
672.18	1255.40
672.36	1263.60
672.55	1312.75
672.74	1150.96
672.92	1277.93
673.11	1300.46
673.29	1210.35
673.48	1282.03
673.67	1290.22
673.85	1349.61
674.04	1267.69
674.23	1265.64
674.41	1357.80
674.60	1279.98
674.79	1290.22
674.97	1216.49
675.16	1322.99
675.34	1220.59
675.53	1232.88
675.72	1218.54
675.90	1263.60
676.09	1335.28
676.28	1322.99
676.46	1273.84
676.65	1247.21
676.83	1247.21
677.02	1245.16
677.21	1333.23
677.39	1269.74
677.58	1249.26
677.77	1218.54
677.95	1288.17
678.14	1300.46
678.32	1267.69
678.51	1318.89
678.70	1316.84
678.88	1294.32
679.07	1298.41
679.25	1230.83
679.44	1255.40
679.63	1232.88
679.81	1255.40
680.00	1249.26
680.18	1265.64
680.37	1304.56
680.55	1253.36
680.74	1257.45
680.93	1222.64
681.11	1298.41
681.30	1306.60
681.48	1273.84
681.67	1329.13
681.85	1257.45
682.04	1249.26
682.23	1257.45
682.41	1232.88
682.60	1277.93
682.78	1212.40
682.97	1263.60
683.15	1247.21
683.34	1247.21
683.53	1290.22
683.71	1232.88
683.90	1269.74
684.08	1271.79
684.27	1210.35
684.45	1247.21
684.64	1282.03
684.82	1236.97
685.01	1300.46
685.19	1339.37
685.38	1296.36
685.57	1325.04
685.75	1236.97
685.94	1290.22
686.12	1294.32
686.31	1294.32
686.49	1357.80
686.68	1349.61
686.86	1202.16
687.05	1259.50
687.23	1304.56
687.42	1183.73
687.60	1239.02
687.79	1267.69
687.97	1318.89
688.16	1267.69
688.34	1275.88
688.53	1353.71
688.71	1263.60
688.90	1208.30
689.08	1294.32
689.27	1193.97
689.45	1327.08
689.64	1222.64
689.82	1275.88
690.01	1282.03
690.19	1243.12
690.38	1253.36
690.56	1298.41
690.75	1271.79
690.93	1226.73
691.12	1290.22
691.30	1275.88
691.49	1282.03
691.67	1200.11
691.86	1234.93
692.04	1269.74
692.23	1239.02
692.41	1263.60
692.60	1292.27
692.78	1243.12
692.97	1204.21
693.15	1331.18
693.34	1325.04
693.52	1284.08
693.71	1308.65
693.89	1232.88
694.08	1204.21
694.26	1304.56
694.44	1273.84
694.63	1253.36
694.81	1351.66
695.00	1312.75
695.18	1329.13
695.37	1300.46
695.55	1294.32
695.74	1220.59
695.92	1222.64
696.10	1277.93
696.29	1312.75
696.47	1249.26
696.66	1232.88
696.84	1271.79
697.03	1259.50
697.21	1300.46
697.40	1294.32
697.58	1214.45
697.76	1253.36
697.95	1265.64
698.13	1312.75
698.32	1245.16
698.50	1224.69
698.68	1277.93
698.87	1228.78
699.05	1263.60
699.24	1302.51
699.42	1273.84
699.61	1181.68
699.79	1292.27
699.97	1277.93
700.16	1290.22
700.34	1196.01
700.53	1320.94
700.71	1239.02
700.89	1304.56
701.08	1282.03
701.26	1251.31
701.45	1288.17
701.63	1284.08
701.81	1269.74
702.00	1318.89
702.18	1228.78
702.37	1200.11
702.55	1273.84
702.73	1271.79
702.92	1290.22
703.10	1349.61
703.28	1243.12
703.47	1247.21
703.65	1236.97
703.84	1306.60
704.02	1224.69
704.20	1267.69
704.39	1314.80
704.57	1298.41
704.75	1214.45
704.94	1296.36
705.12	1277.93
705.30	1325.04
705.49	1310.70
705.67	1335.28
705.86	1282.03
706.04	1275.88
706.22	1208.30
706.41	1282.03
706.59	1253.36
706.77	1257.45
706.96	1273.84
707.14	1210.35
707.32	1286.12
707.51	1253.36
707.69	1206.25
707.87	1304.56
708.06	1257.45
708.24	1333.23
708.42	1322.99
708.61	1236.97
708.79	1236.97
708.97	1310.70
709.16	1282.03
709.34	1337.32
709.52	1267.69
709.71	1277.93
709.89	1253.36
710.07	1243.12
710.26	1282.03
710.44	1327.08
710.62	1181.68
710.80	1306.60
710.99	1247.21
711.17	1273.84
711.35	1249.26
711.54	1298.41
711.72	1253.36
711.90	1251.31
712.09	1294.32
712.27	1331.18
712.45	1212.40
712.63	1308.65
712.82	1265.64
713.00	1228.78
713.18	1269.74
713.37	1243.12
713.55	1234.93
713.73	1282.03
713.91	1282.03
714.10	1325.04
714.28	1234.93
714.46	1267.69
714.65	1202.16
714.83	1370.09
715.01	1331.18
715.19	1279.98
715.38	1253.36
715.56	1255.40
715.74	1275.88
715.92	1265.64
716.11	1232.88
716.29	1239.02
716.47	1288.17
716.65	1261.55
716.84	1249.26
717.02	1273.84
717.20	1273.84
717.38	1277.93
717.57	1325.04
717.75	1226.73
717.93	1255.40
718.11	1318.89
718.30	1216.49
718.48	1241.07
718.66	1239.02
718.84	1341.42
719.03	1261.55
719.21	1230.83
719.39	1298.41
719.57	1347.56
719.75	1261.55
719.94	1206.25
720.12	1314.80
720.30	1261.55
720.48	1312.75
720.67	1288.17
720.85	1257.45
721.03	1312.75
721.21	1269.74
721.39	1306.60
721.58	1296.36
721.76	1261.55
721.94	1228.78
722.12	1302.51
722.30	1302.51
722.49	1306.60
722.67	1220.59
722.85	1298.41
723.03	1325.04
723.21	1259.50
723.40	1279.98
723.58	1284.08
723.76	1222.64
723.94	1308.65
724.12	1259.50
724.30	1322.99
724.49	1257.45
724.67	1257.45
724.85	1265.64
725.03	1296.36
725.21	1232.88
725.40	1259.50
725.58	1318.89
725.76	1392.62
725.94	1277.93
726.12	1298.41
726.30	1306.60
726.49	1263.60
726.67	1314.80
726.85	1273.84
727.03	1288.17
727.21	1251.31
727.39	1239.02
727.57	1277.93
727.76	1314.80
727.94	1320.94
728.12	1306.60
728.30	1279.98
728.48	1318.89
728.66	1271.79
728.84	1318.89
729.03	1292.27
729.21	1347.56
729.39	1245.16
729.57	1277.93
729.75	1234.93
729.93	1306.60
730.11	1337.32
730.30	1245.16
730.48	1214.45
730.66	1282.03
730.84	1193.97
731.02	1265.64
731.20	1206.25
731.38	1255.40
731.56	1239.02
731.74	1259.50
731.93	1312.75
732.11	1265.64
732.29	1298.41
732.47	1220.59
732.65	1265.64
732.83	1261.55
733.01	1290.22
733.19	1232.88
733.37	1271.79
733.56	1267.69
733.74	1263.60
733.92	1308.65
734.10	1273.84
734.28	1216.49
734.46	1261.55
734.64	1202.16
734.82	1257.45
735.00	1241.07
735.18	1284.08
735.36	1251.31
735.54	1292.27
735.73	1234.93
735.91	1261.55
736.09	1216.49
736.27	1302.51
736.45	1277.93
736.63	1232.88
736.81	1300.46
736.99	1310.70
737.17	1251.31
737.35	1257.45
737.53	1269.74
737.71	1247.21
737.89	1239.02
738.07	1267.69
738.25	1189.87
738.43	1282.03
738.61	1277.93
738.80	1294.32
738.98	1345.52
739.16	1288.17
739.34	1247.21
739.52	1259.50
739.70	1290.22
739.88	1363.95
740.06	1267.69
740.24	1196.01
740.42	1314.80
740.60	1277.93
740.78	1298.41
740.96	1267.69
741.14	1196.01
741.32	1253.36
741.50	1232.88
741.68	1314.80
741.86	1292.27
742.04	1241.07
742.22	1333.23
742.40	1370.09
742.58	1277.93
742.76	1273.84
742.94	1265.64
743.12	1241.07
743.30	1243.12
743.48	1286.12
743.66	1239.02
743.84	1265.64
744.02	1263.60
744.20	1214.45
744.38	1259.50
744.56	1279.98
744.74	1273.84
744.92	1212.40
745.10	1269.74
745.28	1247.21
745.46	1243.12
745.64	1257.45
745.82	1312.75
746.00	1249.26
746.18	1249.26
746.36	1286.12
746.54	1267.69
746.72	1261.55
746.90	1208.30
747.08	1269.74
747.26	1292.27
747.44	1208.30
747.62	1304.56
747.80	1279.98
747.98	1241.07
748.15	1286.12
748.33	1343.47
748.51	1349.61
748.69	1335.28
748.87	1249.26
749.05	1306.60
749.23	1239.02
749.41	1286.12
749.59	1212.40
749.77	1232.88
749.95	1282.03
750.13	1216.49
750.31	1337.32
750.49	1271.79
750.67	1308.65
750.85	1263.60
751.03	1292.27
751.20	1247.21
751.38	1214.45
751.56	1239.02
751.74	1333.23
751.92	1271.79
752.10	1294.32
752.28	1222.64
752.46	1290.22
752.64	1286.12
752.82	1304.56
753.00	1296.36
753.18	1228.78
753.35	1294.32
753.53	1253.36
753.71	1351.66
753.89	1275.88
754.07	1288.17
754.25	1253.36
754.43	1259.50
754.61	1337.32
754.79	1257.45
754.97	1187.82
755.14	1263.60
755.32	1294.32
755.50	1298.41
755.68	1204.21
755.86	1224.69
756.04	1314.80
756.22	1292.27
756.40	1269.74
756.57	1312.75
756.75	1300.46
756.93	1284.08
757.11	1259.50
757.29	1220.59
757.47	1234.93
757.65	1146.86
757.82	1255.40
758.00	1277.93
758.18	1298.41
758.36	1247.21
758.54	1310.70
758.72	1273.84
758.90	1267.69
759.07	1288.17
759.25	1230.83
759.43	1306.60
759.61	1257.45
759.79	1327.08
759.97	1269.74
760.15	1245.16
760.32	1249.26
760.50	1230.83
760.68	1282.03
760.86	1234.93
761.04	1269.74
761.22	1265.64
761.39	1284.08
761.57	1253.36
761.75	1243.12
761.93	1187.82
762.11	1236.97
762.28	1218.54
762.46	1222.64
762.64	1245.16
762.82	1236.97
763.00	1351.66
763.18	1251.31
763.35	1243.12
763.53	1349.61
763.71	1284.08
763.89	1318.89
764.07	1296.36
764.24	1220.59
764.42	1279.98
764.60	1292.27
764.78	1284.08
764.96	1292.27
765.13	1271.79
765.31	1218.54
765.49	1228.78
765.67	1333.23
765.84	1206.25
766.02	1228.78
766.20	1169.39
766.38	1275.88
766.56	1257.45
766.73	1236.97
766.91	1279.98
767.09	1312.75
767.27	1290.22
767.44	1208.30
767.62	1193.97
767.80	1263.60
767.98	1222.64
768.15	1269.74
768.33	1253.36
768.51	1312.75
768.69	1290.22
768.87	1249.26
769.04	1251.31
769.22	1220.59
769.40	1292.27
769.58	1296.36
769.75	1269.74
769.93	1310.70
770.11	1265.64
770.28	1247.21
770.46	1279.98
770.64	1282.03
770.82	1224.69
770.99	1249.26
771.17	1257.45
771.35	1290.22
771.53	1288.17
771.70	1314.80
771.88	1222.64
772.06	1286.12
772.23	1347.56
772.41	1269.74
772.59	1279.98
772.77	1300.46
772.94	1232.88
773.12	1337.32
773.30	1245.16
773.47	1282.03
773.65	1298.41
773.83	1245.16
774.01	1308.65
774.18	1277.93
774.36	1284.08
774.54	1273.84
774.71	1218.54
774.89	1269.74
775.07	1247.21
775.24	1304.56
775.42	1312.75
775.60	1337.32
775.78	1236.97
775.95	1255.40
776.13	1337.32
776.31	1249.26
776.48	1263.60
776.66	1247.21
776.84	1230.83
777.01	1257.45
777.19	1277.93
777.37	1214.45
777.54	1275.88
777.72	1286.12
777.90	1269.74
778.07	1234.93
778.25	1267.69
778.43	1327.08
778.60	1245.16
778.78	1265.64
778.96	1282.03
779.13	1312.75
779.31	1265.64
779.49	1298.41
779.66	1232.88
779.84	1269.74
780.01	1300.46
780.19	1212.40
780.37	1148.91
780.54	1320.94
780.72	1284.08
780.90	1257.45
781.07	1222.64
781.25	1261.55
781.43	1282.03
781.60	1259.50
781.78	1282.03
781.95	1269.74
782.13	1290.22
782.31	1296.36
782.48	1320.94
782.66	1290.22
782.83	1183.73
783.01	1337.32
783.19	1271.79
783.36	1273.84
783.54	1212.40
783.72	1290.22
783.89	1318.89
784.07	1232.88
784.24	1249.26
784.42	1277.93
784.60	1236.97
784.77	1216.49
784.95	1320.94
785.12	1296.36
785.30	1273.84
785.47	1249.26
785.65	1292.27
785.83	1245.16
786.00	1269.74
786.18	1265.64
786.35	1230.83
786.53	1263.60
786.71	1267.69
786.88	1298.41
787.06	1279.98
787.23	1312.75
787.41	1257.45
787.58	1257.45
787.76	1253.36
787.94	1273.84
788.11	1277.93
788.29	1257.45
788.46	1269.74
788.64	1263.60
788.81	1273.84
788.99	1204.21
789.16	1247.21
789.34	1265.64
789.52	1210.35
789.69	1187.82
789.87	1286.12
790.04	1322.99
790.22	1355.76
790.39	1247.21
790.57	1273.84
790.74	1286.12
790.92	1331.18
791.09	1251.31
791.27	1290.22
791.44	1257.45
791.62	1249.26
791.79	1292.27
791.97	1224.69
792.15	1288.17
792.32	1279.98
792.50	1220.59
792.67	1253.36
792.85	1376.24
793.02	1224.69
793.20	1366.00
793.37	1234.93
793.55	1202.16
793.72	1253.36
793.90	1247.21
794.07	1220.59
794.25	1222.64
794.42	1269.74
794.60	1249.26
794.77	1294.32
794.95	1345.52
795.12	1243.12
795.30	1331.18
795.47	1206.25
795.65	1239.02
795.82	1251.31
796.00	1251.31
796.17	1288.17
796.34	1247.21
796.52	1228.78
796.69	1271.79
796.87	1198.06
797.04	1288.17
797.22	1372.14
797.39	1247.21
797.57	1200.11
797.74	1277.93
797.92	1210.35
798.09	1329.13
798.27	1282.03
798.44	1259.50
798.62	1261.55
798.79	1253.36
798.96	1275.88
799.14	1224.69
799.31	1318.89
799.49	1265.64
799.66	1241.07
799.84	1232.88
800.01	1210.35
800.19	1292.27
800.36	1232.88
800.53	1241.07
800.71	1253.36
800.88	1300.46
801.06	1208.30
801.23	1269.74
801.41	1261.55
801.58	1259.50
801.75	1300.46
801.93	1296.36
802.10	1259.50
802.28	1322.99
802.45	1218.54
802.63	1243.12
802.80	1294.32
802.97	1241.07
803.15	1267.69
803.32	1259.50
803.50	1222.64
803.67	1271.79
803.84	1273.84
804.02	1228.78
804.19	1292.27
804.37	1282.03
804.54	1245.16
804.71	1259.50
804.89	1286.12
805.06	1259.50
805.24	1325.04
805.41	1302.51
805.58	1273.84
805.76	1288.17
805.93	1265.64
806.10	1286.12
806.28	1279.98
806.45	1255.40
806.63	1257.45
806.80	1269.74
806.97	1257.45
807.15	1292.27
807.32	1243.12
807.49	1325.04
807.67	1320.94
807.84	1228.78
808.01	1236.97
808.19	1282.03
808.36	1222.64
808.54	1277.93
808.71	1302.51
808.88	1275.88
809.06	1284.08
809.23	1253.36
809.40	1226.73
809.58	1245.16
809.75	1284.08
809.92	1232.88
810.10	1257.45
810.27	1187.82
810.44	1335.28
810.62	1298.41
810.79	1247.21
810.96	1257.45
811.14	1310.70
811.31	1200.11
811.48	1243.12
811.66	1247.21
811.83	1243.12
812.00	1247.21
812.18	1351.66
812.35	1191.92
812.52	1245.16
812.69	1251.31
812.87	1306.60
813.04	1298.41
813.21	1253.36
813.39	1271.79
813.56	1273.84
813.73	1304.56
813.91	1228.78
814.08	1243.12
814.25	1269.74
814.42	1239.02
814.60	1177.58
814.77	1279.98
814.94	1267.69
815.12	1265.64
815.29	1255.40
815.46	1310.70
815.63	1198.06
815.81	1220.59
815.98	1275.88
816.15	1300.46
816.33	1204.21
816.50	1314.80
816.67	1253.36
816.84	1226.73
817.02	1257.45
817.19	1255.40
817.36	1261.55
817.53	1322.99
817.71	1261.55
817.88	1226.73
818.05	1241.07
818.22	1257.45
818.40	1273.84
818.57	1200.11
818.74	1306.60
818.91	1249.26
819.09	1189.87
819.26	1247.21
819.43	1310.70
819.60	1282.03
819.78	1206.25
819.95	1230.83
820.12	1249.26
820.29	1310.70
820.47	1269.74
820.64	1279.98
820.81	1259.50
820.98	1271.79
821.15	1243.12
821.33	1255.40
821.50	1288.17
821.67	1220.59
821.84	1312.75
822.02	1210.35
822.19	1275.88
822.36	1173.49
822.53	1204.21
822.70	1312.75
822.88	1257.45
823.05	1290.22
823.22	1239.02
823.39	1267.69
823.56	1249.26
823.74	1288.17
823.91	1220.59
824.08	1255.40
824.25	1259.50
824.42	1312.75
824.60	1245.16
824.77	1282.03
824.94	1255.40
825.11	1241.07
825.28	1265.64
825.45	1300.46
825.63	1255.40
825.80	1228.78
825.97	1308.65
826.14	1337.32
826.31	1230.83
826.48	1261.55
826.66	1214.45
826.83	1206.25
827.00	1304.56
827.17	1251.31
827.34	1257.45
827.51	1239.02
827.69	1286.12
827.86	1341.42
828.03	1208.30
828.20	1282.03
828.37	1271.79
828.54	1271.79
828.71	1316.84
828.89	1361.90
829.06	1245.16
829.23	1277.93
829.40	1372.14
829.57	1288.17
829.74	1239.02
829.91	1294.32
830.09	1243.12
830.26	1279.98
830.43	1189.87
830.60	1263.60
830.77	1282.03
830.94	1288.17
831.11	1277.93
831.28	1273.84
831.46	1241.07
831.63	1255.40
831.80	1277.93
831.97	1224.69
832.14	1173.49
832.31	1249.26
832.48	1294.32
832.65	1277.93
832.82	1275.88
832.99	1316.84
833.17	1265.64
833.34	1302.51
833.51	1284.08
833.68	1193.97
833.85	1269.74
834.02	1224.69
834.19	1236.97
834.36	1206.25
834.53	1286.12
834.70	1286.12
834.87	1306.60
835.04	1341.42
835.22	1232.88
835.39	1318.89
835.56	1226.73
835.73	1253.36
835.90	1263.60
836.07	1282.03
836.24	1286.12
836.41	1275.88
836.58	1282.03
836.75	1298.41
836.92	1212.40
837.09	1325.04
837.26	1191.92
837.43	1322.99
837.60	1292.27
837.77	1308.65
837.94	1232.88
838.12	1269.74
838.29	1257.45
838.46	1269.74
838.63	1206.25
838.80	1263.60
838.97	1269.74
839.14	1230.83
839.31	1314.80
839.48	1306.60
839.65	1228.78
839.82	1239.02
839.99	1277.93
840.16	1322.99
840.33	1239.02
840.50	1249.26
840.67	1228.78
840.84	1284.08
841.01	1257.45
841.18	1216.49
841.35	1292.27
841.52	1331.18
841.69	1241.07
841.86	1292.27
842.03	1312.75
842.20	1314.80
842.37	1325.04
842.54	1296.36
842.71	1275.88
842.88	1267.69
843.05	1284.08
843.22	1286.12
843.39	1253.36
843.56	1243.12
843.73	1243.12
843.90	1249.26
844.07	1263.60
844.24	1294.32
844.41	1263.60
844.58	1245.16
844.75	1277.93
844.92	1200.11
845.09	1314.80
845.26	1296.36
845.43	1241.07
845.60	1249.26
845.77	1265.64
845.94	1288.17
846.10	1259.50
846.27	1374.19
846.44	1288.17
846.61	1265.64
846.78	1257.45
846.95	1279.98
847.12	1357.80
847.29	1234.93
847.46	1318.89
847.63	1265.64
847.80	1224.69
847.97	1236.97
848.14	1265.64
848.31	1306.60
848.48	1247.21
848.65	1265.64
848.82	1271.79
848.98	1243.12
849.15	1310.70
849.32	1314.80
849.49	1249.26
849.66	1216.49
849.83	1316.84
850.00	1255.40
850.17	1236.97
850.34	1327.08
850.51	1236.97
850.68	1294.32
850.85	1282.03
851.01	1243.12
851.18	1273.84
851.35	1222.64
851.52	1255.40
851.69	1259.50
851.86	1202.16
852.03	1249.26
852.20	1259.50
852.37	1247.21
852.53	1218.54
852.70	1218.54
852.87	1232.88
853.04	1333.23
853.21	1316.84
853.38	1243.12
853.55	1292.27
853.72	1318.89
853.89	1218.54
854.05	1282.03
854.22	1245.16
854.39	1257.45
854.56	1251.31
854.73	1267.69
854.90	1230.83
855.07	1232.88
855.23	1316.84
855.40	1335.28
855.57	1282.03
855.74	1230.83
855.91	1265.64
856.08	1261.55
856.25	1191.92
856.41	1273.84
856.58	1308.65
856.75	1300.46
856.92	1265.64
857.09	1335.28
857.26	1300.46
857.42	1265.64
857.59	1251.31
857.76	1257.45
857.93	1230.83
858.10	1300.46
858.27	1263.60
858.43	1253.36
858.60	1245.16
858.77	1253.36
858.94	1302.51
859.11	1271.79
859.27	1273.84
859.44	1232.88
859.61	1292.27
859.78	1265.64
859.95	1232.88
860.12	1271.79
860.28	1183.73
860.45	1191.92
860.62	1218.54
860.79	1267.69
860.95	1251.31
861.12	1249.26
861.29	1247.21
861.46	1341.42
861.63	1224.69
861.79	1288.17
861.96	1214.45
862.13	1359.85
862.30	1189.87
862.47	1263.60
862.63	1282.03
862.80	1296.36
862.97	1249.26
863.14	1200.11
863.30	1284.08
863.47	1224.69
863.64	1282.03
863.81	1306.60
863.97	1267.69
864.14	1310.70
864.31	1318.89
864.48	1241.07
864.65	1300.46
864.81	1331.18
864.98	1271.79
865.15	1257.45
865.32	1247.21
865.48	1175.53
865.65	1306.60
865.82	1263.60
865.98	1253.36
866.15	1263.60
866.32	1210.35
866.49	1302.51
866.65	1224.69
866.82	1239.02
866.99	1286.12
867.16	1255.40
867.32	1265.64
867.49	1247.21
867.66	1310.70
867.83	1257.45
867.99	1234.93
868.16	1318.89
868.33	1312.75
868.49	1234.93
868.66	1290.22
868.83	1327.08
868.99	1279.98
869.16	1175.53
869.33	1298.41
869.50	1269.74
869.66	1298.41
869.83	1220.59
870.00	1249.26
870.16	1165.29
870.33	1288.17
870.50	1322.99
870.66	1261.55
870.83	1355.76
871.00	1286.12
871.17	1288.17
871.33	1374.19
871.50	1232.88
871.67	1257.45
871.83	1241.07
872.00	1269.74
872.17	1257.45
872.33	1261.55
872.50	1220.59
872.67	1296.36
872.83	1255.40
873.00	1245.16
873.17	1296.36
873.33	1259.50
873.50	1277.93
873.67	1253.36
873.83	1241.07
874.00	1314.80
874.16	1304.56
874.33	1261.55
874.50	1157.10
874.66	1277.93
874.83	1267.69
875.00	1304.56
875.16	1277.93
875.33	1267.69
875.50	1273.84
875.66	1269.74
875.83	1273.84
875.99	1269.74
876.16	1345.52
876.33	1269.74
876.49	1380.33
876.66	1292.27
876.83	1296.36
876.99	1298.41
877.16	1279.98
877.32	1239.02
877.49	1249.26
877.66	1241.07
877.82	1275.88
877.99	1327.08
878.15	1200.11
878.32	1224.69
878.49	1220.59
878.65	1286.12
878.82	1290.22
878.98	1269.74
879.15	1257.45
879.32	1259.50
879.48	1312.75
879.65	1304.56
879.81	1275.88
879.98	1292.27
880.15	1249.26
880.31	1269.74
880.48	1257.45
880.64	1284.08
880.81	1310.70
880.97	1314.80
881.14	1255.40
881.31	1343.47
881.47	1224.69
881.64	1271.79
881.80	1269.74
881.97	1277.93
882.13	1218.54
882.30	1261.55
882.47	1341.42
882.63	1322.99
882.80	1251.31
882.96	1318.89
883.13	1290.22
883.29	1148.91
883.46	1288.17
883.62	1284.08
883.79	1320.94
883.95	1345.52
884.12	1290.22
884.29	1286.12
884.45	1316.84
884.62	1214.45
884.78	1286.12
884.95	1320.94
885.11	1286.12
885.28	1316.84
885.44	1198.06
885.61	1263.60
885.77	1282.03
885.94	1271.79
886.10	1249.26
886.27	1298.41
886.43	1279.98
886.60	1327.08
886.76	1298.41
886.93	1245.16
887.09	1253.36
887.26	1310.70
887.42	1265.64
887.59	1239.02
887.75	1286.12
887.92	1312.75
888.08	1288.17
888.25	1202.16
888.41	1224.69
888.58	1292.27
888.74	1228.78
888.91	1239.02
>>>>>End Processed Spectral Data<<<<<
