SpectraSuite Data File
++++++++++++++++++++++++++++++++++++
Date: Sun Apr 03 19:55:55 CEST 2016
User: root
Dark Spectrum Present: No
Reference Spectrum Present: No
Number of Sampled Component Spectra: 1
Spectrometers: USB4C02835
Integration Time (usec): 10000 (USB4C02835)
Spectra Averaged: 1 (USB4C02835)
Boxcar Smoothing: 0 (USB4C02835)
Correct for Electrical Dark: No (USB4C02835)
Strobe/Lamp Enabled: No (USB4C02835)
Correct for Detector Non-linearity: No (USB4C02835)
Correct for Stray Light: No (USB4C02835)
Number of Pixels in Processed Spectrum: 3648
>>>>>Begin Processed Spectral Data<<<<<
177.47	1220.59
177.69	1220.59
177.91	1220.59
178.13	1177.58
178.36	1251.31
178.58	1282.03
178.80	1259.50
179.02	1259.50
179.24	1222.64
179.46	1232.88
179.68	1341.42
179.90	1282.03
180.13	1275.88
180.35	1302.51
180.57	1212.40
180.79	1325.04
181.01	1284.08
181.23	1292.27
181.45	1214.45
181.67	1277.93
181.90	1300.46
182.12	1261.55
182.34	1226.73
182.56	1296.36
182.78	1351.66
183.00	1322.99
183.22	1216.49
183.44	1288.17
183.66	1279.98
183.89	1275.88
184.11	1214.45
184.33	1265.64
184.55	1239.02
184.77	1279.98
184.99	1318.89
185.21	1241.07
185.43	1279.98
185.65	1302.51
185.87	1263.60
186.10	1243.12
186.32	1306.60
186.54	1189.87
186.76	1286.12
186.98	1245.16
187.20	1298.41
187.42	1243.12
187.64	1271.79
187.86	1200.11
188.08	1312.75
188.30	1263.60
188.52	1265.64
188.75	1228.78
188.97	1236.97
189.19	1253.36
189.41	1253.36
189.63	1259.50
189.85	1327.08
190.07	1247.21
190.29	1273.84
190.51	1187.82
190.73	1294.32
190.95	1218.54
191.17	1263.60
191.39	1282.03
191.61	1232.88
191.84	1210.35
192.06	1294.32
192.28	1296.36
192.50	1273.84
192.72	1222.64
192.94	1333.23
193.16	1196.01
193.38	1265.64
193.60	1230.83
193.82	1298.41
194.04	1314.80
194.26	1320.94
194.48	1222.64
194.70	1263.60
194.92	1230.83
195.14	1220.59
195.36	1292.27
195.58	1312.75
195.80	1306.60
196.02	1265.64
196.24	1284.08
196.46	1273.84
196.69	1312.75
196.91	1214.45
197.13	1214.45
197.35	1279.98
197.57	1275.88
197.79	1255.40
198.01	1284.08
198.23	1265.64
198.45	1257.45
198.67	1245.16
198.89	1255.40
199.11	1282.03
199.33	1273.84
199.55	1224.69
199.77	1249.26
199.99	1282.03
200.21	1263.60
200.43	1228.78
200.65	1308.65
200.87	1263.60
201.09	1167.34
201.31	1296.36
201.53	1284.08
201.75	1300.46
201.97	1290.22
202.19	1279.98
202.41	1200.11
202.63	1310.70
202.85	1275.88
203.07	1259.50
203.29	1261.55
203.51	1247.21
203.73	1255.40
203.95	1259.50
204.17	1191.92
204.39	1310.70
204.61	1275.88
204.83	1279.98
205.05	1271.79
205.27	1261.55
205.49	1239.02
205.71	1331.18
205.93	1224.69
206.15	1245.16
206.37	1265.64
206.59	1347.56
206.81	1245.16
207.03	1275.88
207.25	1296.36
207.47	1322.99
207.69	1282.03
207.91	1261.55
208.13	1327.08
208.34	1243.12
208.56	1333.23
208.78	1308.65
209.00	1220.59
209.22	1239.02
209.44	1310.70
209.66	1284.08
209.88	1345.52
210.10	1275.88
210.32	1255.40
210.54	1339.37
210.76	1265.64
210.98	1255.40
211.20	1232.88
211.42	1236.97
211.64	1279.98
211.86	1204.21
212.08	1234.93
212.30	1282.03
212.52	1261.55
212.74	1171.44
212.96	1304.56
213.17	1249.26
213.39	1200.11
213.61	1163.25
213.83	1265.64
214.05	1249.26
214.27	1310.70
214.49	1337.32
214.71	1265.64
214.93	1308.65
215.15	1222.64
215.37	1294.32
215.59	1232.88
215.81	1206.25
216.03	1230.83
216.24	1310.70
216.46	1245.16
216.68	1341.42
216.90	1275.88
217.12	1306.60
217.34	1249.26
217.56	1296.36
217.78	1286.12
218.00	1343.47
218.22	1228.78
218.44	1306.60
218.66	1236.97
218.87	1212.40
219.09	1300.46
219.31	1259.50
219.53	1294.32
219.75	1249.26
219.97	1298.41
220.19	1206.25
220.41	1314.80
220.63	1298.41
220.85	1288.17
221.06	1185.77
221.28	1320.94
221.50	1337.32
221.72	1290.22
221.94	1218.54
222.16	1265.64
222.38	1314.80
222.60	1335.28
222.82	1251.31
223.03	1253.36
223.25	1292.27
223.47	1341.42
223.69	1257.45
223.91	1259.50
224.13	1370.09
224.35	1273.84
224.57	1267.69
224.78	1331.18
225.00	1251.31
225.22	1306.60
225.44	1247.21
225.66	1245.16
225.88	1167.34
226.10	1271.79
226.32	1302.51
226.53	1310.70
226.75	1224.69
226.97	1318.89
227.19	1288.17
227.41	1282.03
227.63	1236.97
227.85	1249.26
228.06	1286.12
228.28	1245.16
228.50	1263.60
228.72	1257.45
228.94	1298.41
229.16	1341.42
229.37	1251.31
229.59	1279.98
229.81	1290.22
230.03	1230.83
230.25	1200.11
230.47	1259.50
230.69	1234.93
230.90	1236.97
231.12	1290.22
231.34	1298.41
231.56	1347.56
231.78	1218.54
232.00	1292.27
232.21	1239.02
232.43	1273.84
232.65	1306.60
232.87	1267.69
233.09	1296.36
233.30	1255.40
233.52	1206.25
233.74	1267.69
233.96	1218.54
234.18	1210.35
234.40	1302.51
234.61	1292.27
234.83	1298.41
235.05	1257.45
235.27	1282.03
235.49	1236.97
235.70	1234.93
235.92	1239.02
236.14	1224.69
236.36	1263.60
236.58	1275.88
236.79	1267.69
237.01	1224.69
237.23	1279.98
237.45	1245.16
237.67	1327.08
237.88	1314.80
238.10	1228.78
238.32	1228.78
238.54	1304.56
238.76	1333.23
238.97	1247.21
239.19	1247.21
239.41	1331.18
239.63	1196.01
239.85	1216.49
240.06	1212.40
240.28	1300.46
240.50	1269.74
240.72	1271.79
240.93	1173.49
241.15	1357.80
241.37	1277.93
241.59	1286.12
241.81	1222.64
242.02	1271.79
242.24	1249.26
242.46	1277.93
242.68	1247.21
242.89	1249.26
243.11	1282.03
243.33	1267.69
243.55	1318.89
243.76	1243.12
243.98	1263.60
244.20	1320.94
244.42	1234.93
244.64	1282.03
244.85	1325.04
245.07	1265.64
245.29	1261.55
245.51	1228.78
245.72	1325.04
245.94	1220.59
246.16	1208.30
246.38	1308.65
246.59	1163.25
246.81	1298.41
247.03	1257.45
247.24	1222.64
247.46	1247.21
247.68	1265.64
247.90	1325.04
248.11	1198.06
248.33	1316.84
248.55	1347.56
248.77	1253.36
248.98	1177.58
249.20	1247.21
249.42	1208.30
249.64	1327.08
249.85	1282.03
250.07	1222.64
250.29	1273.84
250.50	1284.08
250.72	1275.88
250.94	1269.74
251.16	1296.36
251.37	1259.50
251.59	1296.36
251.81	1286.12
252.02	1298.41
252.24	1261.55
252.46	1257.45
252.68	1208.30
252.89	1269.74
253.11	1275.88
253.33	1298.41
253.54	1224.69
253.76	1271.79
253.98	1228.78
254.20	1288.17
254.41	1251.31
254.63	1263.60
254.85	1249.26
255.06	1257.45
255.28	1320.94
255.50	1239.02
255.71	1267.69
255.93	1294.32
256.15	1251.31
256.36	1308.65
256.58	1277.93
256.80	1273.84
257.02	1202.16
257.23	1265.64
257.45	1249.26
257.67	1359.85
257.88	1302.51
258.10	1241.07
258.32	1298.41
258.53	1265.64
258.75	1292.27
258.97	1298.41
259.18	1331.18
259.40	1257.45
259.62	1257.45
259.83	1253.36
260.05	1347.56
260.27	1277.93
260.48	1230.83
260.70	1267.69
260.92	1314.80
261.13	1253.36
261.35	1243.12
261.57	1191.92
261.78	1261.55
262.00	1222.64
262.22	1251.31
262.43	1312.75
262.65	1273.84
262.86	1310.70
263.08	1269.74
263.30	1171.44
263.51	1261.55
263.73	1265.64
263.95	1230.83
264.16	1214.45
264.38	1212.40
264.60	1288.17
264.81	1337.32
265.03	1222.64
265.25	1271.79
265.46	1312.75
265.68	1277.93
265.89	1318.89
266.11	1290.22
266.33	1288.17
266.54	1247.21
266.76	1232.88
266.98	1322.99
267.19	1271.79
267.41	1249.26
267.62	1302.51
267.84	1251.31
268.06	1247.21
268.27	1171.44
268.49	1316.84
268.70	1228.78
268.92	1220.59
269.14	1236.97
269.35	1175.53
269.57	1263.60
269.79	1314.80
270.00	1224.69
270.22	1232.88
270.43	1337.32
270.65	1232.88
270.87	1251.31
271.08	1198.06
271.30	1239.02
271.51	1277.93
271.73	1202.16
271.95	1279.98
272.16	1312.75
272.38	1273.84
272.59	1294.32
272.81	1292.27
273.02	1275.88
273.24	1335.28
273.46	1269.74
273.67	1314.80
273.89	1269.74
274.10	1241.07
274.32	1282.03
274.54	1224.69
274.75	1277.93
274.97	1277.93
275.18	1253.36
275.40	1251.31
275.61	1196.01
275.83	1363.95
276.05	1230.83
276.26	1308.65
276.48	1273.84
276.69	1226.73
276.91	1300.46
277.12	1208.30
277.34	1245.16
277.55	1230.83
277.77	1298.41
277.99	1279.98
278.20	1239.02
278.42	1247.21
278.63	1327.08
278.85	1282.03
279.06	1286.12
279.28	1257.45
279.49	1269.74
279.71	1273.84
279.93	1298.41
280.14	1294.32
280.36	1243.12
280.57	1269.74
280.79	1253.36
281.00	1296.36
281.22	1361.90
281.43	1230.83
281.65	1337.32
281.86	1275.88
282.08	1294.32
282.29	1277.93
282.51	1300.46
282.73	1331.18
282.94	1310.70
283.16	1241.07
283.37	1279.98
283.59	1282.03
283.80	1177.58
284.02	1290.22
284.23	1345.52
284.45	1306.60
284.66	1243.12
284.88	1214.45
285.09	1269.74
285.31	1263.60
285.52	1320.94
285.74	1318.89
285.95	1261.55
286.17	1263.60
286.38	1279.98
286.60	1279.98
286.81	1302.51
287.03	1277.93
287.24	1224.69
287.46	1267.69
287.67	1296.36
287.89	1284.08
288.10	1261.55
288.32	1265.64
288.53	1251.31
288.75	1265.64
288.96	1263.60
289.18	1241.07
289.39	1294.32
289.61	1282.03
289.82	1327.08
290.04	1337.32
290.25	1247.21
290.47	1259.50
290.68	1255.40
290.90	1294.32
291.11	1320.94
291.33	1294.32
291.54	1298.41
291.76	1298.41
291.97	1327.08
292.18	1318.89
292.40	1279.98
292.61	1316.84
292.83	1300.46
293.04	1251.31
293.26	1277.93
293.47	1210.35
293.69	1220.59
293.90	1331.18
294.12	1304.56
294.33	1218.54
294.55	1255.40
294.76	1255.40
294.97	1263.60
295.19	1296.36
295.40	1261.55
295.62	1296.36
295.83	1234.93
296.05	1312.75
296.26	1316.84
296.48	1208.30
296.69	1372.14
296.90	1249.26
297.12	1228.78
297.33	1282.03
297.55	1251.31
297.76	1226.73
297.98	1208.30
298.19	1241.07
298.41	1239.02
298.62	1353.71
298.83	1275.88
299.05	1288.17
299.26	1267.69
299.48	1236.97
299.69	1251.31
299.90	1247.21
300.12	1245.16
300.33	1247.21
300.55	1314.80
300.76	1284.08
300.98	1312.75
301.19	1273.84
301.40	1220.59
301.62	1265.64
301.83	1259.50
302.05	1243.12
302.26	1257.45
302.47	1314.80
302.69	1300.46
302.90	1294.32
303.12	1282.03
303.33	1196.01
303.54	1331.18
303.76	1259.50
303.97	1255.40
304.19	1249.26
304.40	1298.41
304.61	1284.08
304.83	1269.74
305.04	1247.21
305.26	1257.45
305.47	1234.93
305.68	1275.88
305.90	1234.93
306.11	1279.98
306.33	1288.17
306.54	1249.26
306.75	1236.97
306.97	1286.12
307.18	1234.93
307.39	1282.03
307.61	1198.06
307.82	1286.12
308.04	1241.07
308.25	1224.69
308.46	1247.21
308.68	1300.46
308.89	1322.99
309.10	1245.16
309.32	1347.56
309.53	1269.74
309.74	1271.79
309.96	1236.97
310.17	1275.88
310.39	1269.74
310.60	1275.88
310.81	1257.45
311.03	1226.73
311.24	1191.92
311.45	1296.36
311.67	1275.88
311.88	1312.75
312.09	1329.13
312.31	1247.21
312.52	1296.36
312.73	1302.51
312.95	1198.06
313.16	1271.79
313.37	1322.99
313.59	1282.03
313.80	1241.07
314.01	1312.75
314.23	1255.40
314.44	1294.32
314.65	1247.21
314.87	1249.26
315.08	1247.21
315.29	1255.40
315.51	1196.01
315.72	1275.88
315.93	1327.08
316.15	1202.16
316.36	1206.25
316.57	1300.46
316.79	1247.21
317.00	1267.69
317.21	1226.73
317.43	1314.80
317.64	1300.46
317.85	1206.25
318.07	1294.32
318.28	1241.07
318.49	1241.07
318.70	1331.18
318.92	1288.17
319.13	1296.36
319.34	1335.28
319.56	1183.73
319.77	1335.28
319.98	1302.51
320.20	1212.40
320.41	1284.08
320.62	1253.36
320.83	1306.60
321.05	1335.28
321.26	1232.88
321.47	1241.07
321.69	1306.60
321.90	1253.36
322.11	1325.04
322.32	1290.22
322.54	1273.84
322.75	1300.46
322.96	1255.40
323.18	1263.60
323.39	1247.21
323.60	1263.60
323.81	1331.18
324.03	1302.51
324.24	1216.49
324.45	1310.70
324.66	1202.16
324.88	1239.02
325.09	1318.89
325.30	1275.88
325.52	1296.36
325.73	1243.12
325.94	1277.93
326.15	1247.21
326.37	1161.20
326.58	1308.65
326.79	1245.16
327.00	1232.88
327.22	1232.88
327.43	1269.74
327.64	1236.97
327.85	1224.69
328.07	1257.45
328.28	1351.66
328.49	1277.93
328.70	1286.12
328.92	1337.32
329.13	1241.07
329.34	1236.97
329.55	1286.12
329.76	1294.32
329.98	1263.60
330.19	1247.21
330.40	1245.16
330.61	1267.69
330.83	1230.83
331.04	1271.79
331.25	1282.03
331.46	1255.40
331.68	1220.59
331.89	1329.13
332.10	1245.16
332.31	1314.80
332.52	1249.26
332.74	1322.99
332.95	1286.12
333.16	1298.41
333.37	1249.26
333.58	1288.17
333.80	1265.64
334.01	1212.40
334.22	1243.12
334.43	1292.27
334.64	1273.84
334.86	1265.64
335.07	1304.56
335.28	1239.02
335.49	1302.51
335.70	1322.99
335.92	1222.64
336.13	1288.17
336.34	1337.32
336.55	1318.89
336.76	1277.93
336.98	1239.02
337.19	1325.04
337.40	1259.50
337.61	1296.36
337.82	1296.36
338.04	1257.45
338.25	1259.50
338.46	1288.17
338.67	1294.32
338.88	1249.26
339.09	1263.60
339.31	1284.08
339.52	1249.26
339.73	1249.26
339.94	1265.64
340.15	1220.59
340.36	1282.03
340.58	1277.93
340.79	1263.60
341.00	1333.23
341.21	1249.26
341.42	1314.80
341.63	1290.22
341.85	1214.45
342.06	1265.64
342.27	1265.64
342.48	1331.18
342.69	1249.26
342.90	1306.60
343.12	1247.21
343.33	1263.60
343.54	1316.84
343.75	1298.41
343.96	1230.83
344.17	1232.88
344.38	1226.73
344.60	1251.31
344.81	1247.21
345.02	1273.84
345.23	1249.26
345.44	1257.45
345.65	1257.45
345.86	1241.07
346.07	1245.16
346.29	1292.27
346.50	1247.21
346.71	1259.50
346.92	1308.65
347.13	1236.97
347.34	1261.55
347.55	1241.07
347.76	1282.03
347.98	1294.32
348.19	1257.45
348.40	1277.93
348.61	1255.40
348.82	1286.12
349.03	1261.55
349.24	1249.26
349.45	1220.59
349.66	1159.15
349.88	1298.41
350.09	1298.41
350.30	1275.88
350.51	1257.45
350.72	1292.27
350.93	1269.74
351.14	1302.51
351.35	1241.07
351.56	1279.98
351.77	1306.60
351.99	1185.77
352.20	1259.50
352.41	1214.45
352.62	1257.45
352.83	1265.64
353.04	1310.70
353.25	1263.60
353.46	1251.31
353.67	1249.26
353.88	1263.60
354.09	1251.31
354.30	1312.75
354.52	1308.65
354.73	1296.36
354.94	1296.36
355.15	1304.56
355.36	1337.32
355.57	1320.94
355.78	1212.40
355.99	1232.88
356.20	1249.26
356.41	1310.70
356.62	1290.22
356.83	1208.30
357.04	1208.30
357.25	1271.79
357.46	1282.03
357.68	1308.65
357.89	1298.41
358.10	1261.55
358.31	1245.16
358.52	1224.69
358.73	1308.65
358.94	1208.30
359.15	1261.55
359.36	1310.70
359.57	1273.84
359.78	1265.64
359.99	1306.60
360.20	1331.18
360.41	1265.64
360.62	1232.88
360.83	1206.25
361.04	1245.16
361.25	1236.97
361.46	1296.36
361.67	1296.36
361.88	1257.45
362.09	1241.07
362.30	1279.98
362.51	1322.99
362.72	1294.32
362.93	1228.78
363.14	1271.79
363.35	1261.55
363.56	1269.74
363.78	1196.01
363.99	1259.50
364.20	1304.56
364.41	1243.12
364.62	1226.73
364.83	1314.80
365.04	1265.64
365.25	1282.03
365.46	1304.56
365.67	1241.07
365.88	1236.97
366.09	1302.51
366.30	1198.06
366.51	1292.27
366.72	1232.88
366.93	1292.27
367.14	1263.60
367.35	1210.35
367.56	1263.60
367.77	1251.31
367.98	1230.83
368.18	1329.13
368.39	1271.79
368.60	1269.74
368.81	1327.08
369.02	1294.32
369.23	1253.36
369.44	1294.32
369.65	1249.26
369.86	1243.12
370.07	1222.64
370.28	1374.19
370.49	1267.69
370.70	1255.40
370.91	1351.66
371.12	1277.93
371.33	1279.98
371.54	1245.16
371.75	1232.88
371.96	1189.87
372.17	1357.80
372.38	1300.46
372.59	1269.74
372.80	1228.78
373.01	1312.75
373.22	1290.22
373.43	1327.08
373.64	1288.17
373.85	1243.12
374.06	1296.36
374.26	1232.88
374.47	1298.41
374.68	1345.52
374.89	1308.65
375.10	1245.16
375.31	1159.15
375.52	1286.12
375.73	1241.07
375.94	1232.88
376.15	1357.80
376.36	1261.55
376.57	1312.75
376.78	1210.35
376.99	1206.25
377.20	1253.36
377.40	1286.12
377.61	1263.60
377.82	1267.69
378.03	1335.28
378.24	1277.93
378.45	1259.50
378.66	1279.98
378.87	1239.02
379.08	1316.84
379.29	1288.17
379.50	1370.09
379.71	1269.74
379.91	1265.64
380.12	1261.55
380.33	1232.88
380.54	1347.56
380.75	1265.64
380.96	1232.88
381.17	1263.60
381.38	1234.93
381.59	1247.21
381.80	1232.88
382.00	1345.52
382.21	1314.80
382.42	1337.32
382.63	1216.49
382.84	1322.99
383.05	1243.12
383.26	1189.87
383.47	1267.69
383.68	1298.41
383.88	1226.73
384.09	1335.28
384.30	1327.08
384.51	1345.52
384.72	1312.75
384.93	1294.32
385.14	1322.99
385.35	1261.55
385.55	1257.45
385.76	1265.64
385.97	1241.07
386.18	1261.55
386.39	1241.07
386.60	1294.32
386.81	1320.94
387.02	1241.07
387.22	1208.30
387.43	1271.79
387.64	1183.73
387.85	1255.40
388.06	1212.40
388.27	1316.84
388.48	1277.93
388.68	1310.70
388.89	1265.64
389.10	1247.21
389.31	1298.41
389.52	1208.30
389.73	1249.26
389.93	1232.88
390.14	1245.16
390.35	1288.17
390.56	1339.37
390.77	1277.93
390.98	1239.02
391.18	1271.79
391.39	1267.69
391.60	1239.02
391.81	1273.84
392.02	1245.16
392.23	1404.91
392.43	1308.65
392.64	1282.03
392.85	1263.60
393.06	1236.97
393.27	1310.70
393.47	1284.08
393.68	1279.98
393.89	1253.36
394.10	1296.36
394.31	1265.64
394.52	1282.03
394.72	1284.08
394.93	1279.98
395.14	1269.74
395.35	1286.12
395.56	1318.89
395.76	1230.83
395.97	1243.12
396.18	1179.63
396.39	1257.45
396.60	1292.27
396.80	1232.88
397.01	1306.60
397.22	1308.65
397.43	1255.40
397.64	1279.98
397.84	1310.70
398.05	1232.88
398.26	1259.50
398.47	1259.50
398.67	1300.46
398.88	1271.79
399.09	1261.55
399.30	1296.36
399.51	1345.52
399.71	1259.50
399.92	1286.12
400.13	1271.79
400.34	1236.97
400.54	1224.69
400.75	1265.64
400.96	1316.84
401.17	1306.60
401.37	1234.93
401.58	1296.36
401.79	1288.17
402.00	1239.02
402.21	1273.84
402.41	1300.46
402.62	1290.22
402.83	1263.60
403.04	1277.93
403.24	1241.07
403.45	1228.78
403.66	1239.02
403.87	1220.59
404.07	1263.60
404.28	1298.41
404.49	1269.74
404.70	1257.45
404.90	1222.64
405.11	1300.46
405.32	1294.32
405.52	1282.03
405.73	1337.32
405.94	1290.22
406.15	1273.84
406.35	1247.21
406.56	1279.98
406.77	1251.31
406.98	1261.55
407.18	1222.64
407.39	1210.35
407.60	1294.32
407.80	1232.88
408.01	1239.02
408.22	1294.32
408.43	1320.94
408.63	1204.21
408.84	1308.65
409.05	1261.55
409.25	1263.60
409.46	1288.17
409.67	1185.77
409.88	1261.55
410.08	1279.98
410.29	1239.02
410.50	1257.45
410.70	1239.02
410.91	1249.26
411.12	1275.88
411.32	1282.03
411.53	1275.88
411.74	1241.07
411.95	1310.70
412.15	1232.88
412.36	1263.60
412.57	1331.18
412.77	1239.02
412.98	1226.73
413.19	1159.15
413.39	1230.83
413.60	1259.50
413.81	1239.02
414.01	1216.49
414.22	1224.69
414.43	1318.89
414.63	1230.83
414.84	1247.21
415.05	1361.90
415.25	1241.07
415.46	1263.60
415.67	1253.36
415.87	1257.45
416.08	1302.51
416.29	1253.36
416.49	1343.47
416.70	1286.12
416.91	1304.56
417.11	1208.30
417.32	1353.71
417.53	1245.16
417.73	1236.97
417.94	1273.84
418.15	1253.36
418.35	1333.23
418.56	1273.84
418.77	1279.98
418.97	1296.36
419.18	1290.22
419.38	1239.02
419.59	1220.59
419.80	1249.26
420.00	1210.35
420.21	1322.99
420.42	1265.64
420.62	1245.16
420.83	1224.69
421.04	1269.74
421.24	1249.26
421.45	1218.54
421.65	1294.32
421.86	1228.78
422.07	1279.98
422.27	1288.17
422.48	1214.45
422.69	1230.83
422.89	1249.26
423.10	1249.26
423.30	1263.60
423.51	1322.99
423.72	1310.70
423.92	1316.84
424.13	1216.49
424.33	1290.22
424.54	1312.75
424.75	1257.45
424.95	1345.52
425.16	1279.98
425.36	1253.36
425.57	1282.03
425.78	1277.93
425.98	1253.36
426.19	1304.56
426.39	1277.93
426.60	1308.65
426.81	1300.46
427.01	1366.00
427.22	1279.98
427.42	1222.64
427.63	1300.46
427.83	1300.46
428.04	1310.70
428.25	1290.22
428.45	1208.30
428.66	1239.02
428.86	1290.22
429.07	1316.84
429.28	1208.30
429.48	1282.03
429.69	1312.75
429.89	1216.49
430.10	1234.93
430.30	1236.97
430.51	1206.25
430.71	1261.55
430.92	1300.46
431.13	1230.83
431.33	1216.49
431.54	1236.97
431.74	1234.93
431.95	1296.36
432.15	1279.98
432.36	1331.18
432.56	1320.94
432.77	1282.03
432.98	1279.98
433.18	1288.17
433.39	1265.64
433.59	1257.45
433.80	1255.40
434.00	1320.94
434.21	1333.23
434.41	1234.93
434.62	1230.83
434.82	1200.11
435.03	1265.64
435.23	1226.73
435.44	1267.69
435.64	1357.80
435.85	1224.69
436.06	1292.27
436.26	1249.26
436.47	1282.03
436.67	1185.77
436.88	1327.08
437.08	1277.93
437.29	1316.84
437.49	1210.35
437.70	1245.16
437.90	1329.13
438.11	1292.27
438.31	1279.98
438.52	1277.93
438.72	1253.36
438.93	1232.88
439.13	1288.17
439.34	1271.79
439.54	1304.56
439.75	1275.88
439.95	1331.18
440.16	1185.77
440.36	1241.07
440.57	1290.22
440.77	1310.70
440.98	1232.88
441.18	1253.36
441.39	1222.64
441.59	1282.03
441.80	1230.83
442.00	1267.69
442.21	1239.02
442.41	1224.69
442.62	1234.93
442.82	1331.18
443.02	1236.97
443.23	1214.45
443.43	1267.69
443.64	1288.17
443.84	1286.12
444.05	1308.65
444.25	1277.93
444.46	1335.28
444.66	1189.87
444.87	1296.36
445.07	1310.70
445.28	1257.45
445.48	1214.45
445.69	1263.60
445.89	1271.79
446.09	1279.98
446.30	1359.85
446.50	1386.47
446.71	1261.55
446.91	1261.55
447.12	1374.19
447.32	1322.99
447.53	1236.97
447.73	1269.74
447.93	1273.84
448.14	1279.98
448.34	1286.12
448.55	1284.08
448.75	1353.71
448.96	1306.60
449.16	1247.21
449.36	1304.56
449.57	1275.88
449.77	1212.40
449.98	1259.50
450.18	1284.08
450.39	1271.79
450.59	1273.84
450.79	1333.23
451.00	1286.12
451.20	1300.46
451.41	1255.40
451.61	1271.79
451.81	1288.17
452.02	1273.84
452.22	1286.12
452.43	1275.88
452.63	1271.79
452.84	1279.98
453.04	1257.45
453.24	1253.36
453.45	1265.64
453.65	1232.88
453.86	1210.35
454.06	1306.60
454.26	1267.69
454.47	1247.21
454.67	1294.32
454.87	1286.12
455.08	1300.46
455.28	1234.93
455.49	1282.03
455.69	1337.32
455.89	1255.40
456.10	1312.75
456.30	1306.60
456.51	1318.89
456.71	1308.65
456.91	1243.12
457.12	1267.69
457.32	1329.13
457.52	1290.22
457.73	1300.46
457.93	1277.93
458.14	1261.55
458.34	1345.52
458.54	1236.97
458.75	1265.64
458.95	1277.93
459.15	1267.69
459.36	1310.70
459.56	1302.51
459.76	1243.12
459.97	1265.64
460.17	1288.17
460.37	1269.74
460.58	1318.89
460.78	1241.07
460.99	1294.32
461.19	1314.80
461.39	1245.16
461.60	1310.70
461.80	1261.55
462.00	1300.46
462.21	1296.36
462.41	1304.56
462.61	1245.16
462.82	1265.64
463.02	1284.08
463.22	1271.79
463.43	1288.17
463.63	1292.27
463.83	1261.55
464.04	1355.76
464.24	1257.45
464.44	1273.84
464.64	1257.45
464.85	1267.69
465.05	1306.60
465.25	1355.76
465.46	1284.08
465.66	1279.98
465.86	1236.97
466.07	1329.13
466.27	1257.45
466.47	1312.75
466.68	1265.64
466.88	1275.88
467.08	1288.17
467.29	1257.45
467.49	1284.08
467.69	1257.45
467.89	1343.47
468.10	1279.98
468.30	1325.04
468.50	1265.64
468.71	1275.88
468.91	1320.94
469.11	1277.93
469.31	1298.41
469.52	1294.32
469.72	1279.98
469.92	1294.32
470.13	1279.98
470.33	1265.64
470.53	1220.59
470.73	1288.17
470.94	1239.02
471.14	1259.50
471.34	1216.49
471.54	1284.08
471.75	1314.80
471.95	1300.46
472.15	1236.97
472.36	1288.17
472.56	1239.02
472.76	1271.79
472.96	1310.70
473.17	1294.32
473.37	1300.46
473.57	1214.45
473.77	1284.08
473.98	1210.35
474.18	1286.12
474.38	1267.69
474.58	1267.69
474.79	1249.26
474.99	1290.22
475.19	1267.69
475.39	1187.82
475.60	1234.93
475.80	1236.97
476.00	1314.80
476.20	1200.11
476.41	1249.26
476.61	1224.69
476.81	1263.60
477.01	1325.04
477.21	1226.73
477.42	1241.07
477.62	1230.83
477.82	1331.18
478.02	1271.79
478.23	1279.98
478.43	1279.98
478.63	1216.49
478.83	1290.22
479.03	1331.18
479.24	1210.35
479.44	1327.08
479.64	1257.45
479.84	1251.31
480.04	1232.88
480.25	1310.70
480.45	1247.21
480.65	1275.88
480.85	1241.07
481.06	1269.74
481.26	1353.71
481.46	1290.22
481.66	1265.64
481.86	1249.26
482.06	1245.16
482.27	1167.34
482.47	1249.26
482.67	1290.22
482.87	1298.41
483.07	1282.03
483.28	1327.08
483.48	1218.54
483.68	1349.61
483.88	1284.08
484.08	1241.07
484.29	1222.64
484.49	1296.36
484.69	1265.64
484.89	1263.60
485.09	1290.22
485.29	1267.69
485.50	1302.51
485.70	1325.04
485.90	1304.56
486.10	1302.51
486.30	1189.87
486.50	1259.50
486.71	1239.02
486.91	1320.94
487.11	1261.55
487.31	1263.60
487.51	1265.64
487.71	1298.41
487.91	1271.79
488.12	1333.23
488.32	1282.03
488.52	1210.35
488.72	1302.51
488.92	1208.30
489.12	1267.69
489.32	1265.64
489.53	1224.69
489.73	1259.50
489.93	1236.97
490.13	1263.60
490.33	1239.02
490.53	1273.84
490.73	1304.56
490.94	1298.41
491.14	1302.51
491.34	1251.31
491.54	1261.55
491.74	1251.31
491.94	1298.41
492.14	1310.70
492.34	1300.46
492.54	1249.26
492.75	1282.03
492.95	1294.32
493.15	1304.56
493.35	1304.56
493.55	1269.74
493.75	1310.70
493.95	1243.12
494.15	1279.98
494.35	1322.99
494.56	1273.84
494.76	1206.25
494.96	1300.46
495.16	1345.52
495.36	1308.65
495.56	1284.08
495.76	1239.02
495.96	1277.93
496.16	1308.65
496.36	1275.88
496.56	1306.60
496.77	1245.16
496.97	1277.93
497.17	1267.69
497.37	1288.17
497.57	1249.26
497.77	1345.52
497.97	1368.04
498.17	1300.46
498.37	1306.60
498.57	1294.32
498.77	1249.26
498.97	1259.50
499.17	1259.50
499.38	1296.36
499.58	1282.03
499.78	1193.97
499.98	1288.17
500.18	1236.97
500.38	1316.84
500.58	1222.64
500.78	1216.49
500.98	1200.11
501.18	1251.31
501.38	1322.99
501.58	1255.40
501.78	1245.16
501.98	1249.26
502.18	1214.45
502.38	1245.16
502.58	1300.46
502.78	1259.50
502.98	1222.64
503.18	1282.03
503.38	1228.78
503.59	1296.36
503.79	1273.84
503.99	1298.41
504.19	1241.07
504.39	1273.84
504.59	1284.08
504.79	1335.28
504.99	1290.22
505.19	1222.64
505.39	1257.45
505.59	1277.93
505.79	1294.32
505.99	1263.60
506.19	1265.64
506.39	1236.97
506.59	1355.76
506.79	1224.69
506.99	1339.37
507.19	1232.88
507.39	1251.31
507.59	1300.46
507.79	1245.16
507.99	1269.74
508.19	1337.32
508.39	1286.12
508.59	1316.84
508.79	1349.61
508.99	1302.51
509.19	1269.74
509.39	1310.70
509.59	1282.03
509.79	1290.22
509.99	1204.21
510.19	1284.08
510.39	1251.31
510.59	1163.25
510.79	1257.45
510.99	1239.02
511.19	1337.32
511.39	1253.36
511.59	1279.98
511.79	1239.02
511.99	1218.54
512.19	1306.60
512.38	1325.04
512.58	1220.59
512.78	1275.88
512.98	1290.22
513.18	1271.79
513.38	1230.83
513.58	1310.70
513.78	1302.51
513.98	1306.60
514.18	1306.60
514.38	1263.60
514.58	1312.75
514.78	1224.69
514.98	1226.73
515.18	1341.42
515.38	1269.74
515.58	1294.32
515.78	1230.83
515.98	1269.74
516.18	1261.55
516.38	1273.84
516.57	1275.88
516.77	1243.12
516.97	1277.93
517.17	1296.36
517.37	1251.31
517.57	1255.40
517.77	1277.93
517.97	1232.88
518.17	1320.94
518.37	1282.03
518.57	1294.32
518.77	1318.89
518.97	1257.45
519.16	1366.00
519.36	1349.61
519.56	1327.08
519.76	1269.74
519.96	1273.84
520.16	1279.98
520.36	1239.02
520.56	1312.75
520.76	1216.49
520.96	1255.40
521.16	1304.56
521.35	1167.34
521.55	1318.89
521.75	1265.64
521.95	1284.08
522.15	1277.93
522.35	1298.41
522.55	1273.84
522.75	1292.27
522.95	1212.40
523.14	1279.98
523.34	1277.93
523.54	1294.32
523.74	1263.60
523.94	1300.46
524.14	1288.17
524.34	1312.75
524.54	1232.88
524.73	1296.36
524.93	1263.60
525.13	1271.79
525.33	1247.21
525.53	1275.88
525.73	1298.41
525.93	1253.36
526.13	1232.88
526.32	1279.98
526.52	1355.76
526.72	1232.88
526.92	1288.17
527.12	1247.21
527.32	1226.73
527.52	1236.97
527.71	1290.22
527.91	1224.69
528.11	1316.84
528.31	1333.23
528.51	1384.43
528.71	1290.22
528.90	1306.60
529.10	1331.18
529.30	1239.02
529.50	1290.22
529.70	1341.42
529.90	1261.55
530.09	1318.89
530.29	1290.22
530.49	1257.45
530.69	1282.03
530.89	1249.26
531.09	1275.88
531.28	1271.79
531.48	1208.30
531.68	1198.06
531.88	1271.79
532.08	1288.17
532.28	1222.64
532.47	1286.12
532.67	1275.88
532.87	1249.26
533.07	1370.09
533.27	1308.65
533.46	1292.27
533.66	1308.65
533.86	1331.18
534.06	1322.99
534.26	1198.06
534.45	1224.69
534.65	1257.45
534.85	1226.73
535.05	1265.64
535.25	1275.88
535.44	1314.80
535.64	1331.18
535.84	1263.60
536.04	1320.94
536.24	1267.69
536.43	1275.88
536.63	1292.27
536.83	1226.73
537.03	1282.03
537.22	1271.79
537.42	1314.80
537.62	1286.12
537.82	1347.56
538.02	1263.60
538.21	1314.80
538.41	1261.55
538.61	1329.13
538.81	1247.21
539.00	1273.84
539.20	1286.12
539.40	1392.62
539.60	1253.36
539.79	1218.54
539.99	1255.40
540.19	1245.16
540.39	1290.22
540.58	1257.45
540.78	1310.70
540.98	1277.93
541.18	1318.89
541.37	1245.16
541.57	1343.47
541.77	1261.55
541.97	1284.08
542.16	1302.51
542.36	1228.78
542.56	1214.45
542.76	1236.97
542.95	1298.41
543.15	1310.70
543.35	1349.61
543.54	1202.16
543.74	1284.08
543.94	1232.88
544.14	1257.45
544.33	1277.93
544.53	1312.75
544.73	1220.59
544.93	1312.75
545.12	1361.90
545.32	1284.08
545.52	1269.74
545.71	1335.28
545.91	1263.60
546.11	1230.83
546.30	1282.03
546.50	1308.65
546.70	1255.40
546.90	1284.08
547.09	1210.35
547.29	1325.04
547.49	1249.26
547.68	1325.04
547.88	1329.13
548.08	1275.88
548.27	1314.80
548.47	1239.02
548.67	1279.98
548.87	1273.84
549.06	1269.74
549.26	1230.83
549.46	1300.46
549.65	1359.85
549.85	1263.60
550.05	1306.60
550.24	1236.97
550.44	1269.74
550.64	1269.74
550.83	1198.06
551.03	1292.27
551.23	1249.26
551.42	1294.32
551.62	1282.03
551.82	1284.08
552.01	1212.40
552.21	1282.03
552.41	1341.42
552.60	1216.49
552.80	1255.40
553.00	1286.12
553.19	1279.98
553.39	1349.61
553.59	1226.73
553.78	1269.74
553.98	1359.85
554.17	1269.74
554.37	1273.84
554.57	1302.51
554.76	1220.59
554.96	1267.69
555.16	1239.02
555.35	1361.90
555.55	1249.26
555.75	1277.93
555.94	1202.16
556.14	1327.08
556.33	1298.41
556.53	1253.36
556.73	1228.78
556.92	1279.98
557.12	1325.04
557.32	1241.07
557.51	1159.15
557.71	1282.03
557.90	1253.36
558.10	1304.56
558.30	1279.98
558.49	1343.47
558.69	1208.30
558.88	1263.60
559.08	1341.42
559.28	1230.83
559.47	1310.70
559.67	1265.64
559.86	1300.46
560.06	1253.36
560.26	1226.73
560.45	1247.21
560.65	1200.11
560.84	1286.12
561.04	1247.21
561.24	1273.84
561.43	1304.56
561.63	1279.98
561.82	1243.12
562.02	1300.46
562.22	1292.27
562.41	1282.03
562.61	1204.21
562.80	1234.93
563.00	1249.26
563.19	1318.89
563.39	1286.12
563.59	1255.40
563.78	1200.11
563.98	1347.56
564.17	1241.07
564.37	1331.18
564.56	1267.69
564.76	1269.74
564.96	1286.12
565.15	1355.76
565.35	1306.60
565.54	1298.41
565.74	1363.95
565.93	1224.69
566.13	1300.46
566.32	1241.07
566.52	1357.80
566.71	1232.88
566.91	1304.56
567.11	1251.31
567.30	1300.46
567.50	1284.08
567.69	1363.95
567.89	1255.40
568.08	1230.83
568.28	1239.02
568.47	1236.97
568.67	1259.50
568.86	1282.03
569.06	1220.59
569.25	1294.32
569.45	1243.12
569.64	1263.60
569.84	1286.12
570.04	1216.49
570.23	1228.78
570.43	1263.60
570.62	1202.16
570.82	1234.93
571.01	1265.64
571.21	1230.83
571.40	1257.45
571.60	1273.84
571.79	1310.70
571.99	1265.64
572.18	1265.64
572.38	1314.80
572.57	1327.08
572.77	1239.02
572.96	1185.77
573.16	1271.79
573.35	1355.76
573.55	1241.07
573.74	1257.45
573.94	1290.22
574.13	1271.79
574.33	1265.64
574.52	1290.22
574.71	1275.88
574.91	1292.27
575.10	1253.36
575.30	1335.28
575.49	1243.12
575.69	1259.50
575.88	1308.65
576.08	1263.60
576.27	1224.69
576.47	1312.75
576.66	1304.56
576.86	1318.89
577.05	1249.26
577.25	1298.41
577.44	1271.79
577.64	1247.21
577.83	1191.92
578.02	1259.50
578.22	1327.08
578.41	1294.32
578.61	1259.50
578.80	1253.36
579.00	1327.08
579.19	1228.78
579.39	1361.90
579.58	1257.45
579.77	1265.64
579.97	1335.28
580.16	1316.84
580.36	1322.99
580.55	1312.75
580.75	1261.55
580.94	1308.65
581.13	1361.90
581.33	1341.42
581.52	1290.22
581.72	1304.56
581.91	1212.40
582.11	1275.88
582.30	1277.93
582.49	1290.22
582.69	1271.79
582.88	1306.60
583.08	1191.92
583.27	1253.36
583.47	1259.50
583.66	1363.95
583.85	1290.22
584.05	1359.85
584.24	1294.32
584.44	1271.79
584.63	1277.93
584.82	1290.22
585.02	1341.42
585.21	1337.32
585.41	1296.36
585.60	1329.13
585.79	1292.27
585.99	1341.42
586.18	1214.45
586.37	1212.40
586.57	1259.50
586.76	1329.13
586.96	1333.23
587.15	1232.88
587.34	1249.26
587.54	1318.89
587.73	1247.21
587.93	1241.07
588.12	1302.51
588.31	1318.89
588.51	1286.12
588.70	1271.79
588.89	1214.45
589.09	1259.50
589.28	1259.50
589.47	1279.98
589.67	1298.41
589.86	1296.36
590.06	1208.30
590.25	1320.94
590.44	1288.17
590.64	1265.64
590.83	1277.93
591.02	1261.55
591.22	1247.21
591.41	1263.60
591.60	1267.69
591.80	1308.65
591.99	1325.04
592.18	1273.84
592.38	1310.70
592.57	1318.89
592.76	1298.41
592.96	1247.21
593.15	1294.32
593.34	1271.79
593.54	1275.88
593.73	1267.69
593.92	1308.65
594.12	1327.08
594.31	1259.50
594.50	1284.08
594.70	1286.12
594.89	1333.23
595.08	1284.08
595.28	1370.09
595.47	1341.42
595.66	1286.12
595.86	1286.12
596.05	1261.55
596.24	1339.37
596.43	1302.51
596.63	1282.03
596.82	1255.40
597.01	1306.60
597.21	1273.84
597.40	1282.03
597.59	1298.41
597.79	1214.45
597.98	1265.64
598.17	1241.07
598.36	1269.74
598.56	1239.02
598.75	1294.32
598.94	1261.55
599.14	1236.97
599.33	1236.97
599.52	1230.83
599.71	1286.12
599.91	1255.40
600.10	1216.49
600.29	1312.75
600.48	1361.90
600.68	1288.17
600.87	1210.35
601.06	1257.45
601.26	1298.41
601.45	1200.11
601.64	1320.94
601.83	1341.42
602.03	1263.60
602.22	1298.41
602.41	1279.98
602.60	1261.55
602.80	1345.52
602.99	1331.18
603.18	1372.14
603.37	1284.08
603.57	1304.56
603.76	1357.80
603.95	1265.64
604.14	1302.51
604.34	1275.88
604.53	1380.33
604.72	1224.69
604.91	1282.03
605.10	1236.97
605.30	1339.37
605.49	1359.85
605.68	1275.88
605.87	1341.42
606.07	1241.07
606.26	1329.13
606.45	1261.55
606.64	1224.69
606.84	1331.18
607.03	1292.27
607.22	1259.50
607.41	1304.56
607.60	1331.18
607.80	1298.41
607.99	1271.79
608.18	1241.07
608.37	1298.41
608.56	1294.32
608.76	1341.42
608.95	1284.08
609.14	1288.17
609.33	1294.32
609.52	1290.22
609.72	1279.98
609.91	1357.80
610.10	1218.54
610.29	1294.32
610.48	1298.41
610.68	1325.04
610.87	1351.66
611.06	1302.51
611.25	1265.64
611.44	1234.93
611.63	1290.22
611.83	1249.26
612.02	1279.98
612.21	1343.47
612.40	1304.56
612.59	1306.60
612.79	1261.55
612.98	1288.17
613.17	1320.94
613.36	1232.88
613.55	1327.08
613.74	1249.26
613.93	1253.36
614.13	1290.22
614.32	1351.66
614.51	1263.60
614.70	1265.64
614.89	1241.07
615.08	1290.22
615.28	1331.18
615.47	1277.93
615.66	1331.18
615.85	1267.69
616.04	1347.56
616.23	1259.50
616.42	1224.69
616.62	1220.59
616.81	1298.41
617.00	1294.32
617.19	1193.97
617.38	1409.00
617.57	1296.36
617.76	1314.80
617.95	1263.60
618.15	1189.87
618.34	1257.45
618.53	1343.47
618.72	1302.51
618.91	1265.64
619.10	1347.56
619.29	1308.65
619.48	1255.40
619.68	1294.32
619.87	1259.50
620.06	1320.94
620.25	1304.56
620.44	1314.80
620.63	1306.60
620.82	1286.12
621.01	1253.36
621.20	1236.97
621.39	1265.64
621.59	1357.80
621.78	1236.97
621.97	1269.74
622.16	1306.60
622.35	1212.40
622.54	1292.27
622.73	1286.12
622.92	1224.69
623.11	1173.49
623.30	1277.93
623.49	1239.02
623.68	1253.36
623.88	1286.12
624.07	1296.36
624.26	1310.70
624.45	1320.94
624.64	1286.12
624.83	1284.08
625.02	1255.40
625.21	1320.94
625.40	1230.83
625.59	1279.98
625.78	1230.83
625.97	1337.32
626.16	1353.71
626.35	1327.08
626.54	1298.41
626.74	1318.89
626.93	1292.27
627.12	1247.21
627.31	1277.93
627.50	1263.60
627.69	1312.75
627.88	1265.64
628.07	1322.99
628.26	1218.54
628.45	1296.36
628.64	1331.18
628.83	1261.55
629.02	1372.14
629.21	1251.31
629.40	1304.56
629.59	1306.60
629.78	1308.65
629.97	1239.02
630.16	1333.23
630.35	1282.03
630.54	1341.42
630.73	1347.56
630.92	1320.94
631.11	1333.23
631.30	1325.04
631.49	1398.76
631.68	1783.78
631.87	2711.51
632.06	7858.06
632.25	15525.65
632.44	11876.17
632.63	7552.91
632.82	6645.66
633.01	2832.34
633.20	2265.05
633.39	1972.19
633.58	1986.53
633.77	1775.59
633.96	1683.43
634.15	1634.28
634.34	1665.00
634.53	1540.07
634.72	1640.42
634.91	1464.30
635.10	1411.05
635.29	1501.16
635.48	1515.50
635.67	1482.73
635.86	1357.80
636.05	1396.71
636.24	1452.01
636.43	1411.05
636.62	1433.58
636.81	1322.99
637.00	1355.76
637.19	1347.56
637.38	1392.62
637.57	1353.71
637.76	1363.95
637.95	1363.95
638.14	1384.43
638.33	1306.60
638.52	1306.60
638.71	1253.36
638.89	1306.60
639.08	1263.60
639.27	1277.93
639.46	1259.50
639.65	1284.08
639.84	1304.56
640.03	1298.41
640.22	1290.22
640.41	1273.84
640.60	1269.74
640.79	1259.50
640.98	1296.36
641.17	1292.27
641.36	1245.16
641.55	1257.45
641.74	1265.64
641.92	1306.60
642.11	1306.60
642.30	1222.64
642.49	1193.97
642.68	1275.88
642.87	1202.16
643.06	1296.36
643.25	1284.08
643.44	1320.94
643.63	1259.50
643.82	1288.17
644.00	1269.74
644.19	1290.22
644.38	1257.45
644.57	1239.02
644.76	1226.73
644.95	1275.88
645.14	1300.46
645.33	1230.83
645.52	1284.08
645.71	1255.40
645.89	1298.41
646.08	1224.69
646.27	1327.08
646.46	1300.46
646.65	1304.56
646.84	1282.03
647.03	1253.36
647.22	1189.87
647.40	1273.84
647.59	1206.25
647.78	1257.45
647.97	1341.42
648.16	1267.69
648.35	1417.19
648.54	1249.26
648.73	1273.84
648.91	1316.84
649.10	1216.49
649.29	1347.56
649.48	1224.69
649.67	1302.51
649.86	1294.32
650.05	1327.08
650.23	1327.08
650.42	1335.28
650.61	1290.22
650.80	1288.17
650.99	1343.47
651.18	1226.73
651.36	1263.60
651.55	1191.92
651.74	1265.64
651.93	1271.79
652.12	1292.27
652.31	1294.32
652.49	1271.79
652.68	1284.08
652.87	1247.21
653.06	1263.60
653.25	1253.36
653.44	1265.64
653.62	1279.98
653.81	1294.32
654.00	1265.64
654.19	1230.83
654.38	1308.65
654.56	1314.80
654.75	1282.03
654.94	1214.45
655.13	1249.26
655.32	1249.26
655.51	1316.84
655.69	1263.60
655.88	1288.17
656.07	1153.01
656.26	1277.93
656.45	1218.54
656.63	1288.17
656.82	1253.36
657.01	1224.69
657.20	1255.40
657.38	1320.94
657.57	1267.69
657.76	1298.41
657.95	1269.74
658.14	1255.40
658.32	1347.56
658.51	1234.93
658.70	1347.56
658.89	1296.36
659.08	1318.89
659.26	1273.84
659.45	1179.63
659.64	1220.59
659.83	1302.51
660.01	1271.79
660.20	1273.84
660.39	1361.90
660.58	1189.87
660.76	1220.59
660.95	1230.83
661.14	1259.50
661.33	1279.98
661.51	1304.56
661.70	1214.45
661.89	1273.84
662.08	1300.46
662.26	1249.26
662.45	1255.40
662.64	1234.93
662.83	1261.55
663.01	1273.84
663.20	1226.73
663.39	1314.80
663.58	1275.88
663.76	1359.85
663.95	1216.49
664.14	1259.50
664.32	1290.22
664.51	1275.88
664.70	1251.31
664.89	1253.36
665.07	1251.31
665.26	1273.84
665.45	1302.51
665.64	1335.28
665.82	1257.45
666.01	1251.31
666.20	1333.23
666.38	1257.45
666.57	1290.22
666.76	1304.56
666.95	1282.03
667.13	1273.84
667.32	1290.22
667.51	1314.80
667.69	1302.51
667.88	1239.02
668.07	1282.03
668.25	1263.60
668.44	1290.22
668.63	1234.93
668.81	1247.21
669.00	1241.07
669.19	1212.40
669.38	1290.22
669.56	1302.51
669.75	1302.51
669.94	1322.99
670.12	1314.80
670.31	1275.88
670.50	1302.51
670.68	1249.26
670.87	1212.40
671.06	1279.98
671.24	1310.70
671.43	1269.74
671.62	1322.99
671.80	1249.26
671.99	1202.16
672.18	1267.69
672.36	1267.69
672.55	1316.84
672.74	1259.50
672.92	1208.30
673.11	1226.73
673.29	1320.94
673.48	1267.69
673.67	1290.22
673.85	1310.70
674.04	1249.26
674.23	1249.26
674.41	1253.36
674.60	1271.79
674.79	1298.41
674.97	1263.60
675.16	1226.73
675.34	1312.75
675.53	1257.45
675.72	1222.64
675.90	1343.47
676.09	1253.36
676.28	1335.28
676.46	1267.69
676.65	1275.88
676.83	1265.64
677.02	1286.12
677.21	1216.49
677.39	1253.36
677.58	1306.60
677.77	1275.88
677.95	1249.26
678.14	1320.94
678.32	1286.12
678.51	1198.06
678.70	1279.98
678.88	1243.12
679.07	1243.12
679.25	1335.28
679.44	1298.41
679.63	1318.89
679.81	1296.36
680.00	1267.69
680.18	1214.45
680.37	1269.74
680.55	1277.93
680.74	1257.45
680.93	1263.60
681.11	1314.80
681.30	1275.88
681.48	1300.46
681.67	1320.94
681.85	1257.45
682.04	1302.51
682.23	1345.52
682.41	1343.47
682.60	1294.32
682.78	1249.26
682.97	1218.54
683.15	1261.55
683.34	1241.07
683.53	1267.69
683.71	1251.31
683.90	1288.17
684.08	1269.74
684.27	1269.74
684.45	1226.73
684.64	1263.60
684.82	1275.88
685.01	1257.45
685.19	1296.36
685.38	1310.70
685.57	1255.40
685.75	1251.31
685.94	1261.55
686.12	1366.00
686.31	1265.64
686.49	1286.12
686.68	1196.01
686.86	1380.33
687.05	1318.89
687.23	1183.73
687.42	1265.64
687.60	1261.55
687.79	1275.88
687.97	1271.79
688.16	1335.28
688.34	1282.03
688.53	1265.64
688.71	1282.03
688.90	1318.89
689.08	1284.08
689.27	1275.88
689.45	1249.26
689.64	1288.17
689.82	1196.01
690.01	1273.84
690.19	1320.94
690.38	1279.98
690.56	1308.65
690.75	1269.74
690.93	1298.41
691.12	1288.17
691.30	1318.89
691.49	1271.79
691.67	1247.21
691.86	1314.80
692.04	1263.60
692.23	1290.22
692.41	1232.88
692.60	1298.41
692.78	1304.56
692.97	1273.84
693.15	1316.84
693.34	1294.32
693.52	1314.80
693.71	1312.75
693.89	1308.65
694.08	1253.36
694.26	1261.55
694.44	1232.88
694.63	1273.84
694.81	1320.94
695.00	1284.08
695.18	1269.74
695.37	1253.36
695.55	1249.26
695.74	1257.45
695.92	1216.49
696.10	1241.07
696.29	1312.75
696.47	1271.79
696.66	1241.07
696.84	1333.23
697.03	1304.56
697.21	1310.70
697.40	1275.88
697.58	1224.69
697.76	1296.36
697.95	1255.40
698.13	1239.02
698.32	1275.88
698.50	1232.88
698.68	1284.08
698.87	1251.31
699.05	1232.88
699.24	1239.02
699.42	1279.98
699.61	1337.32
699.79	1269.74
699.97	1275.88
700.16	1316.84
700.34	1259.50
700.53	1282.03
700.71	1277.93
700.89	1232.88
701.08	1265.64
701.26	1320.94
701.45	1241.07
701.63	1271.79
701.81	1247.21
702.00	1261.55
702.18	1247.21
702.37	1310.70
702.55	1218.54
702.73	1288.17
702.92	1284.08
703.10	1245.16
703.28	1257.45
703.47	1232.88
703.65	1300.46
703.84	1300.46
704.02	1304.56
704.20	1298.41
704.39	1290.22
704.57	1132.53
704.75	1230.83
704.94	1251.31
705.12	1253.36
705.30	1320.94
705.49	1257.45
705.67	1269.74
705.86	1216.49
706.04	1292.27
706.22	1298.41
706.41	1314.80
706.59	1279.98
706.77	1257.45
706.96	1255.40
707.14	1322.99
707.32	1290.22
707.51	1230.83
707.69	1294.32
707.87	1259.50
708.06	1325.04
708.24	1304.56
708.42	1333.23
708.61	1253.36
708.79	1251.31
708.97	1206.25
709.16	1269.74
709.34	1282.03
709.52	1249.26
709.71	1282.03
709.89	1247.21
710.07	1273.84
710.26	1292.27
710.44	1282.03
710.62	1253.36
710.80	1245.16
710.99	1234.93
711.17	1298.41
711.35	1282.03
711.54	1249.26
711.72	1267.69
711.90	1292.27
712.09	1257.45
712.27	1257.45
712.45	1218.54
712.63	1230.83
712.82	1279.98
713.00	1230.83
713.18	1304.56
713.37	1232.88
713.55	1263.60
713.73	1261.55
713.91	1263.60
714.10	1261.55
714.28	1325.04
714.46	1249.26
714.65	1288.17
714.83	1263.60
715.01	1241.07
715.19	1275.88
715.38	1265.64
715.56	1255.40
715.74	1200.11
715.92	1232.88
716.11	1236.97
716.29	1249.26
716.47	1204.21
716.65	1265.64
716.84	1296.36
717.02	1234.93
717.20	1286.12
717.38	1331.18
717.57	1251.31
717.75	1218.54
717.93	1228.78
718.11	1265.64
718.30	1304.56
718.48	1312.75
718.66	1298.41
718.84	1271.79
719.03	1312.75
719.21	1263.60
719.39	1292.27
719.57	1271.79
719.75	1253.36
719.94	1241.07
720.12	1265.64
720.30	1337.32
720.48	1259.50
720.67	1265.64
720.85	1249.26
721.03	1329.13
721.21	1251.31
721.39	1150.96
721.58	1296.36
721.76	1286.12
721.94	1271.79
722.12	1320.94
722.30	1320.94
722.49	1230.83
722.67	1269.74
722.85	1345.52
723.03	1271.79
723.21	1206.25
723.40	1249.26
723.58	1234.93
723.76	1320.94
723.94	1220.59
724.12	1245.16
724.30	1271.79
724.49	1214.45
724.67	1230.83
724.85	1290.22
725.03	1271.79
725.21	1255.40
725.40	1241.07
725.58	1226.73
725.76	1150.96
725.94	1245.16
726.12	1290.22
726.30	1214.45
726.49	1265.64
726.67	1298.41
726.85	1275.88
727.03	1277.93
727.21	1239.02
727.39	1310.70
727.57	1288.17
727.76	1239.02
727.94	1314.80
728.12	1271.79
728.30	1241.07
728.48	1259.50
728.66	1224.69
728.84	1267.69
729.03	1204.21
729.21	1261.55
729.39	1277.93
729.57	1288.17
729.75	1302.51
729.93	1239.02
730.11	1232.88
730.30	1312.75
730.48	1255.40
730.66	1314.80
730.84	1279.98
731.02	1304.56
731.20	1300.46
731.38	1279.98
731.56	1304.56
731.74	1232.88
731.93	1232.88
732.11	1286.12
732.29	1267.69
732.47	1286.12
732.65	1249.26
732.83	1282.03
733.01	1335.28
733.19	1220.59
733.37	1279.98
733.56	1322.99
733.74	1273.84
733.92	1259.50
734.10	1271.79
734.28	1257.45
734.46	1269.74
734.64	1185.77
734.82	1269.74
735.00	1290.22
735.18	1347.56
735.36	1275.88
735.54	1169.39
735.73	1279.98
735.91	1210.35
736.09	1320.94
736.27	1269.74
736.45	1253.36
736.63	1284.08
736.81	1300.46
736.99	1347.56
737.17	1302.51
737.35	1296.36
737.53	1306.60
737.71	1279.98
737.89	1239.02
738.07	1224.69
738.25	1224.69
738.43	1232.88
738.61	1228.78
738.80	1298.41
738.98	1308.65
739.16	1228.78
739.34	1304.56
739.52	1325.04
739.70	1341.42
739.88	1271.79
740.06	1253.36
740.24	1206.25
740.42	1251.31
740.60	1271.79
740.78	1232.88
740.96	1259.50
741.14	1249.26
741.32	1236.97
741.50	1241.07
741.68	1288.17
741.86	1185.77
742.04	1239.02
742.22	1224.69
742.40	1271.79
742.58	1228.78
742.76	1331.18
742.94	1275.88
743.12	1251.31
743.30	1175.53
743.48	1222.64
743.66	1230.83
743.84	1265.64
744.02	1294.32
744.20	1284.08
744.38	1239.02
744.56	1255.40
744.74	1279.98
744.92	1255.40
745.10	1282.03
745.28	1282.03
745.46	1232.88
745.64	1312.75
745.82	1269.74
746.00	1167.34
746.18	1277.93
746.36	1208.30
746.54	1292.27
746.72	1306.60
746.90	1224.69
747.08	1208.30
747.26	1226.73
747.44	1224.69
747.62	1224.69
747.80	1234.93
747.98	1290.22
748.15	1193.97
748.33	1234.93
748.51	1259.50
748.69	1241.07
748.87	1220.59
749.05	1355.76
749.23	1306.60
749.41	1232.88
749.59	1220.59
749.77	1300.46
749.95	1259.50
750.13	1308.65
750.31	1269.74
750.49	1292.27
750.67	1331.18
750.85	1267.69
751.03	1298.41
751.20	1306.60
751.38	1232.88
751.56	1232.88
751.74	1322.99
751.92	1320.94
752.10	1294.32
752.28	1292.27
752.46	1308.65
752.64	1193.97
752.82	1273.84
753.00	1196.01
753.18	1222.64
753.35	1292.27
753.53	1329.13
753.71	1314.80
753.89	1257.45
754.07	1261.55
754.25	1302.51
754.43	1247.21
754.61	1230.83
754.79	1284.08
754.97	1277.93
755.14	1282.03
755.32	1282.03
755.50	1228.78
755.68	1222.64
755.86	1212.40
756.04	1279.98
756.22	1191.92
756.40	1253.36
756.57	1271.79
756.75	1269.74
756.93	1257.45
757.11	1308.65
757.29	1265.64
757.47	1275.88
757.65	1288.17
757.82	1251.31
758.00	1249.26
758.18	1259.50
758.36	1224.69
758.54	1310.70
758.72	1265.64
758.90	1253.36
759.07	1214.45
759.25	1277.93
759.43	1279.98
759.61	1288.17
759.79	1286.12
759.97	1298.41
760.15	1255.40
760.32	1249.26
760.50	1296.36
760.68	1322.99
760.86	1329.13
761.04	1316.84
761.22	1298.41
761.39	1353.71
761.57	1282.03
761.75	1290.22
761.93	1224.69
762.11	1241.07
762.28	1286.12
762.46	1325.04
762.64	1257.45
762.82	1335.28
763.00	1271.79
763.18	1320.94
763.35	1226.73
763.53	1279.98
763.71	1220.59
763.89	1300.46
764.07	1249.26
764.24	1198.06
764.42	1234.93
764.60	1204.21
764.78	1257.45
764.96	1265.64
765.13	1296.36
765.31	1253.36
765.49	1212.40
765.67	1206.25
765.84	1265.64
766.02	1216.49
766.20	1218.54
766.38	1294.32
766.56	1304.56
766.73	1277.93
766.91	1288.17
767.09	1378.28
767.27	1288.17
767.44	1259.50
767.62	1247.21
767.80	1239.02
767.98	1255.40
768.15	1273.84
768.33	1189.87
768.51	1265.64
768.69	1306.60
768.87	1318.89
769.04	1255.40
769.22	1239.02
769.40	1290.22
769.58	1263.60
769.75	1236.97
769.93	1236.97
770.11	1298.41
770.28	1294.32
770.46	1310.70
770.64	1279.98
770.82	1241.07
770.99	1249.26
771.17	1306.60
771.35	1220.59
771.53	1273.84
771.70	1294.32
771.88	1200.11
772.06	1312.75
772.23	1249.26
772.41	1165.29
772.59	1224.69
772.77	1279.98
772.94	1224.69
773.12	1243.12
773.30	1200.11
773.47	1320.94
773.65	1230.83
773.83	1236.97
774.01	1286.12
774.18	1241.07
774.36	1286.12
774.54	1331.18
774.71	1247.21
774.89	1269.74
775.07	1316.84
775.24	1290.22
775.42	1316.84
775.60	1298.41
775.78	1292.27
775.95	1136.62
776.13	1298.41
776.31	1230.83
776.48	1251.31
776.66	1239.02
776.84	1247.21
777.01	1275.88
777.19	1265.64
777.37	1271.79
777.54	1218.54
777.72	1279.98
777.90	1308.65
778.07	1236.97
778.25	1171.44
778.43	1304.56
778.60	1232.88
778.78	1265.64
778.96	1351.66
779.13	1294.32
779.31	1286.12
779.49	1212.40
779.66	1263.60
779.84	1220.59
780.01	1282.03
780.19	1314.80
780.37	1259.50
780.54	1245.16
780.72	1200.11
780.90	1208.30
781.07	1255.40
781.25	1241.07
781.43	1253.36
781.60	1322.99
781.78	1241.07
781.95	1267.69
782.13	1282.03
782.31	1243.12
782.48	1257.45
782.66	1249.26
782.83	1236.97
783.01	1228.78
783.19	1236.97
783.36	1273.84
783.54	1269.74
783.72	1277.93
783.89	1259.50
784.07	1222.64
784.24	1339.37
784.42	1257.45
784.60	1216.49
784.77	1263.60
784.95	1320.94
785.12	1232.88
785.30	1335.28
785.47	1306.60
785.65	1210.35
785.83	1249.26
786.00	1302.51
786.18	1249.26
786.35	1275.88
786.53	1296.36
786.71	1277.93
786.88	1265.64
787.06	1232.88
787.23	1220.59
787.41	1255.40
787.58	1239.02
787.76	1290.22
787.94	1277.93
788.11	1214.45
788.29	1271.79
788.46	1298.41
788.64	1306.60
788.81	1212.40
788.99	1183.73
789.16	1204.21
789.34	1296.36
789.52	1314.80
789.69	1282.03
789.87	1269.74
790.04	1306.60
790.22	1341.42
790.39	1249.26
790.57	1286.12
790.74	1236.97
790.92	1296.36
791.09	1224.69
791.27	1249.26
791.44	1337.32
791.62	1196.01
791.79	1279.98
791.97	1320.94
792.15	1286.12
792.32	1310.70
792.50	1316.84
792.67	1265.64
792.85	1294.32
793.02	1273.84
793.20	1224.69
793.37	1286.12
793.55	1279.98
793.72	1294.32
793.90	1282.03
794.07	1208.30
794.25	1310.70
794.42	1306.60
794.60	1271.79
794.77	1322.99
794.95	1226.73
795.12	1181.68
795.30	1327.08
795.47	1228.78
795.65	1271.79
795.82	1277.93
796.00	1267.69
796.17	1247.21
796.34	1310.70
796.52	1320.94
796.69	1228.78
796.87	1288.17
797.04	1249.26
797.22	1241.07
797.39	1343.47
797.57	1267.69
797.74	1300.46
797.92	1271.79
798.09	1279.98
798.27	1259.50
798.44	1279.98
798.62	1292.27
798.79	1331.18
798.96	1296.36
799.14	1277.93
799.31	1173.49
799.49	1310.70
799.66	1206.25
799.84	1220.59
800.01	1284.08
800.19	1251.31
800.36	1243.12
800.53	1263.60
800.71	1263.60
800.88	1220.59
801.06	1271.79
801.23	1230.83
801.41	1243.12
801.58	1302.51
801.75	1191.92
801.93	1288.17
802.10	1232.88
802.28	1263.60
802.45	1189.87
802.63	1251.31
802.80	1165.29
802.97	1265.64
803.15	1255.40
803.32	1306.60
803.50	1296.36
803.67	1267.69
803.84	1208.30
804.02	1214.45
804.19	1271.79
804.37	1290.22
804.54	1302.51
804.71	1320.94
804.89	1234.93
805.06	1220.59
805.24	1208.30
805.41	1181.68
805.58	1241.07
805.76	1282.03
805.93	1359.85
806.10	1259.50
806.28	1263.60
806.45	1277.93
806.63	1255.40
806.80	1286.12
806.97	1318.89
807.15	1282.03
807.32	1253.36
807.49	1245.16
807.67	1245.16
807.84	1249.26
808.01	1265.64
808.19	1300.46
808.36	1288.17
808.54	1245.16
808.71	1232.88
808.88	1247.21
809.06	1236.97
809.23	1234.93
809.40	1265.64
809.58	1245.16
809.75	1292.27
809.92	1183.73
810.10	1257.45
810.27	1243.12
810.44	1241.07
810.62	1232.88
810.79	1273.84
810.96	1277.93
811.14	1261.55
811.31	1273.84
811.48	1241.07
811.66	1302.51
811.83	1259.50
812.00	1314.80
812.18	1241.07
812.35	1259.50
812.52	1243.12
812.69	1263.60
812.87	1204.21
813.04	1286.12
813.21	1279.98
813.39	1284.08
813.56	1261.55
813.73	1263.60
813.91	1261.55
814.08	1386.47
814.25	1179.63
814.42	1245.16
814.60	1325.04
814.77	1249.26
814.94	1239.02
815.12	1236.97
815.29	1294.32
815.46	1302.51
815.63	1370.09
815.81	1259.50
815.98	1257.45
816.15	1322.99
816.33	1243.12
816.50	1257.45
816.67	1308.65
816.84	1249.26
817.02	1308.65
817.19	1284.08
817.36	1269.74
817.53	1232.88
817.71	1271.79
817.88	1236.97
818.05	1269.74
818.22	1290.22
818.40	1288.17
818.57	1296.36
818.74	1282.03
818.91	1212.40
819.09	1265.64
819.26	1239.02
819.43	1198.06
819.60	1312.75
819.78	1234.93
819.95	1230.83
820.12	1232.88
820.29	1302.51
820.47	1302.51
820.64	1347.56
820.81	1271.79
820.98	1273.84
821.15	1245.16
821.33	1322.99
821.50	1226.73
821.67	1282.03
821.84	1286.12
822.02	1263.60
822.19	1263.60
822.36	1284.08
822.53	1243.12
822.70	1273.84
822.88	1341.42
823.05	1261.55
823.22	1277.93
823.39	1325.04
823.56	1218.54
823.74	1290.22
823.91	1316.84
824.08	1263.60
824.25	1284.08
824.42	1265.64
824.60	1245.16
824.77	1277.93
824.94	1314.80
825.11	1224.69
825.28	1277.93
825.45	1241.07
825.63	1271.79
825.80	1236.97
825.97	1314.80
826.14	1239.02
826.31	1255.40
826.48	1241.07
826.66	1206.25
826.83	1308.65
827.00	1230.83
827.17	1279.98
827.34	1245.16
827.51	1325.04
827.69	1259.50
827.86	1216.49
828.03	1212.40
828.20	1198.06
828.37	1269.74
828.54	1277.93
828.71	1245.16
828.89	1357.80
829.06	1236.97
829.23	1306.60
829.40	1204.21
829.57	1333.23
829.74	1243.12
829.91	1296.36
830.09	1167.34
830.26	1312.75
830.43	1259.50
830.60	1193.97
830.77	1251.31
830.94	1265.64
831.11	1239.02
831.28	1247.21
831.46	1234.93
831.63	1322.99
831.80	1294.32
831.97	1294.32
832.14	1275.88
832.31	1357.80
832.48	1255.40
832.65	1298.41
832.82	1288.17
832.99	1333.23
833.17	1290.22
833.34	1228.78
833.51	1198.06
833.68	1277.93
833.85	1288.17
834.02	1286.12
834.19	1263.60
834.36	1296.36
834.53	1294.32
834.70	1243.12
834.87	1241.07
835.04	1347.56
835.22	1273.84
835.39	1306.60
835.56	1255.40
835.73	1298.41
835.90	1198.06
836.07	1318.89
836.24	1251.31
836.41	1261.55
836.58	1245.16
836.75	1269.74
836.92	1269.74
837.09	1263.60
837.26	1296.36
837.43	1243.12
837.60	1210.35
837.77	1288.17
837.94	1279.98
838.12	1208.30
838.29	1267.69
838.46	1200.11
838.63	1288.17
838.80	1355.76
838.97	1255.40
839.14	1263.60
839.31	1275.88
839.48	1296.36
839.65	1245.16
839.82	1243.12
839.99	1310.70
840.16	1230.83
840.33	1200.11
840.50	1200.11
840.67	1245.16
840.84	1273.84
841.01	1339.37
841.18	1314.80
841.35	1310.70
841.52	1216.49
841.69	1363.95
841.86	1273.84
842.03	1269.74
842.20	1189.87
842.37	1206.25
842.54	1290.22
842.71	1277.93
842.88	1214.45
843.05	1300.46
843.22	1259.50
843.39	1292.27
843.56	1279.98
843.73	1234.93
843.90	1247.21
844.07	1271.79
844.24	1181.68
844.41	1255.40
844.58	1298.41
844.75	1249.26
844.92	1247.21
845.09	1290.22
845.26	1300.46
845.43	1228.78
845.60	1153.01
845.77	1298.41
845.94	1249.26
846.10	1271.79
846.27	1273.84
846.44	1234.93
846.61	1263.60
846.78	1275.88
846.95	1282.03
847.12	1269.74
847.29	1232.88
847.46	1265.64
847.63	1290.22
847.80	1247.21
847.97	1241.07
848.14	1196.01
848.31	1269.74
848.48	1257.45
848.65	1245.16
848.82	1273.84
848.98	1318.89
849.15	1263.60
849.32	1269.74
849.49	1269.74
849.66	1292.27
849.83	1318.89
850.00	1325.04
850.17	1247.21
850.34	1294.32
850.51	1230.83
850.68	1198.06
850.85	1282.03
851.01	1239.02
851.18	1347.56
851.35	1257.45
851.52	1271.79
851.69	1175.53
851.86	1298.41
852.03	1273.84
852.20	1269.74
852.37	1257.45
852.53	1306.60
852.70	1288.17
852.87	1239.02
853.04	1253.36
853.21	1279.98
853.38	1269.74
853.55	1259.50
853.72	1247.21
853.89	1282.03
854.05	1308.65
854.22	1316.84
854.39	1312.75
854.56	1267.69
854.73	1236.97
854.90	1214.45
855.07	1222.64
855.23	1243.12
855.40	1271.79
855.57	1273.84
855.74	1273.84
855.91	1284.08
856.08	1257.45
856.25	1302.51
856.41	1267.69
856.58	1302.51
856.75	1296.36
856.92	1265.64
857.09	1331.18
857.26	1236.97
857.42	1273.84
857.59	1208.30
857.76	1314.80
857.93	1259.50
858.10	1243.12
858.27	1236.97
858.43	1257.45
858.60	1286.12
858.77	1286.12
858.94	1288.17
859.11	1306.60
859.27	1257.45
859.44	1273.84
859.61	1265.64
859.78	1277.93
859.95	1310.70
860.12	1234.93
860.28	1255.40
860.45	1300.46
860.62	1284.08
860.79	1335.28
860.95	1241.07
861.12	1220.59
861.29	1218.54
861.46	1271.79
861.63	1271.79
861.79	1253.36
861.96	1306.60
862.13	1325.04
862.30	1222.64
862.47	1267.69
862.63	1253.36
862.80	1265.64
862.97	1263.60
863.14	1247.21
863.30	1232.88
863.47	1292.27
863.64	1353.71
863.81	1224.69
863.97	1271.79
864.14	1308.65
864.31	1191.92
864.48	1304.56
864.65	1251.31
864.81	1251.31
864.98	1320.94
865.15	1263.60
865.32	1320.94
865.48	1261.55
865.65	1275.88
865.82	1288.17
865.98	1253.36
866.15	1265.64
866.32	1296.36
866.49	1355.76
866.65	1261.55
866.82	1331.18
866.99	1251.31
867.16	1302.51
867.32	1294.32
867.49	1218.54
867.66	1275.88
867.83	1259.50
867.99	1290.22
868.16	1343.47
868.33	1314.80
868.49	1322.99
868.66	1265.64
868.83	1284.08
868.99	1224.69
869.16	1269.74
869.33	1271.79
869.50	1179.63
869.66	1253.36
869.83	1249.26
870.00	1261.55
870.16	1261.55
870.33	1230.83
870.50	1302.51
870.66	1308.65
870.83	1261.55
871.00	1232.88
871.17	1251.31
871.33	1345.52
871.50	1292.27
871.67	1247.21
871.83	1232.88
872.00	1292.27
872.17	1253.36
872.33	1239.02
872.50	1261.55
872.67	1259.50
872.83	1275.88
873.00	1290.22
873.17	1251.31
873.33	1314.80
873.50	1175.53
873.67	1210.35
873.83	1306.60
874.00	1236.97
874.16	1320.94
874.33	1267.69
874.50	1296.36
874.66	1308.65
874.83	1263.60
875.00	1257.45
875.16	1251.31
875.33	1263.60
875.50	1257.45
875.66	1282.03
875.83	1228.78
875.99	1218.54
876.16	1228.78
876.33	1255.40
876.49	1279.98
876.66	1222.64
876.83	1288.17
876.99	1282.03
877.16	1255.40
877.32	1322.99
877.49	1298.41
877.66	1290.22
877.82	1298.41
877.99	1282.03
878.15	1206.25
878.32	1210.35
878.49	1316.84
878.65	1286.12
878.82	1255.40
878.98	1331.18
879.15	1218.54
879.32	1337.32
879.48	1304.56
879.65	1265.64
879.81	1302.51
879.98	1302.51
880.15	1345.52
880.31	1273.84
880.48	1222.64
880.64	1249.26
880.81	1294.32
880.97	1259.50
881.14	1320.94
881.31	1236.97
881.47	1282.03
881.64	1298.41
881.80	1284.08
881.97	1265.64
882.13	1314.80
882.30	1292.27
882.47	1187.82
882.63	1267.69
882.80	1236.97
882.96	1216.49
883.13	1224.69
883.29	1322.99
883.46	1234.93
883.62	1314.80
883.79	1220.59
883.95	1198.06
884.12	1243.12
884.29	1257.45
884.45	1284.08
884.62	1273.84
884.78	1261.55
884.95	1255.40
885.11	1267.69
885.28	1228.78
885.44	1251.31
885.61	1232.88
885.77	1329.13
885.94	1236.97
886.10	1228.78
886.27	1222.64
886.43	1384.43
886.60	1269.74
886.76	1249.26
886.93	1322.99
887.09	1218.54
887.26	1243.12
887.42	1146.86
887.59	1198.06
887.75	1259.50
887.92	1245.16
888.08	1247.21
888.25	1263.60
888.41	1255.40
888.58	1312.75
888.74	1267.69
888.91	1218.54
>>>>>End Processed Spectral Data<<<<<
