SpectraSuite Data File
++++++++++++++++++++++++++++++++++++
Date: Sun Apr 03 19:55:19 CEST 2016
User: root
Dark Spectrum Present: No
Reference Spectrum Present: No
Number of Sampled Component Spectra: 1
Spectrometers: USB4C02835
Integration Time (usec): 10000 (USB4C02835)
Spectra Averaged: 1 (USB4C02835)
Boxcar Smoothing: 0 (USB4C02835)
Correct for Electrical Dark: No (USB4C02835)
Strobe/Lamp Enabled: No (USB4C02835)
Correct for Detector Non-linearity: No (USB4C02835)
Correct for Stray Light: No (USB4C02835)
Number of Pixels in Processed Spectrum: 3648
>>>>>Begin Processed Spectral Data<<<<<
177.47	1243.12
177.69	1243.12
177.91	1243.12
178.13	1312.75
178.36	1271.79
178.58	1220.59
178.80	1253.36
179.02	1257.45
179.24	1241.07
179.46	1232.88
179.68	1214.45
179.90	1224.69
180.13	1357.80
180.35	1218.54
180.57	1257.45
180.79	1261.55
181.01	1220.59
181.23	1255.40
181.45	1247.21
181.67	1243.12
181.90	1187.82
182.12	1251.31
182.34	1271.79
182.56	1306.60
182.78	1284.08
183.00	1345.52
183.22	1263.60
183.44	1312.75
183.66	1286.12
183.89	1230.83
184.11	1271.79
184.33	1247.21
184.55	1290.22
184.77	1294.32
184.99	1288.17
185.21	1247.21
185.43	1292.27
185.65	1275.88
185.87	1220.59
186.10	1333.23
186.32	1177.58
186.54	1196.01
186.76	1251.31
186.98	1222.64
187.20	1320.94
187.42	1282.03
187.64	1269.74
187.86	1245.16
188.08	1253.36
188.30	1222.64
188.52	1300.46
188.75	1269.74
188.97	1191.92
189.19	1337.32
189.41	1241.07
189.63	1286.12
189.85	1279.98
190.07	1300.46
190.29	1179.63
190.51	1271.79
190.73	1290.22
190.95	1294.32
191.17	1292.27
191.39	1306.60
191.61	1265.64
191.84	1329.13
192.06	1228.78
192.28	1271.79
192.50	1279.98
192.72	1239.02
192.94	1284.08
193.16	1310.70
193.38	1236.97
193.60	1314.80
193.82	1247.21
194.04	1271.79
194.26	1269.74
194.48	1251.31
194.70	1200.11
194.92	1292.27
195.14	1251.31
195.36	1312.75
195.58	1257.45
195.80	1337.32
196.02	1220.59
196.24	1288.17
196.46	1298.41
196.69	1271.79
196.91	1325.04
197.13	1347.56
197.35	1275.88
197.57	1300.46
197.79	1234.93
198.01	1284.08
198.23	1224.69
198.45	1261.55
198.67	1273.84
198.89	1214.45
199.11	1253.36
199.33	1267.69
199.55	1236.97
199.77	1279.98
199.99	1282.03
200.21	1230.83
200.43	1279.98
200.65	1206.25
200.87	1232.88
201.09	1294.32
201.31	1265.64
201.53	1335.28
201.75	1255.40
201.97	1234.93
202.19	1306.60
202.41	1304.56
202.63	1218.54
202.85	1255.40
203.07	1257.45
203.29	1267.69
203.51	1241.07
203.73	1265.64
203.95	1241.07
204.17	1267.69
204.39	1308.65
204.61	1302.51
204.83	1241.07
205.05	1273.84
205.27	1269.74
205.49	1181.68
205.71	1208.30
205.93	1380.33
206.15	1288.17
206.37	1273.84
206.59	1271.79
206.81	1241.07
207.03	1273.84
207.25	1286.12
207.47	1343.47
207.69	1255.40
207.91	1279.98
208.13	1339.37
208.34	1341.42
208.56	1216.49
208.78	1290.22
209.00	1263.60
209.22	1259.50
209.44	1282.03
209.66	1191.92
209.88	1255.40
210.10	1290.22
210.32	1298.41
210.54	1271.79
210.76	1255.40
210.98	1316.84
211.20	1224.69
211.42	1277.93
211.64	1314.80
211.86	1255.40
212.08	1224.69
212.30	1288.17
212.52	1210.35
212.74	1331.18
212.96	1259.50
213.17	1249.26
213.39	1279.98
213.61	1286.12
213.83	1290.22
214.05	1304.56
214.27	1306.60
214.49	1294.32
214.71	1249.26
214.93	1288.17
215.15	1298.41
215.37	1357.80
215.59	1306.60
215.81	1298.41
216.03	1320.94
216.24	1257.45
216.46	1251.31
216.68	1275.88
216.90	1239.02
217.12	1249.26
217.34	1239.02
217.56	1290.22
217.78	1316.84
218.00	1314.80
218.22	1212.40
218.44	1249.26
218.66	1271.79
218.87	1251.31
219.09	1259.50
219.31	1259.50
219.53	1284.08
219.75	1308.65
219.97	1279.98
220.19	1273.84
220.41	1263.60
220.63	1206.25
220.85	1196.01
221.06	1265.64
221.28	1290.22
221.50	1267.69
221.72	1212.40
221.94	1290.22
222.16	1286.12
222.38	1349.61
222.60	1208.30
222.82	1245.16
223.03	1300.46
223.25	1345.52
223.47	1243.12
223.69	1220.59
223.91	1312.75
224.13	1241.07
224.35	1251.31
224.57	1257.45
224.78	1322.99
225.00	1273.84
225.22	1318.89
225.44	1282.03
225.66	1279.98
225.88	1294.32
226.10	1265.64
226.32	1216.49
226.53	1261.55
226.75	1292.27
226.97	1247.21
227.19	1243.12
227.41	1273.84
227.63	1263.60
227.85	1263.60
228.06	1210.35
228.28	1206.25
228.50	1255.40
228.72	1247.21
228.94	1267.69
229.16	1322.99
229.37	1253.36
229.59	1304.56
229.81	1263.60
230.03	1214.45
230.25	1308.65
230.47	1212.40
230.69	1308.65
230.90	1304.56
231.12	1337.32
231.34	1282.03
231.56	1265.64
231.78	1263.60
232.00	1249.26
232.21	1343.47
232.43	1228.78
232.65	1275.88
232.87	1286.12
233.09	1277.93
233.30	1294.32
233.52	1234.93
233.74	1316.84
233.96	1341.42
234.18	1286.12
234.40	1284.08
234.61	1247.21
234.83	1239.02
235.05	1259.50
235.27	1337.32
235.49	1306.60
235.70	1269.74
235.92	1294.32
236.14	1245.16
236.36	1318.89
236.58	1241.07
236.79	1290.22
237.01	1236.97
237.23	1282.03
237.45	1292.27
237.67	1277.93
237.88	1224.69
238.10	1253.36
238.32	1249.26
238.54	1243.12
238.76	1243.12
238.97	1263.60
239.19	1253.36
239.41	1241.07
239.63	1222.64
239.85	1224.69
240.06	1251.31
240.28	1267.69
240.50	1239.02
240.72	1234.93
240.93	1249.26
241.15	1234.93
241.37	1159.15
241.59	1333.23
241.81	1263.60
242.02	1261.55
242.24	1279.98
242.46	1218.54
242.68	1284.08
242.89	1239.02
243.11	1277.93
243.33	1263.60
243.55	1224.69
243.76	1286.12
243.98	1296.36
244.20	1288.17
244.42	1304.56
244.64	1290.22
244.85	1277.93
245.07	1265.64
245.29	1290.22
245.51	1232.88
245.72	1247.21
245.94	1273.84
246.16	1277.93
246.38	1282.03
246.59	1202.16
246.81	1255.40
247.03	1273.84
247.24	1198.06
247.46	1282.03
247.68	1292.27
247.90	1228.78
248.11	1279.98
248.33	1275.88
248.55	1193.97
248.77	1257.45
248.98	1300.46
249.20	1216.49
249.42	1296.36
249.64	1267.69
249.85	1298.41
250.07	1288.17
250.29	1306.60
250.50	1253.36
250.72	1261.55
250.94	1261.55
251.16	1331.18
251.37	1216.49
251.59	1296.36
251.81	1259.50
252.02	1271.79
252.24	1279.98
252.46	1298.41
252.68	1288.17
252.89	1265.64
253.11	1236.97
253.33	1343.47
253.54	1277.93
253.76	1234.93
253.98	1265.64
254.20	1292.27
254.41	1273.84
254.63	1245.16
254.85	1271.79
255.06	1269.74
255.28	1275.88
255.50	1279.98
255.71	1271.79
255.93	1261.55
256.15	1275.88
256.36	1284.08
256.58	1251.31
256.80	1243.12
257.02	1331.18
257.23	1322.99
257.45	1247.21
257.67	1230.83
257.88	1245.16
258.10	1339.37
258.32	1308.65
258.53	1316.84
258.75	1247.21
258.97	1318.89
259.18	1259.50
259.40	1279.98
259.62	1290.22
259.83	1294.32
260.05	1269.74
260.27	1298.41
260.48	1284.08
260.70	1196.01
260.92	1294.32
261.13	1290.22
261.35	1288.17
261.57	1277.93
261.78	1300.46
262.00	1277.93
262.22	1263.60
262.43	1288.17
262.65	1286.12
262.86	1290.22
263.08	1282.03
263.30	1304.56
263.51	1257.45
263.73	1236.97
263.95	1247.21
264.16	1335.28
264.38	1253.36
264.60	1234.93
264.81	1290.22
265.03	1191.92
265.25	1304.56
265.46	1249.26
265.68	1304.56
265.89	1273.84
266.11	1230.83
266.33	1294.32
266.54	1265.64
266.76	1269.74
266.98	1212.40
267.19	1263.60
267.41	1306.60
267.62	1302.51
267.84	1273.84
268.06	1273.84
268.27	1296.36
268.49	1232.88
268.70	1366.00
268.92	1284.08
269.14	1271.79
269.35	1279.98
269.57	1241.07
269.79	1255.40
270.00	1357.80
270.22	1255.40
270.43	1191.92
270.65	1241.07
270.87	1259.50
271.08	1271.79
271.30	1298.41
271.51	1198.06
271.73	1224.69
271.95	1224.69
272.16	1290.22
272.38	1302.51
272.59	1261.55
272.81	1366.00
273.02	1294.32
273.24	1241.07
273.46	1306.60
273.67	1263.60
273.89	1232.88
274.10	1208.30
274.32	1253.36
274.54	1241.07
274.75	1249.26
274.97	1284.08
275.18	1269.74
275.40	1232.88
275.61	1320.94
275.83	1243.12
276.05	1277.93
276.26	1200.11
276.48	1304.56
276.69	1361.90
276.91	1255.40
277.12	1239.02
277.34	1232.88
277.55	1249.26
277.77	1218.54
277.99	1298.41
278.20	1267.69
278.42	1306.60
278.63	1363.95
278.85	1279.98
279.06	1263.60
279.28	1234.93
279.49	1329.13
279.71	1286.12
279.93	1210.35
280.14	1261.55
280.36	1175.53
280.57	1263.60
280.79	1189.87
281.00	1255.40
281.22	1247.21
281.43	1226.73
281.65	1269.74
281.86	1251.31
282.08	1239.02
282.29	1294.32
282.51	1202.16
282.73	1241.07
282.94	1210.35
283.16	1294.32
283.37	1331.18
283.59	1279.98
283.80	1245.16
284.02	1212.40
284.23	1275.88
284.45	1312.75
284.66	1257.45
284.88	1232.88
285.09	1257.45
285.31	1308.65
285.52	1273.84
285.74	1294.32
285.95	1374.19
286.17	1306.60
286.38	1279.98
286.60	1175.53
286.81	1216.49
287.03	1284.08
287.24	1314.80
287.46	1253.36
287.67	1320.94
287.89	1236.97
288.10	1247.21
288.32	1222.64
288.53	1220.59
288.75	1249.26
288.96	1306.60
289.18	1228.78
289.39	1228.78
289.61	1228.78
289.82	1339.37
290.04	1286.12
290.25	1245.16
290.47	1284.08
290.68	1316.84
290.90	1241.07
291.11	1325.04
291.33	1279.98
291.54	1261.55
291.76	1277.93
291.97	1243.12
292.18	1322.99
292.40	1245.16
292.61	1230.83
292.83	1343.47
293.04	1200.11
293.26	1298.41
293.47	1255.40
293.69	1292.27
293.90	1232.88
294.12	1253.36
294.33	1290.22
294.55	1214.45
294.76	1290.22
294.97	1216.49
295.19	1306.60
295.40	1267.69
295.62	1282.03
295.83	1263.60
296.05	1288.17
296.26	1310.70
296.48	1290.22
296.69	1232.88
296.90	1243.12
297.12	1236.97
297.33	1202.16
297.55	1247.21
297.76	1253.36
297.98	1294.32
298.19	1241.07
298.41	1277.93
298.62	1245.16
298.83	1206.25
299.05	1304.56
299.26	1224.69
299.48	1265.64
299.69	1294.32
299.90	1204.21
300.12	1298.41
300.33	1284.08
300.55	1302.51
300.76	1282.03
300.98	1191.92
301.19	1288.17
301.40	1257.45
301.62	1261.55
301.83	1249.26
302.05	1218.54
302.26	1208.30
302.47	1167.34
302.69	1286.12
302.90	1282.03
303.12	1261.55
303.33	1226.73
303.54	1259.50
303.76	1306.60
303.97	1282.03
304.19	1241.07
304.40	1228.78
304.61	1361.90
304.83	1239.02
305.04	1302.51
305.26	1269.74
305.47	1253.36
305.68	1275.88
305.90	1222.64
306.11	1343.47
306.33	1253.36
306.54	1234.93
306.75	1257.45
306.97	1306.60
307.18	1251.31
307.39	1159.15
307.61	1218.54
307.82	1265.64
308.04	1259.50
308.25	1298.41
308.46	1273.84
308.68	1189.87
308.89	1269.74
309.10	1286.12
309.32	1218.54
309.53	1222.64
309.74	1292.27
309.96	1335.28
310.17	1300.46
310.39	1265.64
310.60	1290.22
310.81	1288.17
311.03	1232.88
311.24	1249.26
311.45	1288.17
311.67	1288.17
311.88	1247.21
312.09	1282.03
312.31	1265.64
312.52	1243.12
312.73	1220.59
312.95	1234.93
313.16	1220.59
313.37	1230.83
313.59	1282.03
313.80	1210.35
314.01	1253.36
314.23	1251.31
314.44	1312.75
314.65	1271.79
314.87	1265.64
315.08	1263.60
315.29	1294.32
315.51	1232.88
315.72	1239.02
315.93	1284.08
316.15	1279.98
316.36	1282.03
316.57	1253.36
316.79	1239.02
317.00	1249.26
317.21	1239.02
317.43	1286.12
317.64	1294.32
317.85	1304.56
318.07	1232.88
318.28	1286.12
318.49	1249.26
318.70	1257.45
318.92	1224.69
319.13	1279.98
319.34	1234.93
319.56	1245.16
319.77	1241.07
319.98	1224.69
320.20	1265.64
320.41	1298.41
320.62	1228.78
320.83	1259.50
321.05	1273.84
321.26	1253.36
321.47	1245.16
321.69	1224.69
321.90	1247.21
322.11	1298.41
322.32	1310.70
322.54	1290.22
322.75	1302.51
322.96	1253.36
323.18	1282.03
323.39	1259.50
323.60	1226.73
323.81	1345.52
324.03	1208.30
324.24	1275.88
324.45	1216.49
324.66	1253.36
324.88	1204.21
325.09	1279.98
325.30	1228.78
325.52	1294.32
325.73	1267.69
325.94	1232.88
326.15	1271.79
326.37	1208.30
326.58	1198.06
326.79	1261.55
327.00	1198.06
327.22	1277.93
327.43	1230.83
327.64	1282.03
327.85	1210.35
328.07	1308.65
328.28	1294.32
328.49	1320.94
328.70	1271.79
328.92	1282.03
329.13	1288.17
329.34	1232.88
329.55	1210.35
329.76	1222.64
329.98	1210.35
330.19	1275.88
330.40	1228.78
330.61	1271.79
330.83	1247.21
331.04	1271.79
331.25	1351.66
331.46	1322.99
331.68	1253.36
331.89	1277.93
332.10	1267.69
332.31	1325.04
332.52	1271.79
332.74	1320.94
332.95	1359.85
333.16	1282.03
333.37	1222.64
333.58	1312.75
333.80	1263.60
334.01	1263.60
334.22	1236.97
334.43	1314.80
334.64	1351.66
334.86	1236.97
335.07	1249.26
335.28	1245.16
335.49	1265.64
335.70	1241.07
335.92	1304.56
336.13	1273.84
336.34	1288.17
336.55	1310.70
336.76	1275.88
336.98	1277.93
337.19	1308.65
337.40	1345.52
337.61	1294.32
337.82	1245.16
338.04	1288.17
338.25	1284.08
338.46	1259.50
338.67	1284.08
338.88	1288.17
339.09	1261.55
339.31	1322.99
339.52	1310.70
339.73	1294.32
339.94	1273.84
340.15	1200.11
340.36	1288.17
340.58	1310.70
340.79	1261.55
341.00	1220.59
341.21	1239.02
341.42	1302.51
341.63	1333.23
341.85	1259.50
342.06	1288.17
342.27	1153.01
342.48	1298.41
342.69	1202.16
342.90	1318.89
343.12	1241.07
343.33	1202.16
343.54	1331.18
343.75	1331.18
343.96	1300.46
344.17	1265.64
344.38	1261.55
344.60	1290.22
344.81	1230.83
345.02	1308.65
345.23	1255.40
345.44	1222.64
345.65	1257.45
345.86	1290.22
346.07	1290.22
346.29	1236.97
346.50	1275.88
346.71	1228.78
346.92	1255.40
347.13	1239.02
347.34	1286.12
347.55	1230.83
347.76	1320.94
347.98	1284.08
348.19	1265.64
348.40	1187.82
348.61	1259.50
348.82	1298.41
349.03	1226.73
349.24	1271.79
349.45	1320.94
349.66	1245.16
349.88	1282.03
350.09	1249.26
350.30	1241.07
350.51	1282.03
350.72	1230.83
350.93	1236.97
351.14	1181.68
351.35	1265.64
351.56	1243.12
351.77	1304.56
351.99	1175.53
352.20	1279.98
352.41	1298.41
352.62	1257.45
352.83	1288.17
353.04	1277.93
353.25	1249.26
353.46	1292.27
353.67	1202.16
353.88	1337.32
354.09	1177.58
354.30	1249.26
354.52	1249.26
354.73	1206.25
354.94	1234.93
355.15	1216.49
355.36	1273.84
355.57	1310.70
355.78	1202.16
355.99	1263.60
356.20	1263.60
356.41	1263.60
356.62	1228.78
356.83	1259.50
357.04	1245.16
357.25	1267.69
357.46	1271.79
357.68	1275.88
357.89	1249.26
358.10	1214.45
358.31	1239.02
358.52	1263.60
358.73	1228.78
358.94	1267.69
359.15	1300.46
359.36	1312.75
359.57	1284.08
359.78	1318.89
359.99	1255.40
360.20	1251.31
360.41	1306.60
360.62	1245.16
360.83	1257.45
361.04	1318.89
361.25	1228.78
361.46	1308.65
361.67	1259.50
361.88	1282.03
362.09	1200.11
362.30	1271.79
362.51	1245.16
362.72	1279.98
362.93	1269.74
363.14	1290.22
363.35	1265.64
363.56	1271.79
363.78	1269.74
363.99	1269.74
364.20	1263.60
364.41	1316.84
364.62	1214.45
364.83	1271.79
365.04	1189.87
365.25	1208.30
365.46	1298.41
365.67	1290.22
365.88	1341.42
366.09	1220.59
366.30	1298.41
366.51	1306.60
366.72	1236.97
366.93	1294.32
367.14	1239.02
367.35	1198.06
367.56	1257.45
367.77	1216.49
367.98	1216.49
368.18	1290.22
368.39	1243.12
368.60	1247.21
368.81	1302.51
369.02	1212.40
369.23	1263.60
369.44	1239.02
369.65	1249.26
369.86	1290.22
370.07	1286.12
370.28	1265.64
370.49	1331.18
370.70	1239.02
370.91	1306.60
371.12	1265.64
371.33	1286.12
371.54	1196.01
371.75	1236.97
371.96	1296.36
372.17	1288.17
372.38	1249.26
372.59	1275.88
372.80	1247.21
373.01	1284.08
373.22	1325.04
373.43	1284.08
373.64	1249.26
373.85	1284.08
374.06	1282.03
374.26	1288.17
374.47	1314.80
374.68	1310.70
374.89	1261.55
375.10	1236.97
375.31	1306.60
375.52	1206.25
375.73	1296.36
375.94	1259.50
376.15	1288.17
376.36	1255.40
376.57	1214.45
376.78	1292.27
376.99	1341.42
377.20	1316.84
377.40	1275.88
377.61	1255.40
377.82	1261.55
378.03	1294.32
378.24	1302.51
378.45	1314.80
378.66	1298.41
378.87	1169.39
379.08	1290.22
379.29	1255.40
379.50	1288.17
379.71	1320.94
379.91	1370.09
380.12	1226.73
380.33	1286.12
380.54	1292.27
380.75	1249.26
380.96	1261.55
381.17	1308.65
381.38	1234.93
381.59	1241.07
381.80	1218.54
382.00	1296.36
382.21	1306.60
382.42	1214.45
382.63	1325.04
382.84	1222.64
383.05	1318.89
383.26	1230.83
383.47	1257.45
383.68	1331.18
383.88	1275.88
384.09	1282.03
384.30	1245.16
384.51	1259.50
384.72	1232.88
384.93	1308.65
385.14	1339.37
385.35	1304.56
385.55	1261.55
385.76	1306.60
385.97	1249.26
386.18	1263.60
386.39	1267.69
386.60	1243.12
386.81	1243.12
387.02	1300.46
387.22	1327.08
387.43	1277.93
387.64	1310.70
387.85	1251.31
388.06	1253.36
388.27	1193.97
388.48	1245.16
388.68	1232.88
388.89	1279.98
389.10	1325.04
389.31	1259.50
389.52	1284.08
389.73	1228.78
389.93	1230.83
390.14	1187.82
390.35	1263.60
390.56	1279.98
390.77	1257.45
390.98	1239.02
391.18	1271.79
391.39	1267.69
391.60	1259.50
391.81	1290.22
392.02	1251.31
392.23	1318.89
392.43	1249.26
392.64	1333.23
392.85	1273.84
393.06	1257.45
393.27	1232.88
393.47	1220.59
393.68	1265.64
393.89	1308.65
394.10	1265.64
394.31	1232.88
394.52	1294.32
394.72	1206.25
394.93	1265.64
395.14	1306.60
395.35	1286.12
395.56	1243.12
395.76	1269.74
395.97	1284.08
396.18	1306.60
396.39	1259.50
396.60	1247.21
396.80	1249.26
397.01	1193.97
397.22	1214.45
397.43	1300.46
397.64	1208.30
397.84	1316.84
398.05	1312.75
398.26	1273.84
398.47	1310.70
398.67	1265.64
398.88	1284.08
399.09	1290.22
399.30	1279.98
399.51	1200.11
399.71	1218.54
399.92	1282.03
400.13	1222.64
400.34	1269.74
400.54	1249.26
400.75	1288.17
400.96	1306.60
401.17	1267.69
401.37	1304.56
401.58	1282.03
401.79	1249.26
402.00	1267.69
402.21	1353.71
402.41	1273.84
402.62	1261.55
402.83	1220.59
403.04	1239.02
403.24	1279.98
403.45	1279.98
403.66	1257.45
403.87	1243.12
404.07	1304.56
404.28	1292.27
404.49	1290.22
404.70	1216.49
404.90	1234.93
405.11	1220.59
405.32	1222.64
405.52	1277.93
405.73	1230.83
405.94	1322.99
406.15	1277.93
406.35	1198.06
406.56	1306.60
406.77	1327.08
406.98	1273.84
407.18	1212.40
407.39	1271.79
407.60	1277.93
407.80	1322.99
408.01	1271.79
408.22	1296.36
408.43	1243.12
408.63	1279.98
408.84	1282.03
409.05	1239.02
409.25	1230.83
409.46	1257.45
409.67	1224.69
409.88	1288.17
410.08	1251.31
410.29	1277.93
410.50	1292.27
410.70	1259.50
410.91	1216.49
411.12	1243.12
411.32	1249.26
411.53	1265.64
411.74	1271.79
411.95	1282.03
412.15	1333.23
412.36	1318.89
412.57	1290.22
412.77	1239.02
412.98	1296.36
413.19	1298.41
413.39	1304.56
413.60	1271.79
413.81	1216.49
414.01	1296.36
414.22	1372.14
414.43	1241.07
414.63	1206.25
414.84	1275.88
415.05	1353.71
415.25	1282.03
415.46	1263.60
415.67	1277.93
415.87	1296.36
416.08	1230.83
416.29	1275.88
416.49	1318.89
416.70	1214.45
416.91	1241.07
417.11	1277.93
417.32	1304.56
417.53	1304.56
417.73	1230.83
417.94	1290.22
418.15	1255.40
418.35	1245.16
418.56	1314.80
418.77	1318.89
418.97	1253.36
419.18	1269.74
419.38	1245.16
419.59	1214.45
419.80	1279.98
420.00	1298.41
420.21	1282.03
420.42	1241.07
420.62	1257.45
420.83	1230.83
421.04	1249.26
421.24	1269.74
421.45	1253.36
421.65	1224.69
421.86	1304.56
422.07	1294.32
422.27	1253.36
422.48	1257.45
422.69	1255.40
422.89	1224.69
423.10	1316.84
423.30	1325.04
423.51	1267.69
423.72	1204.21
423.92	1351.66
424.13	1239.02
424.33	1224.69
424.54	1314.80
424.75	1316.84
424.95	1261.55
425.16	1273.84
425.36	1286.12
425.57	1337.32
425.78	1288.17
425.98	1271.79
426.19	1302.51
426.39	1269.74
426.60	1269.74
426.81	1251.31
427.01	1255.40
427.22	1314.80
427.42	1239.02
427.63	1273.84
427.83	1224.69
428.04	1265.64
428.25	1318.89
428.45	1236.97
428.66	1253.36
428.86	1245.16
429.07	1243.12
429.28	1261.55
429.48	1331.18
429.69	1351.66
429.89	1271.79
430.10	1234.93
430.30	1245.16
430.51	1265.64
430.71	1257.45
430.92	1259.50
431.13	1265.64
431.33	1288.17
431.54	1329.13
431.74	1249.26
431.95	1261.55
432.15	1304.56
432.36	1318.89
432.56	1191.92
432.77	1286.12
432.98	1296.36
433.18	1286.12
433.39	1277.93
433.59	1251.31
433.80	1216.49
434.00	1335.28
434.21	1314.80
434.41	1236.97
434.62	1327.08
434.82	1243.12
435.03	1216.49
435.23	1298.41
435.44	1351.66
435.64	1271.79
435.85	1288.17
436.06	1220.59
436.26	1329.13
436.47	1257.45
436.67	1284.08
436.88	1251.31
437.08	1206.25
437.29	1265.64
437.49	1292.27
437.70	1290.22
437.90	1206.25
438.11	1284.08
438.31	1220.59
438.52	1294.32
438.72	1222.64
438.93	1273.84
439.13	1220.59
439.34	1245.16
439.54	1232.88
439.75	1331.18
439.95	1294.32
440.16	1325.04
440.36	1255.40
440.57	1263.60
440.77	1259.50
440.98	1255.40
441.18	1210.35
441.39	1257.45
441.59	1206.25
441.80	1296.36
442.00	1337.32
442.21	1228.78
442.41	1284.08
442.62	1300.46
442.82	1239.02
443.02	1318.89
443.23	1228.78
443.43	1290.22
443.64	1218.54
443.84	1286.12
444.05	1314.80
444.25	1239.02
444.46	1298.41
444.66	1261.55
444.87	1275.88
445.07	1251.31
445.28	1288.17
445.48	1247.21
445.69	1243.12
445.89	1292.27
446.09	1300.46
446.30	1243.12
446.50	1282.03
446.71	1279.98
446.91	1239.02
447.12	1306.60
447.32	1267.69
447.53	1284.08
447.73	1275.88
447.93	1290.22
448.14	1343.47
448.34	1265.64
448.55	1275.88
448.75	1191.92
448.96	1249.26
449.16	1279.98
449.36	1277.93
449.57	1263.60
449.77	1269.74
449.98	1277.93
450.18	1279.98
450.39	1296.36
450.59	1220.59
450.79	1298.41
451.00	1269.74
451.20	1267.69
451.41	1257.45
451.61	1341.42
451.81	1322.99
452.02	1304.56
452.22	1286.12
452.43	1308.65
452.63	1327.08
452.84	1290.22
453.04	1261.55
453.24	1275.88
453.45	1308.65
453.65	1253.36
453.86	1255.40
454.06	1269.74
454.26	1277.93
454.47	1286.12
454.67	1329.13
454.87	1220.59
455.08	1277.93
455.28	1290.22
455.49	1224.69
455.69	1302.51
455.89	1269.74
456.10	1400.81
456.30	1333.23
456.51	1275.88
456.71	1308.65
456.91	1347.56
457.12	1331.18
457.32	1322.99
457.52	1290.22
457.73	1257.45
457.93	1288.17
458.14	1286.12
458.34	1236.97
458.54	1230.83
458.75	1306.60
458.95	1290.22
459.15	1339.37
459.36	1259.50
459.56	1189.87
459.76	1261.55
459.97	1253.36
460.17	1294.32
460.37	1302.51
460.58	1200.11
460.78	1222.64
460.99	1267.69
461.19	1206.25
461.39	1198.06
461.60	1239.02
461.80	1245.16
462.00	1343.47
462.21	1236.97
462.41	1265.64
462.61	1236.97
462.82	1279.98
463.02	1298.41
463.22	1318.89
463.43	1316.84
463.63	1173.49
463.83	1226.73
464.04	1347.56
464.24	1288.17
464.44	1236.97
464.64	1257.45
464.85	1290.22
465.05	1298.41
465.25	1247.21
465.46	1269.74
465.66	1255.40
465.86	1236.97
466.07	1220.59
466.27	1282.03
466.47	1255.40
466.68	1300.46
466.88	1259.50
467.08	1243.12
467.29	1290.22
467.49	1308.65
467.69	1322.99
467.89	1257.45
468.10	1171.44
468.30	1253.36
468.50	1236.97
468.71	1251.31
468.91	1290.22
469.11	1312.75
469.31	1193.97
469.52	1267.69
469.72	1212.40
469.92	1255.40
470.13	1284.08
470.33	1337.32
470.53	1359.85
470.73	1292.27
470.94	1279.98
471.14	1279.98
471.34	1296.36
471.54	1239.02
471.75	1282.03
471.95	1273.84
472.15	1322.99
472.36	1279.98
472.56	1245.16
472.76	1314.80
472.96	1255.40
473.17	1296.36
473.37	1245.16
473.57	1273.84
473.77	1288.17
473.98	1284.08
474.18	1279.98
474.38	1294.32
474.58	1294.32
474.79	1185.77
474.99	1267.69
475.19	1243.12
475.39	1222.64
475.60	1249.26
475.80	1265.64
476.00	1253.36
476.20	1232.88
476.41	1327.08
476.61	1187.82
476.81	1318.89
477.01	1292.27
477.21	1275.88
477.42	1265.64
477.62	1279.98
477.82	1269.74
478.02	1239.02
478.23	1298.41
478.43	1198.06
478.63	1298.41
478.83	1212.40
479.03	1204.21
479.24	1282.03
479.44	1277.93
479.64	1269.74
479.84	1224.69
480.04	1228.78
480.25	1312.75
480.45	1304.56
480.65	1316.84
480.85	1265.64
481.06	1255.40
481.26	1298.41
481.46	1310.70
481.66	1265.64
481.86	1249.26
482.06	1253.36
482.27	1253.36
482.47	1271.79
482.67	1327.08
482.87	1251.31
483.07	1300.46
483.28	1325.04
483.48	1251.31
483.68	1304.56
483.88	1298.41
484.08	1275.88
484.29	1298.41
484.49	1259.50
484.69	1288.17
484.89	1228.78
485.09	1290.22
485.29	1279.98
485.50	1292.27
485.70	1208.30
485.90	1241.07
486.10	1243.12
486.30	1304.56
486.50	1251.31
486.71	1228.78
486.91	1239.02
487.11	1282.03
487.31	1234.93
487.51	1245.16
487.71	1271.79
487.91	1265.64
488.12	1220.59
488.32	1214.45
488.52	1294.32
488.72	1226.73
488.92	1275.88
489.12	1279.98
489.32	1347.56
489.53	1265.64
489.73	1224.69
489.93	1322.99
490.13	1294.32
490.33	1241.07
490.53	1355.76
490.73	1304.56
490.94	1208.30
491.14	1314.80
491.34	1239.02
491.54	1249.26
491.74	1288.17
491.94	1275.88
492.14	1247.21
492.34	1251.31
492.54	1251.31
492.75	1277.93
492.95	1259.50
493.15	1306.60
493.35	1275.88
493.55	1183.73
493.75	1232.88
493.95	1251.31
494.15	1261.55
494.35	1343.47
494.56	1290.22
494.76	1228.78
494.96	1239.02
495.16	1265.64
495.36	1325.04
495.56	1325.04
495.76	1239.02
495.96	1263.60
496.16	1290.22
496.36	1232.88
496.56	1243.12
496.77	1390.57
496.97	1282.03
497.17	1380.33
497.37	1265.64
497.57	1265.64
497.77	1286.12
497.97	1255.40
498.17	1265.64
498.37	1239.02
498.57	1376.24
498.77	1279.98
498.97	1259.50
499.17	1341.42
499.38	1370.09
499.58	1224.69
499.78	1232.88
499.98	1247.21
500.18	1300.46
500.38	1286.12
500.58	1234.93
500.78	1265.64
500.98	1282.03
501.18	1302.51
501.38	1271.79
501.58	1241.07
501.78	1314.80
501.98	1226.73
502.18	1267.69
502.38	1241.07
502.58	1232.88
502.78	1294.32
502.98	1265.64
503.18	1193.97
503.38	1263.60
503.59	1226.73
503.79	1239.02
503.99	1282.03
504.19	1310.70
504.39	1282.03
504.59	1302.51
504.79	1290.22
504.99	1335.28
505.19	1261.55
505.39	1316.84
505.59	1265.64
505.79	1275.88
505.99	1222.64
506.19	1230.83
506.39	1294.32
506.59	1290.22
506.79	1368.04
506.99	1370.09
507.19	1271.79
507.39	1302.51
507.59	1288.17
507.79	1300.46
507.99	1316.84
508.19	1271.79
508.39	1148.91
508.59	1220.59
508.79	1249.26
508.99	1247.21
509.19	1331.18
509.39	1279.98
509.59	1353.71
509.79	1331.18
509.99	1316.84
510.19	1298.41
510.39	1345.52
510.59	1331.18
510.79	1249.26
510.99	1304.56
511.19	1310.70
511.39	1226.73
511.59	1273.84
511.79	1327.08
511.99	1261.55
512.19	1253.36
512.38	1294.32
512.58	1361.90
512.78	1198.06
512.98	1284.08
513.18	1292.27
513.38	1261.55
513.58	1290.22
513.78	1232.88
513.98	1275.88
514.18	1212.40
514.38	1247.21
514.58	1257.45
514.78	1284.08
514.98	1210.35
515.18	1253.36
515.38	1208.30
515.58	1318.89
515.78	1279.98
515.98	1292.27
516.18	1292.27
516.38	1232.88
516.57	1216.49
516.77	1290.22
516.97	1322.99
517.17	1306.60
517.37	1322.99
517.57	1347.56
517.77	1327.08
517.97	1222.64
518.17	1255.40
518.37	1228.78
518.57	1302.51
518.77	1286.12
518.97	1335.28
519.16	1263.60
519.36	1259.50
519.56	1273.84
519.76	1310.70
519.96	1312.75
520.16	1325.04
520.36	1300.46
520.56	1279.98
520.76	1316.84
520.96	1239.02
521.16	1282.03
521.35	1249.26
521.55	1224.69
521.75	1310.70
521.95	1279.98
522.15	1204.21
522.35	1198.06
522.55	1286.12
522.75	1329.13
522.95	1314.80
523.14	1214.45
523.34	1296.36
523.54	1312.75
523.74	1214.45
523.94	1314.80
524.14	1316.84
524.34	1206.25
524.54	1359.85
524.73	1284.08
524.93	1337.32
525.13	1265.64
525.33	1253.36
525.53	1288.17
525.73	1279.98
525.93	1306.60
526.13	1249.26
526.32	1232.88
526.52	1257.45
526.72	1243.12
526.92	1288.17
527.12	1232.88
527.32	1253.36
527.52	1314.80
527.71	1279.98
527.91	1253.36
528.11	1259.50
528.31	1284.08
528.51	1339.37
528.71	1308.65
528.90	1284.08
529.10	1251.31
529.30	1212.40
529.50	1355.76
529.70	1241.07
529.90	1312.75
530.09	1298.41
530.29	1261.55
530.49	1282.03
530.69	1355.76
530.89	1308.65
531.09	1300.46
531.28	1251.31
531.48	1339.37
531.68	1286.12
531.88	1300.46
532.08	1331.18
532.28	1273.84
532.47	1308.65
532.67	1236.97
532.87	1298.41
533.07	1294.32
533.27	1247.21
533.46	1273.84
533.66	1224.69
533.86	1261.55
534.06	1329.13
534.26	1300.46
534.45	1204.21
534.65	1247.21
534.85	1296.36
535.05	1312.75
535.25	1277.93
535.44	1239.02
535.64	1261.55
535.84	1241.07
536.04	1245.16
536.24	1343.47
536.43	1241.07
536.63	1218.54
536.83	1261.55
537.03	1210.35
537.22	1286.12
537.42	1302.51
537.62	1249.26
537.82	1277.93
538.02	1331.18
538.21	1277.93
538.41	1273.84
538.61	1271.79
538.81	1290.22
539.00	1284.08
539.20	1261.55
539.40	1261.55
539.60	1265.64
539.79	1271.79
539.99	1282.03
540.19	1273.84
540.39	1296.36
540.58	1320.94
540.78	1241.07
540.98	1337.32
541.18	1288.17
541.37	1300.46
541.57	1300.46
541.77	1376.24
541.97	1255.40
542.16	1312.75
542.36	1267.69
542.56	1306.60
542.76	1208.30
542.95	1282.03
543.15	1239.02
543.35	1304.56
543.54	1265.64
543.74	1304.56
543.94	1327.08
544.14	1296.36
544.33	1331.18
544.53	1290.22
544.73	1302.51
544.93	1210.35
545.12	1232.88
545.32	1314.80
545.52	1267.69
545.71	1222.64
545.91	1273.84
546.11	1282.03
546.30	1282.03
546.50	1339.37
546.70	1249.26
546.90	1282.03
547.09	1212.40
547.29	1282.03
547.49	1288.17
547.68	1230.83
547.88	1327.08
548.08	1249.26
548.27	1284.08
548.47	1284.08
548.67	1282.03
548.87	1282.03
549.06	1296.36
549.26	1339.37
549.46	1318.89
549.65	1220.59
549.85	1314.80
550.05	1325.04
550.24	1296.36
550.44	1239.02
550.64	1204.21
550.83	1359.85
551.03	1394.67
551.23	1277.93
551.42	1296.36
551.62	1265.64
551.82	1341.42
552.01	1265.64
552.21	1320.94
552.41	1249.26
552.60	1282.03
552.80	1294.32
553.00	1216.49
553.19	1298.41
553.39	1298.41
553.59	1251.31
553.78	1325.04
553.98	1241.07
554.17	1255.40
554.37	1249.26
554.57	1224.69
554.76	1333.23
554.96	1310.70
555.16	1275.88
555.35	1271.79
555.55	1257.45
555.75	1316.84
555.94	1357.80
556.14	1220.59
556.33	1282.03
556.53	1341.42
556.73	1212.40
556.92	1267.69
557.12	1308.65
557.32	1304.56
557.51	1286.12
557.71	1296.36
557.90	1316.84
558.10	1331.18
558.30	1245.16
558.49	1218.54
558.69	1304.56
558.88	1286.12
559.08	1306.60
559.28	1271.79
559.47	1282.03
559.67	1286.12
559.86	1304.56
560.06	1222.64
560.26	1265.64
560.45	1290.22
560.65	1210.35
560.84	1261.55
561.04	1335.28
561.24	1331.18
561.43	1294.32
561.63	1251.31
561.82	1269.74
562.02	1257.45
562.22	1191.92
562.41	1314.80
562.61	1279.98
562.80	1243.12
563.00	1320.94
563.19	1279.98
563.39	1331.18
563.59	1271.79
563.78	1306.60
563.98	1288.17
564.17	1312.75
564.37	1249.26
564.56	1366.00
564.76	1333.23
564.96	1282.03
565.15	1288.17
565.35	1236.97
565.54	1284.08
565.74	1384.43
565.93	1249.26
566.13	1296.36
566.32	1198.06
566.52	1279.98
566.71	1339.37
566.91	1331.18
567.11	1300.46
567.30	1292.27
567.50	1224.69
567.69	1322.99
567.89	1320.94
568.08	1226.73
568.28	1263.60
568.47	1282.03
568.67	1298.41
568.86	1230.83
569.06	1288.17
569.25	1286.12
569.45	1269.74
569.64	1312.75
569.84	1327.08
570.04	1263.60
570.23	1349.61
570.43	1216.49
570.62	1265.64
570.82	1269.74
571.01	1243.12
571.21	1275.88
571.40	1322.99
571.60	1345.52
571.79	1267.69
571.99	1314.80
572.18	1306.60
572.38	1259.50
572.57	1314.80
572.77	1224.69
572.96	1234.93
573.16	1292.27
573.35	1288.17
573.55	1232.88
573.74	1312.75
573.94	1255.40
574.13	1294.32
574.33	1298.41
574.52	1339.37
574.71	1376.24
574.91	1222.64
575.10	1290.22
575.30	1265.64
575.49	1306.60
575.69	1310.70
575.88	1267.69
576.08	1234.93
576.27	1282.03
576.47	1335.28
576.66	1277.93
576.86	1292.27
577.05	1306.60
577.25	1368.04
577.44	1253.36
577.64	1286.12
577.83	1318.89
578.02	1275.88
578.22	1265.64
578.41	1292.27
578.61	1269.74
578.80	1282.03
579.00	1341.42
579.19	1327.08
579.39	1335.28
579.58	1294.32
579.77	1316.84
579.97	1290.22
580.16	1271.79
580.36	1275.88
580.55	1251.31
580.75	1277.93
580.94	1265.64
581.13	1269.74
581.33	1341.42
581.52	1294.32
581.72	1314.80
581.91	1243.12
582.11	1255.40
582.30	1382.38
582.49	1208.30
582.69	1370.09
582.88	1271.79
583.08	1288.17
583.27	1222.64
583.47	1210.35
583.66	1282.03
583.85	1296.36
584.05	1222.64
584.24	1214.45
584.44	1366.00
584.63	1316.84
584.82	1265.64
585.02	1282.03
585.21	1316.84
585.41	1284.08
585.60	1282.03
585.79	1345.52
585.99	1265.64
586.18	1318.89
586.37	1353.71
586.57	1279.98
586.76	1318.89
586.96	1296.36
587.15	1322.99
587.34	1220.59
587.54	1271.79
587.73	1269.74
587.93	1343.47
588.12	1269.74
588.31	1298.41
588.51	1372.14
588.70	1259.50
588.89	1200.11
589.09	1247.21
589.28	1302.51
589.47	1265.64
589.67	1284.08
589.86	1265.64
590.06	1306.60
590.25	1310.70
590.44	1363.95
590.64	1284.08
590.83	1308.65
591.02	1294.32
591.22	1275.88
591.41	1282.03
591.60	1269.74
591.80	1292.27
591.99	1271.79
592.18	1282.03
592.38	1261.55
592.57	1265.64
592.76	1284.08
592.96	1318.89
593.15	1320.94
593.34	1300.46
593.54	1290.22
593.73	1273.84
593.92	1200.11
594.12	1347.56
594.31	1296.36
594.50	1249.26
594.70	1292.27
594.89	1314.80
595.08	1243.12
595.28	1318.89
595.47	1329.13
595.66	1222.64
595.86	1167.34
596.05	1255.40
596.24	1341.42
596.43	1279.98
596.63	1312.75
596.82	1286.12
597.01	1249.26
597.21	1306.60
597.40	1234.93
597.59	1347.56
597.79	1273.84
597.98	1249.26
598.17	1226.73
598.36	1277.93
598.56	1308.65
598.75	1263.60
598.94	1275.88
599.14	1318.89
599.33	1314.80
599.52	1320.94
599.71	1290.22
599.91	1230.83
600.10	1284.08
600.29	1366.00
600.48	1263.60
600.68	1312.75
600.87	1294.32
601.06	1212.40
601.26	1282.03
601.45	1343.47
601.64	1298.41
601.83	1329.13
602.03	1318.89
602.22	1308.65
602.41	1275.88
602.60	1267.69
602.80	1275.88
602.99	1253.36
603.18	1282.03
603.37	1298.41
603.57	1312.75
603.76	1241.07
603.95	1288.17
604.14	1298.41
604.34	1249.26
604.53	1265.64
604.72	1251.31
604.91	1234.93
605.10	1214.45
605.30	1200.11
605.49	1353.71
605.68	1265.64
605.87	1318.89
606.07	1200.11
606.26	1296.36
606.45	1335.28
606.64	1279.98
606.84	1245.16
607.03	1302.51
607.22	1296.36
607.41	1284.08
607.60	1255.40
607.80	1310.70
607.99	1265.64
608.18	1163.25
608.37	1302.51
608.56	1232.88
608.76	1331.18
608.95	1318.89
609.14	1306.60
609.33	1275.88
609.52	1349.61
609.72	1292.27
609.91	1335.28
610.10	1251.31
610.29	1327.08
610.48	1277.93
610.68	1325.04
610.87	1249.26
611.06	1302.51
611.25	1314.80
611.44	1277.93
611.63	1312.75
611.83	1363.95
612.02	1327.08
612.21	1366.00
612.40	1277.93
612.59	1302.51
612.79	1316.84
612.98	1277.93
613.17	1349.61
613.36	1245.16
613.55	1312.75
613.74	1282.03
613.93	1310.70
614.13	1251.31
614.32	1298.41
614.51	1333.23
614.70	1345.52
614.89	1263.60
615.08	1284.08
615.28	1249.26
615.47	1259.50
615.66	1292.27
615.85	1329.13
616.04	1304.56
616.23	1234.93
616.42	1241.07
616.62	1320.94
616.81	1196.01
617.00	1275.88
617.19	1275.88
617.38	1241.07
617.57	1224.69
617.76	1230.83
617.95	1316.84
618.15	1331.18
618.34	1241.07
618.53	1282.03
618.72	1288.17
618.91	1241.07
619.10	1294.32
619.29	1290.22
619.48	1304.56
619.68	1284.08
619.87	1191.92
620.06	1245.16
620.25	1341.42
620.44	1261.55
620.63	1282.03
620.82	1251.31
621.01	1269.74
621.20	1226.73
621.39	1282.03
621.59	1282.03
621.78	1251.31
621.97	1261.55
622.16	1263.60
622.35	1230.83
622.54	1306.60
622.73	1296.36
622.92	1320.94
623.11	1288.17
623.30	1265.64
623.49	1357.80
623.68	1318.89
623.88	1290.22
624.07	1366.00
624.26	1273.84
624.45	1273.84
624.64	1255.40
624.83	1310.70
625.02	1247.21
625.21	1308.65
625.40	1282.03
625.59	1327.08
625.78	1318.89
625.97	1290.22
626.16	1306.60
626.35	1333.23
626.54	1284.08
626.74	1275.88
626.93	1314.80
627.12	1290.22
627.31	1298.41
627.50	1380.33
627.69	1220.59
627.88	1230.83
628.07	1322.99
628.26	1308.65
628.45	1359.85
628.64	1200.11
628.83	1267.69
629.02	1382.38
629.21	1267.69
629.40	1261.55
629.59	1230.83
629.78	1329.13
629.97	1277.93
630.16	1341.42
630.35	1251.31
630.54	1263.60
630.73	1318.89
630.92	1335.28
631.11	1302.51
631.30	1329.13
631.49	1320.94
631.68	1478.63
631.87	2916.31
632.06	7554.96
632.25	13578.03
632.44	24090.26
632.63	39296.42
632.82	43904.35
633.01	20872.90
633.20	7913.35
633.39	5468.08
633.58	3639.24
633.77	2459.61
633.96	2215.90
634.15	2318.30
634.34	2093.02
634.53	1877.99
634.72	1736.68
634.91	1642.47
635.10	1691.62
635.29	1626.09
635.48	1587.18
635.67	1597.42
635.86	1574.89
636.05	1431.53
636.24	1445.87
636.43	1527.78
636.62	1402.86
636.81	1359.85
637.00	1476.59
637.19	1466.35
637.38	1396.71
637.57	1454.06
637.76	1339.37
637.95	1417.19
638.14	1368.04
638.33	1357.80
638.52	1318.89
638.71	1349.61
638.89	1294.32
639.08	1331.18
639.27	1288.17
639.46	1267.69
639.65	1296.36
639.84	1259.50
640.03	1325.04
640.22	1343.47
640.41	1339.37
640.60	1150.96
640.79	1306.60
640.98	1247.21
641.17	1253.36
641.36	1290.22
641.55	1257.45
641.74	1306.60
641.92	1265.64
642.11	1308.65
642.30	1292.27
642.49	1294.32
642.68	1230.83
642.87	1290.22
643.06	1310.70
643.25	1294.32
643.44	1269.74
643.63	1312.75
643.82	1232.88
644.00	1218.54
644.19	1300.46
644.38	1331.18
644.57	1236.97
644.76	1208.30
644.95	1257.45
645.14	1284.08
645.33	1284.08
645.52	1212.40
645.71	1267.69
645.89	1316.84
646.08	1249.26
646.27	1261.55
646.46	1271.79
646.65	1322.99
646.84	1161.20
647.03	1294.32
647.22	1273.84
647.40	1300.46
647.59	1298.41
647.78	1273.84
647.97	1282.03
648.16	1294.32
648.35	1241.07
648.54	1263.60
648.73	1273.84
648.91	1263.60
649.10	1239.02
649.29	1288.17
649.48	1198.06
649.67	1335.28
649.86	1243.12
650.05	1269.74
650.23	1322.99
650.42	1277.93
650.61	1282.03
650.80	1282.03
650.99	1322.99
651.18	1187.82
651.36	1339.37
651.55	1277.93
651.74	1294.32
651.93	1271.79
652.12	1302.51
652.31	1314.80
652.49	1306.60
652.68	1273.84
652.87	1286.12
653.06	1300.46
653.25	1265.64
653.44	1318.89
653.62	1277.93
653.81	1259.50
654.00	1228.78
654.19	1288.17
654.38	1286.12
654.56	1300.46
654.75	1284.08
654.94	1290.22
655.13	1302.51
655.32	1284.08
655.51	1310.70
655.69	1304.56
655.88	1286.12
656.07	1349.61
656.26	1249.26
656.45	1261.55
656.63	1322.99
656.82	1247.21
657.01	1251.31
657.20	1220.59
657.38	1249.26
657.57	1214.45
657.76	1304.56
657.95	1335.28
658.14	1239.02
658.32	1271.79
658.51	1249.26
658.70	1271.79
658.89	1273.84
659.08	1318.89
659.26	1269.74
659.45	1273.84
659.64	1292.27
659.83	1249.26
660.01	1232.88
660.20	1320.94
660.39	1296.36
660.58	1255.40
660.76	1370.09
660.95	1298.41
661.14	1279.98
661.33	1241.07
661.51	1294.32
661.70	1335.28
661.89	1232.88
662.08	1277.93
662.26	1230.83
662.45	1220.59
662.64	1241.07
662.83	1210.35
663.01	1263.60
663.20	1314.80
663.39	1400.81
663.58	1316.84
663.76	1286.12
663.95	1228.78
664.14	1265.64
664.32	1275.88
664.51	1226.73
664.70	1277.93
664.89	1271.79
665.07	1290.22
665.26	1236.97
665.45	1271.79
665.64	1306.60
665.82	1255.40
666.01	1232.88
666.20	1175.53
666.38	1335.28
666.57	1271.79
666.76	1224.69
666.95	1224.69
667.13	1349.61
667.32	1296.36
667.51	1337.32
667.69	1249.26
667.88	1267.69
668.07	1224.69
668.25	1298.41
668.44	1279.98
668.63	1241.07
668.81	1236.97
669.00	1210.35
669.19	1257.45
669.38	1284.08
669.56	1249.26
669.75	1288.17
669.94	1316.84
670.12	1259.50
670.31	1257.45
670.50	1257.45
670.68	1247.21
670.87	1314.80
671.06	1224.69
671.24	1331.18
671.43	1275.88
671.62	1243.12
671.80	1290.22
671.99	1300.46
672.18	1251.31
672.36	1183.73
672.55	1253.36
672.74	1294.32
672.92	1300.46
673.11	1249.26
673.29	1251.31
673.48	1322.99
673.67	1361.90
673.85	1216.49
674.04	1290.22
674.23	1257.45
674.41	1255.40
674.60	1298.41
674.79	1298.41
674.97	1257.45
675.16	1253.36
675.34	1290.22
675.53	1331.18
675.72	1239.02
675.90	1208.30
676.09	1296.36
676.28	1279.98
676.46	1288.17
676.65	1271.79
676.83	1306.60
677.02	1411.05
677.21	1275.88
677.39	1286.12
677.58	1255.40
677.77	1310.70
677.95	1253.36
678.14	1269.74
678.32	1208.30
678.51	1210.35
678.70	1279.98
678.88	1259.50
679.07	1302.51
679.25	1224.69
679.44	1292.27
679.63	1249.26
679.81	1273.84
680.00	1259.50
680.18	1347.56
680.37	1308.65
680.55	1234.93
680.74	1302.51
680.93	1216.49
681.11	1306.60
681.30	1335.28
681.48	1263.60
681.67	1320.94
681.85	1251.31
682.04	1271.79
682.23	1261.55
682.41	1282.03
682.60	1236.97
682.78	1286.12
682.97	1249.26
683.15	1302.51
683.34	1402.86
683.53	1239.02
683.71	1232.88
683.90	1339.37
684.08	1290.22
684.27	1341.42
684.45	1318.89
684.64	1290.22
684.82	1331.18
685.01	1259.50
685.19	1279.98
685.38	1288.17
685.57	1232.88
685.75	1257.45
685.94	1243.12
686.12	1271.79
686.31	1318.89
686.49	1245.16
686.68	1224.69
686.86	1245.16
687.05	1251.31
687.23	1294.32
687.42	1245.16
687.60	1222.64
687.79	1347.56
687.97	1224.69
688.16	1236.97
688.34	1273.84
688.53	1257.45
688.71	1202.16
688.90	1306.60
689.08	1255.40
689.27	1232.88
689.45	1255.40
689.64	1298.41
689.82	1271.79
690.01	1282.03
690.19	1267.69
690.38	1329.13
690.56	1265.64
690.75	1255.40
690.93	1230.83
691.12	1302.51
691.30	1304.56
691.49	1169.39
691.67	1234.93
691.86	1290.22
692.04	1239.02
692.23	1247.21
692.41	1265.64
692.60	1288.17
692.78	1329.13
692.97	1322.99
693.15	1253.36
693.34	1226.73
693.52	1322.99
693.71	1269.74
693.89	1255.40
694.08	1273.84
694.26	1284.08
694.44	1259.50
694.63	1273.84
694.81	1204.21
695.00	1269.74
695.18	1302.51
695.37	1312.75
695.55	1218.54
695.74	1239.02
695.92	1265.64
696.10	1314.80
696.29	1263.60
696.47	1359.85
696.66	1239.02
696.84	1247.21
697.03	1236.97
697.21	1263.60
697.40	1331.18
697.58	1236.97
697.76	1249.26
697.95	1241.07
698.13	1239.02
698.32	1269.74
698.50	1277.93
698.68	1296.36
698.87	1234.93
699.05	1265.64
699.24	1322.99
699.42	1222.64
699.61	1306.60
699.79	1249.26
699.97	1300.46
700.16	1230.83
700.34	1273.84
700.53	1228.78
700.71	1261.55
700.89	1275.88
701.08	1286.12
701.26	1277.93
701.45	1267.69
701.63	1204.21
701.81	1363.95
702.00	1198.06
702.18	1335.28
702.37	1312.75
702.55	1210.35
702.73	1310.70
702.92	1275.88
703.10	1257.45
703.28	1304.56
703.47	1253.36
703.65	1273.84
703.84	1290.22
704.02	1243.12
704.20	1308.65
704.39	1267.69
704.57	1247.21
704.75	1304.56
704.94	1228.78
705.12	1308.65
705.30	1196.01
705.49	1263.60
705.67	1273.84
705.86	1247.21
706.04	1296.36
706.22	1267.69
706.41	1249.26
706.59	1179.63
706.77	1292.27
706.96	1239.02
707.14	1232.88
707.32	1298.41
707.51	1277.93
707.69	1222.64
707.87	1282.03
708.06	1302.51
708.24	1341.42
708.42	1345.52
708.61	1312.75
708.79	1232.88
708.97	1236.97
709.16	1228.78
709.34	1251.31
709.52	1267.69
709.71	1290.22
709.89	1279.98
710.07	1224.69
710.26	1288.17
710.44	1277.93
710.62	1247.21
710.80	1277.93
710.99	1241.07
711.17	1347.56
711.35	1269.74
711.54	1245.16
711.72	1247.21
711.90	1298.41
712.09	1234.93
712.27	1226.73
712.45	1263.60
712.63	1314.80
712.82	1265.64
713.00	1292.27
713.18	1245.16
713.37	1247.21
713.55	1230.83
713.73	1247.21
713.91	1226.73
714.10	1320.94
714.28	1179.63
714.46	1306.60
714.65	1271.79
714.83	1302.51
715.01	1259.50
715.19	1249.26
715.38	1253.36
715.56	1251.31
715.74	1265.64
715.92	1304.56
716.11	1277.93
716.29	1267.69
716.47	1187.82
716.65	1255.40
716.84	1241.07
717.02	1249.26
717.20	1325.04
717.38	1216.49
717.57	1306.60
717.75	1284.08
717.93	1232.88
718.11	1263.60
718.30	1236.97
718.48	1247.21
718.66	1259.50
718.84	1251.31
719.03	1249.26
719.21	1273.84
719.39	1224.69
719.57	1310.70
719.75	1327.08
719.94	1222.64
720.12	1282.03
720.30	1222.64
720.48	1204.21
720.67	1300.46
720.85	1222.64
721.03	1273.84
721.21	1253.36
721.39	1249.26
721.58	1290.22
721.76	1257.45
721.94	1277.93
722.12	1376.24
722.30	1267.69
722.49	1282.03
722.67	1318.89
722.85	1318.89
723.03	1232.88
723.21	1267.69
723.40	1306.60
723.58	1239.02
723.76	1273.84
723.94	1259.50
724.12	1253.36
724.30	1253.36
724.49	1290.22
724.67	1265.64
724.85	1292.27
725.03	1241.07
725.21	1224.69
725.40	1284.08
725.58	1224.69
725.76	1218.54
725.94	1261.55
726.12	1222.64
726.30	1290.22
726.49	1269.74
726.67	1275.88
726.85	1157.10
727.03	1322.99
727.21	1279.98
727.39	1292.27
727.57	1224.69
727.76	1220.59
727.94	1279.98
728.12	1265.64
728.30	1251.31
728.48	1339.37
728.66	1329.13
728.84	1269.74
729.03	1245.16
729.21	1306.60
729.39	1249.26
729.57	1288.17
729.75	1263.60
729.93	1261.55
730.11	1263.60
730.30	1241.07
730.48	1261.55
730.66	1214.45
730.84	1222.64
731.02	1288.17
731.20	1282.03
731.38	1189.87
731.56	1228.78
731.74	1261.55
731.93	1224.69
732.11	1282.03
732.29	1189.87
732.47	1310.70
732.65	1290.22
732.83	1247.21
733.01	1300.46
733.19	1273.84
733.37	1286.12
733.56	1261.55
733.74	1181.68
733.92	1298.41
734.10	1306.60
734.28	1310.70
734.46	1159.15
734.64	1277.93
734.82	1224.69
735.00	1230.83
735.18	1259.50
735.36	1288.17
735.54	1216.49
735.73	1302.51
735.91	1288.17
736.09	1288.17
736.27	1181.68
736.45	1296.36
736.63	1222.64
736.81	1249.26
736.99	1300.46
737.17	1243.12
737.35	1232.88
737.53	1302.51
737.71	1249.26
737.89	1353.71
738.07	1286.12
738.25	1263.60
738.43	1343.47
738.61	1216.49
738.80	1148.91
738.98	1259.50
739.16	1288.17
739.34	1279.98
739.52	1222.64
739.70	1259.50
739.88	1263.60
740.06	1239.02
740.24	1282.03
740.42	1347.56
740.60	1253.36
740.78	1302.51
740.96	1292.27
741.14	1263.60
741.32	1261.55
741.50	1290.22
741.68	1249.26
741.86	1284.08
742.04	1279.98
742.22	1196.01
742.40	1255.40
742.58	1296.36
742.76	1257.45
742.94	1247.21
743.12	1216.49
743.30	1310.70
743.48	1249.26
743.66	1267.69
743.84	1282.03
744.02	1218.54
744.20	1263.60
744.38	1232.88
744.56	1322.99
744.74	1284.08
744.92	1263.60
745.10	1232.88
745.28	1257.45
745.46	1277.93
745.64	1302.51
745.82	1263.60
746.00	1298.41
746.18	1290.22
746.36	1294.32
746.54	1312.75
746.72	1236.97
746.90	1255.40
747.08	1322.99
747.26	1292.27
747.44	1208.30
747.62	1222.64
747.80	1265.64
747.98	1191.92
748.15	1279.98
748.33	1265.64
748.51	1275.88
748.69	1261.55
748.87	1271.79
749.05	1253.36
749.23	1249.26
749.41	1241.07
749.59	1308.65
749.77	1226.73
749.95	1218.54
750.13	1306.60
750.31	1269.74
750.49	1327.08
750.67	1263.60
750.85	1245.16
751.03	1226.73
751.20	1302.51
751.38	1249.26
751.56	1314.80
751.74	1298.41
751.92	1241.07
752.10	1277.93
752.28	1290.22
752.46	1234.93
752.64	1234.93
752.82	1210.35
753.00	1294.32
753.18	1286.12
753.35	1255.40
753.53	1263.60
753.71	1222.64
753.89	1290.22
754.07	1288.17
754.25	1357.80
754.43	1255.40
754.61	1261.55
754.79	1257.45
754.97	1239.02
755.14	1329.13
755.32	1230.83
755.50	1290.22
755.68	1314.80
755.86	1259.50
756.04	1228.78
756.22	1325.04
756.40	1243.12
756.57	1187.82
756.75	1259.50
756.93	1298.41
757.11	1251.31
757.29	1271.79
757.47	1288.17
757.65	1282.03
757.82	1312.75
758.00	1294.32
758.18	1241.07
758.36	1288.17
758.54	1265.64
758.72	1249.26
758.90	1312.75
759.07	1275.88
759.25	1245.16
759.43	1263.60
759.61	1259.50
759.79	1279.98
759.97	1294.32
760.15	1306.60
760.32	1263.60
760.50	1228.78
760.68	1196.01
760.86	1228.78
761.04	1286.12
761.22	1277.93
761.39	1216.49
761.57	1259.50
761.75	1216.49
761.93	1277.93
762.11	1304.56
762.28	1224.69
762.46	1361.90
762.64	1310.70
762.82	1249.26
763.00	1302.51
763.18	1282.03
763.35	1255.40
763.53	1241.07
763.71	1318.89
763.89	1275.88
764.07	1183.73
764.24	1232.88
764.42	1259.50
764.60	1290.22
764.78	1282.03
764.96	1245.16
765.13	1216.49
765.31	1245.16
765.49	1290.22
765.67	1249.26
765.84	1288.17
766.02	1296.36
766.20	1228.78
766.38	1284.08
766.56	1288.17
766.73	1251.31
766.91	1226.73
767.09	1331.18
767.27	1282.03
767.44	1277.93
767.62	1290.22
767.80	1275.88
767.98	1228.78
768.15	1286.12
768.33	1259.50
768.51	1249.26
768.69	1245.16
768.87	1267.69
769.04	1294.32
769.22	1279.98
769.40	1245.16
769.58	1206.25
769.75	1304.56
769.93	1292.27
770.11	1261.55
770.28	1298.41
770.46	1288.17
770.64	1249.26
770.82	1222.64
770.99	1277.93
771.17	1314.80
771.35	1204.21
771.53	1251.31
771.70	1249.26
771.88	1318.89
772.06	1265.64
772.23	1259.50
772.41	1318.89
772.59	1302.51
772.77	1200.11
772.94	1226.73
773.12	1347.56
773.30	1255.40
773.47	1265.64
773.65	1257.45
773.83	1353.71
774.01	1253.36
774.18	1198.06
774.36	1271.79
774.54	1245.16
774.71	1310.70
774.89	1249.26
775.07	1224.69
775.24	1279.98
775.42	1228.78
775.60	1279.98
775.78	1296.36
775.95	1255.40
776.13	1208.30
776.31	1189.87
776.48	1204.21
776.66	1259.50
776.84	1302.51
777.01	1279.98
777.19	1200.11
777.37	1282.03
777.54	1198.06
777.72	1243.12
777.90	1234.93
778.07	1247.21
778.25	1259.50
778.43	1312.75
778.60	1249.26
778.78	1226.73
778.96	1271.79
779.13	1253.36
779.31	1277.93
779.49	1271.79
779.66	1269.74
779.84	1226.73
780.01	1226.73
780.19	1261.55
780.37	1239.02
780.54	1198.06
780.72	1261.55
780.90	1253.36
781.07	1279.98
781.25	1288.17
781.43	1232.88
781.60	1322.99
781.78	1249.26
781.95	1271.79
782.13	1263.60
782.31	1251.31
782.48	1257.45
782.66	1294.32
782.83	1243.12
783.01	1273.84
783.19	1234.93
783.36	1239.02
783.54	1243.12
783.72	1224.69
783.89	1273.84
784.07	1296.36
784.24	1249.26
784.42	1294.32
784.60	1363.95
784.77	1284.08
784.95	1314.80
785.12	1277.93
785.30	1294.32
785.47	1232.88
785.65	1261.55
785.83	1165.29
786.00	1247.21
786.18	1300.46
786.35	1230.83
786.53	1175.53
786.71	1275.88
786.88	1263.60
787.06	1220.59
787.23	1312.75
787.41	1308.65
787.58	1269.74
787.76	1284.08
787.94	1245.16
788.11	1277.93
788.29	1255.40
788.46	1259.50
788.64	1204.21
788.81	1284.08
788.99	1282.03
789.16	1263.60
789.34	1304.56
789.52	1310.70
789.69	1282.03
789.87	1277.93
790.04	1298.41
790.22	1288.17
790.39	1267.69
790.57	1243.12
790.74	1275.88
790.92	1241.07
791.09	1249.26
791.27	1308.65
791.44	1249.26
791.62	1273.84
791.79	1308.65
791.97	1236.97
792.15	1366.00
792.32	1243.12
792.50	1269.74
792.67	1284.08
792.85	1279.98
793.02	1304.56
793.20	1241.07
793.37	1341.42
793.55	1351.66
793.72	1263.60
793.90	1302.51
794.07	1259.50
794.25	1232.88
794.42	1271.79
794.60	1333.23
794.77	1249.26
794.95	1241.07
795.12	1245.16
795.30	1363.95
795.47	1304.56
795.65	1300.46
795.82	1251.31
796.00	1286.12
796.17	1200.11
796.34	1259.50
796.52	1273.84
796.69	1318.89
796.87	1277.93
797.04	1341.42
797.22	1247.21
797.39	1255.40
797.57	1239.02
797.74	1257.45
797.92	1306.60
798.09	1241.07
798.27	1218.54
798.44	1304.56
798.62	1251.31
798.79	1243.12
798.96	1257.45
799.14	1249.26
799.31	1277.93
799.49	1189.87
799.66	1308.65
799.84	1300.46
800.01	1257.45
800.19	1339.37
800.36	1325.04
800.53	1255.40
800.71	1282.03
800.88	1265.64
801.06	1161.20
801.23	1308.65
801.41	1296.36
801.58	1294.32
801.75	1331.18
801.93	1265.64
802.10	1288.17
802.28	1228.78
802.45	1253.36
802.63	1304.56
802.80	1292.27
802.97	1193.97
803.15	1232.88
803.32	1318.89
803.50	1279.98
803.67	1345.52
803.84	1269.74
804.02	1232.88
804.19	1222.64
804.37	1265.64
804.54	1265.64
804.71	1279.98
804.89	1263.60
805.06	1239.02
805.24	1206.25
805.41	1269.74
805.58	1214.45
805.76	1345.52
805.93	1228.78
806.10	1251.31
806.28	1218.54
806.45	1343.47
806.63	1286.12
806.80	1296.36
806.97	1288.17
807.15	1312.75
807.32	1288.17
807.49	1292.27
807.67	1261.55
807.84	1339.37
808.01	1265.64
808.19	1253.36
808.36	1335.28
808.54	1232.88
808.71	1279.98
808.88	1298.41
809.06	1232.88
809.23	1314.80
809.40	1183.73
809.58	1320.94
809.75	1198.06
809.92	1261.55
810.10	1269.74
810.27	1255.40
810.44	1249.26
810.62	1245.16
810.79	1279.98
810.96	1288.17
811.14	1294.32
811.31	1216.49
811.48	1339.37
811.66	1292.27
811.83	1277.93
812.00	1208.30
812.18	1282.03
812.35	1269.74
812.52	1304.56
812.69	1302.51
812.87	1259.50
813.04	1267.69
813.21	1167.34
813.39	1198.06
813.56	1302.51
813.73	1247.21
813.91	1310.70
814.08	1210.35
814.25	1288.17
814.42	1259.50
814.60	1249.26
814.77	1353.71
814.94	1269.74
815.12	1286.12
815.29	1282.03
815.46	1304.56
815.63	1191.92
815.81	1277.93
815.98	1290.22
816.15	1245.16
816.33	1275.88
816.50	1265.64
816.67	1185.77
816.84	1294.32
817.02	1284.08
817.19	1267.69
817.36	1304.56
817.53	1302.51
817.71	1286.12
817.88	1224.69
818.05	1259.50
818.22	1239.02
818.40	1267.69
818.57	1273.84
818.74	1251.31
818.91	1249.26
819.09	1214.45
819.26	1286.12
819.43	1249.26
819.60	1245.16
819.78	1228.78
819.95	1322.99
820.12	1273.84
820.29	1247.21
820.47	1277.93
820.64	1279.98
820.81	1302.51
820.98	1243.12
821.15	1267.69
821.33	1200.11
821.50	1216.49
821.67	1255.40
821.84	1167.34
822.02	1279.98
822.19	1234.93
822.36	1255.40
822.53	1241.07
822.70	1318.89
822.88	1228.78
823.05	1273.84
823.22	1255.40
823.39	1282.03
823.56	1282.03
823.74	1312.75
823.91	1245.16
824.08	1241.07
824.25	1263.60
824.42	1210.35
824.60	1224.69
824.77	1282.03
824.94	1218.54
825.11	1322.99
825.28	1218.54
825.45	1292.27
825.63	1335.28
825.80	1267.69
825.97	1241.07
826.14	1292.27
826.31	1228.78
826.48	1241.07
826.66	1279.98
826.83	1198.06
827.00	1259.50
827.17	1224.69
827.34	1284.08
827.51	1337.32
827.69	1226.73
827.86	1232.88
828.03	1288.17
828.20	1263.60
828.37	1310.70
828.54	1325.04
828.71	1255.40
828.89	1308.65
829.06	1302.51
829.23	1234.93
829.40	1286.12
829.57	1318.89
829.74	1239.02
829.91	1312.75
830.09	1286.12
830.26	1290.22
830.43	1212.40
830.60	1282.03
830.77	1255.40
830.94	1353.71
831.11	1288.17
831.28	1253.36
831.46	1234.93
831.63	1226.73
831.80	1193.97
831.97	1286.12
832.14	1255.40
832.31	1302.51
832.48	1279.98
832.65	1290.22
832.82	1300.46
832.99	1279.98
833.17	1251.31
833.34	1279.98
833.51	1228.78
833.68	1234.93
833.85	1318.89
834.02	1282.03
834.19	1224.69
834.36	1228.78
834.53	1314.80
834.70	1230.83
834.87	1251.31
835.04	1275.88
835.22	1277.93
835.39	1300.46
835.56	1318.89
835.73	1271.79
835.90	1251.31
836.07	1267.69
836.24	1263.60
836.41	1271.79
836.58	1286.12
836.75	1314.80
836.92	1273.84
837.09	1353.71
837.26	1312.75
837.43	1259.50
837.60	1271.79
837.77	1277.93
837.94	1349.61
838.12	1300.46
838.29	1255.40
838.46	1265.64
838.63	1228.78
838.80	1204.21
838.97	1304.56
839.14	1345.52
839.31	1228.78
839.48	1218.54
839.65	1220.59
839.82	1230.83
839.99	1222.64
840.16	1247.21
840.33	1247.21
840.50	1265.64
840.67	1220.59
840.84	1269.74
841.01	1241.07
841.18	1339.37
841.35	1269.74
841.52	1271.79
841.69	1290.22
841.86	1314.80
842.03	1226.73
842.20	1351.66
842.37	1228.78
842.54	1267.69
842.71	1247.21
842.88	1267.69
843.05	1308.65
843.22	1275.88
843.39	1298.41
843.56	1279.98
843.73	1335.28
843.90	1247.21
844.07	1267.69
844.24	1247.21
844.41	1277.93
844.58	1304.56
844.75	1259.50
844.92	1279.98
845.09	1320.94
845.26	1277.93
845.43	1277.93
845.60	1282.03
845.77	1302.51
845.94	1216.49
846.10	1302.51
846.27	1245.16
846.44	1322.99
846.61	1296.36
846.78	1208.30
846.95	1290.22
847.12	1224.69
847.29	1202.16
847.46	1241.07
847.63	1247.21
847.80	1245.16
847.97	1294.32
848.14	1282.03
848.31	1286.12
848.48	1177.58
848.65	1304.56
848.82	1224.69
848.98	1212.40
849.15	1284.08
849.32	1241.07
849.49	1273.84
849.66	1331.18
849.83	1294.32
850.00	1267.69
850.17	1277.93
850.34	1288.17
850.51	1222.64
850.68	1261.55
850.85	1314.80
851.01	1259.50
851.18	1259.50
851.35	1249.26
851.52	1245.16
851.69	1210.35
851.86	1273.84
852.03	1339.37
852.20	1247.21
852.37	1320.94
852.53	1120.24
852.70	1230.83
852.87	1245.16
853.04	1306.60
853.21	1216.49
853.38	1298.41
853.55	1286.12
853.72	1216.49
853.89	1284.08
854.05	1279.98
854.22	1222.64
854.39	1247.21
854.56	1243.12
854.73	1210.35
854.90	1259.50
855.07	1230.83
855.23	1329.13
855.40	1247.21
855.57	1290.22
855.74	1198.06
855.91	1275.88
856.08	1298.41
856.25	1288.17
856.41	1232.88
856.58	1310.70
856.75	1312.75
856.92	1181.68
857.09	1236.97
857.26	1310.70
857.42	1312.75
857.59	1318.89
857.76	1310.70
857.93	1232.88
858.10	1271.79
858.27	1241.07
858.43	1255.40
858.60	1318.89
858.77	1208.30
858.94	1218.54
859.11	1314.80
859.27	1243.12
859.44	1249.26
859.61	1265.64
859.78	1206.25
859.95	1288.17
860.12	1290.22
860.28	1259.50
860.45	1241.07
860.62	1255.40
860.79	1251.31
860.95	1265.64
861.12	1251.31
861.29	1314.80
861.46	1282.03
861.63	1279.98
861.79	1277.93
861.96	1269.74
862.13	1304.56
862.30	1290.22
862.47	1282.03
862.63	1265.64
862.80	1294.32
862.97	1288.17
863.14	1222.64
863.30	1261.55
863.47	1255.40
863.64	1282.03
863.81	1310.70
863.97	1349.61
864.14	1378.28
864.31	1286.12
864.48	1316.84
864.65	1259.50
864.81	1226.73
864.98	1322.99
865.15	1224.69
865.32	1232.88
865.48	1288.17
865.65	1245.16
865.82	1253.36
865.98	1261.55
866.15	1255.40
866.32	1298.41
866.49	1304.56
866.65	1212.40
866.82	1292.27
866.99	1282.03
867.16	1249.26
867.32	1288.17
867.49	1230.83
867.66	1284.08
867.83	1218.54
867.99	1277.93
868.16	1247.21
868.33	1236.97
868.49	1271.79
868.66	1296.36
868.83	1286.12
868.99	1222.64
869.16	1314.80
869.33	1232.88
869.50	1241.07
869.66	1304.56
869.83	1232.88
870.00	1216.49
870.16	1255.40
870.33	1159.15
870.50	1181.68
870.66	1257.45
870.83	1273.84
871.00	1284.08
871.17	1343.47
871.33	1284.08
871.50	1296.36
871.67	1173.49
871.83	1239.02
872.00	1251.31
872.17	1232.88
872.33	1271.79
872.50	1286.12
872.67	1298.41
872.83	1257.45
873.00	1265.64
873.17	1318.89
873.33	1333.23
873.50	1224.69
873.67	1247.21
873.83	1298.41
874.00	1243.12
874.16	1273.84
874.33	1269.74
874.50	1239.02
874.66	1310.70
874.83	1245.16
875.00	1255.40
875.16	1263.60
875.33	1308.65
875.50	1279.98
875.66	1292.27
875.83	1310.70
875.99	1212.40
876.16	1257.45
876.33	1232.88
876.49	1265.64
876.66	1263.60
876.83	1284.08
876.99	1226.73
877.16	1290.22
877.32	1249.26
877.49	1265.64
877.66	1259.50
877.82	1273.84
877.99	1314.80
878.15	1318.89
878.32	1253.36
878.49	1273.84
878.65	1353.71
878.82	1314.80
878.98	1224.69
879.15	1259.50
879.32	1224.69
879.48	1282.03
879.65	1241.07
879.81	1230.83
879.98	1288.17
880.15	1304.56
880.31	1284.08
880.48	1290.22
880.64	1310.70
880.81	1214.45
880.97	1265.64
881.14	1288.17
881.31	1316.84
881.47	1130.48
881.64	1275.88
881.80	1302.51
881.97	1226.73
882.13	1255.40
882.30	1288.17
882.47	1249.26
882.63	1277.93
882.80	1269.74
882.96	1181.68
883.13	1282.03
883.29	1249.26
883.46	1239.02
883.62	1267.69
883.79	1286.12
883.95	1247.21
884.12	1208.30
884.29	1298.41
884.45	1282.03
884.62	1232.88
884.78	1271.79
884.95	1249.26
885.11	1228.78
885.28	1261.55
885.44	1204.21
885.61	1271.79
885.77	1241.07
885.94	1286.12
886.10	1279.98
886.27	1257.45
886.43	1286.12
886.60	1300.46
886.76	1257.45
886.93	1271.79
887.09	1277.93
887.26	1181.68
887.42	1257.45
887.59	1333.23
887.75	1263.60
887.92	1261.55
888.08	1263.60
888.25	1216.49
888.41	1282.03
888.58	1277.93
888.74	1261.55
888.91	1351.66
>>>>>End Processed Spectral Data<<<<<
