SpectraSuite Data File
++++++++++++++++++++++++++++++++++++
Date: Sun Apr 03 19:55:50 CEST 2016
User: root
Dark Spectrum Present: No
Reference Spectrum Present: No
Number of Sampled Component Spectra: 1
Spectrometers: USB4C02835
Integration Time (usec): 10000 (USB4C02835)
Spectra Averaged: 1 (USB4C02835)
Boxcar Smoothing: 0 (USB4C02835)
Correct for Electrical Dark: No (USB4C02835)
Strobe/Lamp Enabled: No (USB4C02835)
Correct for Detector Non-linearity: No (USB4C02835)
Correct for Stray Light: No (USB4C02835)
Number of Pixels in Processed Spectrum: 3648
>>>>>Begin Processed Spectral Data<<<<<
177.47	1206.25
177.69	1206.25
177.91	1206.25
178.13	1243.12
178.36	1239.02
178.58	1320.94
178.80	1181.68
179.02	1294.32
179.24	1275.88
179.46	1275.88
179.68	1257.45
179.90	1353.71
180.13	1343.47
180.35	1275.88
180.57	1282.03
180.79	1263.60
181.01	1314.80
181.23	1175.53
181.45	1261.55
181.67	1241.07
181.90	1366.00
182.12	1290.22
182.34	1322.99
182.56	1230.83
182.78	1263.60
183.00	1269.74
183.22	1277.93
183.44	1273.84
183.66	1318.89
183.89	1204.21
184.11	1298.41
184.33	1277.93
184.55	1271.79
184.77	1234.93
184.99	1306.60
185.21	1271.79
185.43	1316.84
185.65	1286.12
185.87	1294.32
186.10	1210.35
186.32	1308.65
186.54	1296.36
186.76	1273.84
186.98	1331.18
187.20	1273.84
187.42	1298.41
187.64	1294.32
187.86	1261.55
188.08	1239.02
188.30	1327.08
188.52	1228.78
188.75	1259.50
188.97	1265.64
189.19	1282.03
189.41	1316.84
189.63	1157.10
189.85	1214.45
190.07	1251.31
190.29	1228.78
190.51	1335.28
190.73	1263.60
190.95	1206.25
191.17	1288.17
191.39	1224.69
191.61	1232.88
191.84	1263.60
192.06	1312.75
192.28	1208.30
192.50	1232.88
192.72	1314.80
192.94	1259.50
193.16	1269.74
193.38	1298.41
193.60	1279.98
193.82	1298.41
194.04	1312.75
194.26	1284.08
194.48	1271.79
194.70	1249.26
194.92	1306.60
195.14	1249.26
195.36	1241.07
195.58	1253.36
195.80	1316.84
196.02	1267.69
196.24	1296.36
196.46	1234.93
196.69	1230.83
196.91	1337.32
197.13	1290.22
197.35	1165.29
197.57	1288.17
197.79	1339.37
198.01	1288.17
198.23	1296.36
198.45	1253.36
198.67	1271.79
198.89	1257.45
199.11	1290.22
199.33	1265.64
199.55	1320.94
199.77	1214.45
199.99	1284.08
200.21	1247.21
200.43	1255.40
200.65	1292.27
200.87	1210.35
201.09	1216.49
201.31	1273.84
201.53	1294.32
201.75	1331.18
201.97	1249.26
202.19	1222.64
202.41	1290.22
202.63	1198.06
202.85	1284.08
203.07	1310.70
203.29	1265.64
203.51	1318.89
203.73	1265.64
203.95	1253.36
204.17	1296.36
204.39	1288.17
204.61	1349.61
204.83	1271.79
205.05	1294.32
205.27	1249.26
205.49	1230.83
205.71	1339.37
205.93	1275.88
206.15	1247.21
206.37	1265.64
206.59	1193.97
206.81	1298.41
207.03	1187.82
207.25	1253.36
207.47	1294.32
207.69	1257.45
207.91	1271.79
208.13	1335.28
208.34	1304.56
208.56	1200.11
208.78	1286.12
209.00	1294.32
209.22	1232.88
209.44	1243.12
209.66	1296.36
209.88	1275.88
210.10	1189.87
210.32	1220.59
210.54	1255.40
210.76	1269.74
210.98	1214.45
211.20	1265.64
211.42	1249.26
211.64	1290.22
211.86	1216.49
212.08	1206.25
212.30	1259.50
212.52	1282.03
212.74	1216.49
212.96	1304.56
213.17	1331.18
213.39	1232.88
213.61	1251.31
213.83	1318.89
214.05	1322.99
214.27	1228.78
214.49	1298.41
214.71	1257.45
214.93	1298.41
215.15	1349.61
215.37	1191.92
215.59	1230.83
215.81	1261.55
216.03	1288.17
216.24	1294.32
216.46	1179.63
216.68	1312.75
216.90	1349.61
217.12	1224.69
217.34	1333.23
217.56	1263.60
217.78	1224.69
218.00	1263.60
218.22	1302.51
218.44	1243.12
218.66	1255.40
218.87	1284.08
219.09	1257.45
219.31	1222.64
219.53	1263.60
219.75	1288.17
219.97	1267.69
220.19	1228.78
220.41	1236.97
220.63	1322.99
220.85	1224.69
221.06	1267.69
221.28	1327.08
221.50	1282.03
221.72	1224.69
221.94	1304.56
222.16	1245.16
222.38	1243.12
222.60	1357.80
222.82	1298.41
223.03	1234.93
223.25	1241.07
223.47	1263.60
223.69	1273.84
223.91	1234.93
224.13	1210.35
224.35	1306.60
224.57	1230.83
224.78	1282.03
225.00	1218.54
225.22	1228.78
225.44	1316.84
225.66	1277.93
225.88	1261.55
226.10	1284.08
226.32	1275.88
226.53	1243.12
226.75	1339.37
226.97	1263.60
227.19	1236.97
227.41	1273.84
227.63	1247.21
227.85	1273.84
228.06	1243.12
228.28	1187.82
228.50	1259.50
228.72	1245.16
228.94	1220.59
229.16	1243.12
229.37	1273.84
229.59	1249.26
229.81	1257.45
230.03	1306.60
230.25	1267.69
230.47	1212.40
230.69	1241.07
230.90	1271.79
231.12	1253.36
231.34	1263.60
231.56	1314.80
231.78	1277.93
232.00	1284.08
232.21	1222.64
232.43	1265.64
232.65	1275.88
232.87	1320.94
233.09	1255.40
233.30	1232.88
233.52	1347.56
233.74	1251.31
233.96	1234.93
234.18	1236.97
234.40	1277.93
234.61	1296.36
234.83	1343.47
235.05	1177.58
235.27	1308.65
235.49	1308.65
235.70	1275.88
235.92	1265.64
236.14	1208.30
236.36	1273.84
236.58	1347.56
236.79	1232.88
237.01	1187.82
237.23	1261.55
237.45	1224.69
237.67	1216.49
237.88	1290.22
238.10	1337.32
238.32	1251.31
238.54	1191.92
238.76	1249.26
238.97	1218.54
239.19	1265.64
239.41	1277.93
239.63	1257.45
239.85	1251.31
240.06	1232.88
240.28	1265.64
240.50	1261.55
240.72	1273.84
240.93	1271.79
241.15	1337.32
241.37	1308.65
241.59	1251.31
241.81	1284.08
242.02	1290.22
242.24	1230.83
242.46	1245.16
242.68	1302.51
242.89	1306.60
243.11	1318.89
243.33	1261.55
243.55	1257.45
243.76	1236.97
243.98	1296.36
244.20	1294.32
244.42	1300.46
244.64	1335.28
244.85	1269.74
245.07	1245.16
245.29	1257.45
245.51	1284.08
245.72	1282.03
245.94	1306.60
246.16	1277.93
246.38	1292.27
246.59	1183.73
246.81	1251.31
247.03	1337.32
247.24	1292.27
247.46	1279.98
247.68	1243.12
247.90	1245.16
248.11	1306.60
248.33	1288.17
248.55	1249.26
248.77	1232.88
248.98	1292.27
249.20	1302.51
249.42	1241.07
249.64	1327.08
249.85	1304.56
250.07	1224.69
250.29	1265.64
250.50	1300.46
250.72	1341.42
250.94	1286.12
251.16	1241.07
251.37	1279.98
251.59	1259.50
251.81	1241.07
252.02	1320.94
252.24	1273.84
252.46	1308.65
252.68	1306.60
252.89	1282.03
253.11	1320.94
253.33	1163.25
253.54	1282.03
253.76	1228.78
253.98	1314.80
254.20	1239.02
254.41	1325.04
254.63	1331.18
254.85	1259.50
255.06	1314.80
255.28	1249.26
255.50	1200.11
255.71	1259.50
255.93	1302.51
256.15	1224.69
256.36	1239.02
256.58	1302.51
256.80	1267.69
257.02	1220.59
257.23	1331.18
257.45	1224.69
257.67	1282.03
257.88	1241.07
258.10	1265.64
258.32	1263.60
258.53	1308.65
258.75	1198.06
258.97	1288.17
259.18	1269.74
259.40	1239.02
259.62	1325.04
259.83	1325.04
260.05	1284.08
260.27	1265.64
260.48	1271.79
260.70	1292.27
260.92	1273.84
261.13	1327.08
261.35	1314.80
261.57	1249.26
261.78	1251.31
262.00	1261.55
262.22	1292.27
262.43	1216.49
262.65	1245.16
262.86	1279.98
263.08	1265.64
263.30	1241.07
263.51	1224.69
263.73	1286.12
263.95	1183.73
264.16	1325.04
264.38	1249.26
264.60	1253.36
264.81	1310.70
265.03	1261.55
265.25	1249.26
265.46	1271.79
265.68	1282.03
265.89	1259.50
266.11	1298.41
266.33	1226.73
266.54	1253.36
266.76	1286.12
266.98	1279.98
267.19	1347.56
267.41	1277.93
267.62	1175.53
267.84	1296.36
268.06	1261.55
268.27	1255.40
268.49	1322.99
268.70	1300.46
268.92	1304.56
269.14	1206.25
269.35	1255.40
269.57	1243.12
269.79	1314.80
270.00	1271.79
270.22	1222.64
270.43	1159.15
270.65	1236.97
270.87	1273.84
271.08	1267.69
271.30	1239.02
271.51	1212.40
271.73	1304.56
271.95	1239.02
272.16	1329.13
272.38	1253.36
272.59	1255.40
272.81	1222.64
273.02	1327.08
273.24	1298.41
273.46	1261.55
273.67	1306.60
273.89	1306.60
274.10	1288.17
274.32	1230.83
274.54	1249.26
274.75	1331.18
274.97	1327.08
275.18	1245.16
275.40	1259.50
275.61	1318.89
275.83	1263.60
276.05	1288.17
276.26	1224.69
276.48	1339.37
276.69	1232.88
276.91	1292.27
277.12	1320.94
277.34	1267.69
277.55	1255.40
277.77	1271.79
277.99	1288.17
278.20	1318.89
278.42	1263.60
278.63	1318.89
278.85	1253.36
279.06	1230.83
279.28	1216.49
279.49	1236.97
279.71	1236.97
279.93	1232.88
280.14	1271.79
280.36	1275.88
280.57	1257.45
280.79	1249.26
281.00	1282.03
281.22	1261.55
281.43	1265.64
281.65	1257.45
281.86	1298.41
282.08	1294.32
282.29	1218.54
282.51	1239.02
282.73	1290.22
282.94	1292.27
283.16	1290.22
283.37	1263.60
283.59	1275.88
283.80	1273.84
284.02	1230.83
284.23	1218.54
284.45	1204.21
284.66	1263.60
284.88	1214.45
285.09	1214.45
285.31	1245.16
285.52	1302.51
285.74	1259.50
285.95	1241.07
286.17	1257.45
286.38	1294.32
286.60	1284.08
286.81	1269.74
287.03	1204.21
287.24	1269.74
287.46	1282.03
287.67	1288.17
287.89	1243.12
288.10	1200.11
288.32	1327.08
288.53	1216.49
288.75	1273.84
288.96	1267.69
289.18	1271.79
289.39	1257.45
289.61	1298.41
289.82	1357.80
290.04	1279.98
290.25	1288.17
290.47	1277.93
290.68	1177.58
290.90	1331.18
291.11	1296.36
291.33	1216.49
291.54	1187.82
291.76	1200.11
291.97	1298.41
292.18	1206.25
292.40	1247.21
292.61	1282.03
292.83	1275.88
293.04	1263.60
293.26	1222.64
293.47	1228.78
293.69	1300.46
293.90	1284.08
294.12	1290.22
294.33	1191.92
294.55	1224.69
294.76	1290.22
294.97	1255.40
295.19	1294.32
295.40	1292.27
295.62	1216.49
295.83	1241.07
296.05	1259.50
296.26	1271.79
296.48	1228.78
296.69	1312.75
296.90	1267.69
297.12	1202.16
297.33	1236.97
297.55	1263.60
297.76	1228.78
297.98	1288.17
298.19	1271.79
298.41	1241.07
298.62	1277.93
298.83	1261.55
299.05	1310.70
299.26	1265.64
299.48	1304.56
299.69	1245.16
299.90	1302.51
300.12	1282.03
300.33	1263.60
300.55	1255.40
300.76	1277.93
300.98	1275.88
301.19	1290.22
301.40	1279.98
301.62	1277.93
301.83	1259.50
302.05	1243.12
302.26	1284.08
302.47	1247.21
302.69	1284.08
302.90	1298.41
303.12	1216.49
303.33	1247.21
303.54	1339.37
303.76	1294.32
303.97	1255.40
304.19	1269.74
304.40	1302.51
304.61	1245.16
304.83	1282.03
305.04	1273.84
305.26	1189.87
305.47	1263.60
305.68	1282.03
305.90	1259.50
306.11	1333.23
306.33	1259.50
306.54	1294.32
306.75	1273.84
306.97	1265.64
307.18	1265.64
307.39	1386.47
307.61	1167.34
307.82	1226.73
308.04	1259.50
308.25	1329.13
308.46	1261.55
308.68	1282.03
308.89	1226.73
309.10	1273.84
309.32	1267.69
309.53	1236.97
309.74	1273.84
309.96	1312.75
310.17	1292.27
310.39	1277.93
310.60	1288.17
310.81	1304.56
311.03	1241.07
311.24	1353.71
311.45	1296.36
311.67	1282.03
311.88	1298.41
312.09	1245.16
312.31	1290.22
312.52	1148.91
312.73	1277.93
312.95	1189.87
313.16	1316.84
313.37	1261.55
313.59	1247.21
313.80	1277.93
314.01	1331.18
314.23	1236.97
314.44	1243.12
314.65	1245.16
314.87	1282.03
315.08	1245.16
315.29	1257.45
315.51	1247.21
315.72	1331.18
315.93	1282.03
316.15	1269.74
316.36	1247.21
316.57	1241.07
316.79	1273.84
317.00	1243.12
317.21	1265.64
317.43	1378.28
317.64	1277.93
317.85	1204.21
318.07	1216.49
318.28	1259.50
318.49	1198.06
318.70	1318.89
318.92	1249.26
319.13	1269.74
319.34	1230.83
319.56	1294.32
319.77	1216.49
319.98	1236.97
320.20	1282.03
320.41	1318.89
320.62	1239.02
320.83	1322.99
321.05	1265.64
321.26	1327.08
321.47	1232.88
321.69	1275.88
321.90	1322.99
322.11	1271.79
322.32	1187.82
322.54	1331.18
322.75	1198.06
322.96	1284.08
323.18	1210.35
323.39	1269.74
323.60	1226.73
323.81	1226.73
324.03	1230.83
324.24	1216.49
324.45	1322.99
324.66	1335.28
324.88	1247.21
325.09	1271.79
325.30	1298.41
325.52	1310.70
325.73	1265.64
325.94	1271.79
326.15	1236.97
326.37	1273.84
326.58	1271.79
326.79	1292.27
327.00	1218.54
327.22	1261.55
327.43	1239.02
327.64	1290.22
327.85	1243.12
328.07	1247.21
328.28	1224.69
328.49	1265.64
328.70	1267.69
328.92	1357.80
329.13	1216.49
329.34	1304.56
329.55	1331.18
329.76	1255.40
329.98	1243.12
330.19	1241.07
330.40	1222.64
330.61	1331.18
330.83	1282.03
331.04	1288.17
331.25	1230.83
331.46	1306.60
331.68	1216.49
331.89	1269.74
332.10	1210.35
332.31	1230.83
332.52	1228.78
332.74	1292.27
332.95	1271.79
333.16	1226.73
333.37	1275.88
333.58	1247.21
333.80	1288.17
334.01	1298.41
334.22	1220.59
334.43	1255.40
334.64	1306.60
334.86	1251.31
335.07	1279.98
335.28	1228.78
335.49	1286.12
335.70	1318.89
335.92	1288.17
336.13	1288.17
336.34	1279.98
336.55	1304.56
336.76	1294.32
336.98	1302.51
337.19	1286.12
337.40	1253.36
337.61	1294.32
337.82	1298.41
338.04	1249.26
338.25	1290.22
338.46	1372.14
338.67	1206.25
338.88	1265.64
339.09	1259.50
339.31	1267.69
339.52	1273.84
339.73	1269.74
339.94	1263.60
340.15	1269.74
340.36	1294.32
340.58	1228.78
340.79	1296.36
341.00	1269.74
341.21	1245.16
341.42	1220.59
341.63	1263.60
341.85	1234.93
342.06	1314.80
342.27	1292.27
342.48	1247.21
342.69	1196.01
342.90	1273.84
343.12	1255.40
343.33	1220.59
343.54	1284.08
343.75	1234.93
343.96	1277.93
344.17	1327.08
344.38	1245.16
344.60	1271.79
344.81	1310.70
345.02	1273.84
345.23	1228.78
345.44	1331.18
345.65	1282.03
345.86	1275.88
346.07	1275.88
346.29	1279.98
346.50	1251.31
346.71	1245.16
346.92	1251.31
347.13	1302.51
347.34	1292.27
347.55	1267.69
347.76	1251.31
347.98	1202.16
348.19	1271.79
348.40	1259.50
348.61	1220.59
348.82	1296.36
349.03	1312.75
349.24	1247.21
349.45	1241.07
349.66	1257.45
349.88	1253.36
350.09	1271.79
350.30	1286.12
350.51	1257.45
350.72	1353.71
350.93	1325.04
351.14	1236.97
351.35	1263.60
351.56	1288.17
351.77	1222.64
351.99	1251.31
352.20	1337.32
352.41	1251.31
352.62	1308.65
352.83	1245.16
353.04	1241.07
353.25	1261.55
353.46	1171.44
353.67	1220.59
353.88	1271.79
354.09	1265.64
354.30	1335.28
354.52	1327.08
354.73	1265.64
354.94	1224.69
355.15	1247.21
355.36	1279.98
355.57	1290.22
355.78	1269.74
355.99	1279.98
356.20	1265.64
356.41	1249.26
356.62	1200.11
356.83	1288.17
357.04	1265.64
357.25	1239.02
357.46	1216.49
357.68	1222.64
357.89	1259.50
358.10	1318.89
358.31	1255.40
358.52	1247.21
358.73	1261.55
358.94	1189.87
359.15	1249.26
359.36	1304.56
359.57	1253.36
359.78	1286.12
359.99	1273.84
360.20	1263.60
360.41	1308.65
360.62	1247.21
360.83	1304.56
361.04	1222.64
361.25	1216.49
361.46	1308.65
361.67	1335.28
361.88	1288.17
362.09	1245.16
362.30	1279.98
362.51	1282.03
362.72	1292.27
362.93	1327.08
363.14	1236.97
363.35	1294.32
363.56	1343.47
363.78	1286.12
363.99	1253.36
364.20	1312.75
364.41	1304.56
364.62	1263.60
364.83	1284.08
365.04	1361.90
365.25	1275.88
365.46	1314.80
365.67	1318.89
365.88	1267.69
366.09	1277.93
366.30	1243.12
366.51	1232.88
366.72	1325.04
366.93	1298.41
367.14	1247.21
367.35	1290.22
367.56	1275.88
367.77	1322.99
367.98	1218.54
368.18	1331.18
368.39	1204.21
368.60	1282.03
368.81	1263.60
369.02	1306.60
369.23	1361.90
369.44	1228.78
369.65	1263.60
369.86	1269.74
370.07	1247.21
370.28	1241.07
370.49	1261.55
370.70	1282.03
370.91	1288.17
371.12	1306.60
371.33	1265.64
371.54	1245.16
371.75	1322.99
371.96	1255.40
372.17	1286.12
372.38	1253.36
372.59	1251.31
372.80	1247.21
373.01	1247.21
373.22	1277.93
373.43	1298.41
373.64	1243.12
373.85	1236.97
374.06	1247.21
374.26	1269.74
374.47	1245.16
374.68	1214.45
374.89	1370.09
375.10	1363.95
375.31	1288.17
375.52	1325.04
375.73	1294.32
375.94	1236.97
376.15	1300.46
376.36	1253.36
376.57	1325.04
376.78	1275.88
376.99	1239.02
377.20	1277.93
377.40	1249.26
377.61	1292.27
377.82	1304.56
378.03	1245.16
378.24	1261.55
378.45	1247.21
378.66	1200.11
378.87	1183.73
379.08	1212.40
379.29	1228.78
379.50	1300.46
379.71	1251.31
379.91	1296.36
380.12	1259.50
380.33	1286.12
380.54	1218.54
380.75	1261.55
380.96	1327.08
381.17	1286.12
381.38	1275.88
381.59	1239.02
381.80	1198.06
382.00	1279.98
382.21	1306.60
382.42	1320.94
382.63	1265.64
382.84	1183.73
383.05	1241.07
383.26	1232.88
383.47	1279.98
383.68	1294.32
383.88	1275.88
384.09	1224.69
384.30	1298.41
384.51	1329.13
384.72	1230.83
384.93	1255.40
385.14	1327.08
385.35	1267.69
385.55	1241.07
385.76	1265.64
385.97	1275.88
386.18	1265.64
386.39	1222.64
386.60	1282.03
386.81	1322.99
387.02	1253.36
387.22	1316.84
387.43	1208.30
387.64	1284.08
387.85	1241.07
388.06	1275.88
388.27	1325.04
388.48	1279.98
388.68	1288.17
388.89	1314.80
389.10	1259.50
389.31	1159.15
389.52	1335.28
389.73	1277.93
389.93	1337.32
390.14	1212.40
390.35	1263.60
390.56	1290.22
390.77	1251.31
390.98	1314.80
391.18	1282.03
391.39	1271.79
391.60	1304.56
391.81	1286.12
392.02	1306.60
392.23	1271.79
392.43	1269.74
392.64	1284.08
392.85	1255.40
393.06	1284.08
393.27	1312.75
393.47	1239.02
393.68	1273.84
393.89	1255.40
394.10	1269.74
394.31	1275.88
394.52	1298.41
394.72	1298.41
394.93	1236.97
395.14	1292.27
395.35	1214.45
395.56	1267.69
395.76	1286.12
395.97	1245.16
396.18	1249.26
396.39	1202.16
396.60	1282.03
396.80	1333.23
397.01	1304.56
397.22	1282.03
397.43	1300.46
397.64	1277.93
397.84	1245.16
398.05	1269.74
398.26	1279.98
398.47	1339.37
398.67	1275.88
398.88	1286.12
399.09	1220.59
399.30	1251.31
399.51	1224.69
399.71	1269.74
399.92	1271.79
400.13	1273.84
400.34	1288.17
400.54	1249.26
400.75	1288.17
400.96	1310.70
401.17	1275.88
401.37	1325.04
401.58	1257.45
401.79	1261.55
402.00	1292.27
402.21	1366.00
402.41	1279.98
402.62	1255.40
402.83	1273.84
403.04	1269.74
403.24	1243.12
403.45	1253.36
403.66	1196.01
403.87	1236.97
404.07	1316.84
404.28	1284.08
404.49	1298.41
404.70	1226.73
404.90	1206.25
405.11	1257.45
405.32	1216.49
405.52	1253.36
405.73	1212.40
405.94	1247.21
406.15	1282.03
406.35	1331.18
406.56	1245.16
406.77	1306.60
406.98	1304.56
407.18	1325.04
407.39	1314.80
407.60	1253.36
407.80	1345.52
408.01	1222.64
408.22	1329.13
408.43	1277.93
408.63	1187.82
408.84	1290.22
409.05	1273.84
409.25	1294.32
409.46	1363.95
409.67	1249.26
409.88	1222.64
410.08	1247.21
410.29	1286.12
410.50	1318.89
410.70	1255.40
410.91	1263.60
411.12	1279.98
411.32	1241.07
411.53	1298.41
411.74	1222.64
411.95	1335.28
412.15	1253.36
412.36	1259.50
412.57	1234.93
412.77	1236.97
412.98	1243.12
413.19	1273.84
413.39	1263.60
413.60	1236.97
413.81	1277.93
414.01	1245.16
414.22	1298.41
414.43	1277.93
414.63	1290.22
414.84	1255.40
415.05	1261.55
415.25	1245.16
415.46	1271.79
415.67	1261.55
415.87	1314.80
416.08	1249.26
416.29	1339.37
416.49	1292.27
416.70	1329.13
416.91	1267.69
417.11	1290.22
417.32	1298.41
417.53	1273.84
417.73	1320.94
417.94	1339.37
418.15	1245.16
418.35	1273.84
418.56	1275.88
418.77	1265.64
418.97	1294.32
419.18	1232.88
419.38	1255.40
419.59	1269.74
419.80	1355.76
420.00	1153.01
420.21	1267.69
420.42	1288.17
420.62	1337.32
420.83	1251.31
421.04	1304.56
421.24	1214.45
421.45	1347.56
421.65	1257.45
421.86	1259.50
422.07	1296.36
422.27	1241.07
422.48	1273.84
422.69	1284.08
422.89	1337.32
423.10	1325.04
423.30	1230.83
423.51	1257.45
423.72	1220.59
423.92	1232.88
424.13	1306.60
424.33	1218.54
424.54	1265.64
424.75	1193.97
424.95	1302.51
425.16	1193.97
425.36	1286.12
425.57	1226.73
425.78	1284.08
425.98	1216.49
426.19	1226.73
426.39	1175.53
426.60	1249.26
426.81	1306.60
427.01	1245.16
427.22	1218.54
427.42	1206.25
427.63	1218.54
427.83	1249.26
428.04	1314.80
428.25	1316.84
428.45	1347.56
428.66	1300.46
428.86	1234.93
429.07	1232.88
429.28	1345.52
429.48	1216.49
429.69	1288.17
429.89	1249.26
430.10	1269.74
430.30	1351.66
430.51	1286.12
430.71	1222.64
430.92	1198.06
431.13	1257.45
431.33	1263.60
431.54	1298.41
431.74	1304.56
431.95	1249.26
432.15	1288.17
432.36	1226.73
432.56	1218.54
432.77	1290.22
432.98	1198.06
433.18	1277.93
433.39	1290.22
433.59	1255.40
433.80	1257.45
434.00	1163.25
434.21	1251.31
434.41	1228.78
434.62	1253.36
434.82	1277.93
435.03	1198.06
435.23	1302.51
435.44	1259.50
435.64	1206.25
435.85	1230.83
436.06	1284.08
436.26	1277.93
436.47	1230.83
436.67	1241.07
436.88	1288.17
437.08	1363.95
437.29	1331.18
437.49	1290.22
437.70	1304.56
437.90	1230.83
438.11	1265.64
438.31	1296.36
438.52	1255.40
438.72	1212.40
438.93	1263.60
439.13	1279.98
439.34	1247.21
439.54	1218.54
439.75	1290.22
439.95	1265.64
440.16	1277.93
440.36	1304.56
440.57	1302.51
440.77	1386.47
440.98	1308.65
441.18	1286.12
441.39	1277.93
441.59	1337.32
441.80	1322.99
442.00	1265.64
442.21	1308.65
442.41	1255.40
442.62	1224.69
442.82	1226.73
443.02	1322.99
443.23	1384.43
443.43	1296.36
443.64	1259.50
443.84	1245.16
444.05	1236.97
444.25	1286.12
444.46	1304.56
444.66	1304.56
444.87	1282.03
445.07	1296.36
445.28	1316.84
445.48	1218.54
445.69	1279.98
445.89	1226.73
446.09	1282.03
446.30	1374.19
446.50	1273.84
446.71	1298.41
446.91	1314.80
447.12	1290.22
447.32	1320.94
447.53	1370.09
447.73	1243.12
447.93	1255.40
448.14	1300.46
448.34	1300.46
448.55	1298.41
448.75	1271.79
448.96	1218.54
449.16	1288.17
449.36	1286.12
449.57	1212.40
449.77	1261.55
449.98	1267.69
450.18	1245.16
450.39	1310.70
450.59	1230.83
450.79	1230.83
451.00	1210.35
451.20	1271.79
451.41	1271.79
451.61	1294.32
451.81	1304.56
452.02	1282.03
452.22	1314.80
452.43	1382.38
452.63	1241.07
452.84	1380.33
453.04	1265.64
453.24	1255.40
453.45	1216.49
453.65	1331.18
453.86	1284.08
454.06	1290.22
454.26	1286.12
454.47	1232.88
454.67	1304.56
454.87	1267.69
455.08	1214.45
455.28	1273.84
455.49	1312.75
455.69	1318.89
455.89	1234.93
456.10	1345.52
456.30	1335.28
456.51	1189.87
456.71	1327.08
456.91	1341.42
457.12	1298.41
457.32	1327.08
457.52	1165.29
457.73	1308.65
457.93	1353.71
458.14	1304.56
458.34	1249.26
458.54	1198.06
458.75	1255.40
458.95	1282.03
459.15	1294.32
459.36	1245.16
459.56	1351.66
459.76	1275.88
459.97	1232.88
460.17	1271.79
460.37	1277.93
460.58	1282.03
460.78	1288.17
460.99	1247.21
461.19	1239.02
461.39	1257.45
461.60	1222.64
461.80	1304.56
462.00	1288.17
462.21	1218.54
462.41	1359.85
462.61	1288.17
462.82	1298.41
463.02	1255.40
463.22	1304.56
463.43	1265.64
463.63	1327.08
463.83	1318.89
464.04	1290.22
464.24	1331.18
464.44	1253.36
464.64	1249.26
464.85	1222.64
465.05	1351.66
465.25	1286.12
465.46	1306.60
465.66	1314.80
465.86	1288.17
466.07	1333.23
466.27	1302.51
466.47	1302.51
466.68	1232.88
466.88	1341.42
467.08	1257.45
467.29	1290.22
467.49	1200.11
467.69	1314.80
467.89	1320.94
468.10	1286.12
468.30	1337.32
468.50	1271.79
468.71	1304.56
468.91	1292.27
469.11	1290.22
469.31	1267.69
469.52	1247.21
469.72	1220.59
469.92	1296.36
470.13	1230.83
470.33	1343.47
470.53	1279.98
470.73	1255.40
470.94	1314.80
471.14	1179.63
471.34	1187.82
471.54	1222.64
471.75	1331.18
471.95	1239.02
472.15	1249.26
472.36	1222.64
472.56	1282.03
472.76	1310.70
472.96	1257.45
473.17	1273.84
473.37	1251.31
473.57	1327.08
473.77	1335.28
473.98	1226.73
474.18	1230.83
474.38	1269.74
474.58	1298.41
474.79	1290.22
474.99	1230.83
475.19	1269.74
475.39	1271.79
475.60	1257.45
475.80	1339.37
476.00	1294.32
476.20	1306.60
476.41	1232.88
476.61	1251.31
476.81	1265.64
477.01	1226.73
477.21	1327.08
477.42	1320.94
477.62	1292.27
477.82	1288.17
478.02	1247.21
478.23	1249.26
478.43	1239.02
478.63	1241.07
478.83	1273.84
479.03	1306.60
479.24	1232.88
479.44	1320.94
479.64	1263.60
479.84	1282.03
480.04	1263.60
480.25	1222.64
480.45	1245.16
480.65	1290.22
480.85	1230.83
481.06	1300.46
481.26	1279.98
481.46	1230.83
481.66	1294.32
481.86	1320.94
482.06	1273.84
482.27	1318.89
482.47	1273.84
482.67	1259.50
482.87	1220.59
483.07	1296.36
483.28	1263.60
483.48	1259.50
483.68	1310.70
483.88	1251.31
484.08	1263.60
484.29	1257.45
484.49	1259.50
484.69	1312.75
484.89	1224.69
485.09	1288.17
485.29	1245.16
485.50	1275.88
485.70	1273.84
485.90	1357.80
486.10	1331.18
486.30	1357.80
486.50	1304.56
486.71	1302.51
486.91	1232.88
487.11	1345.52
487.31	1210.35
487.51	1312.75
487.71	1277.93
487.91	1304.56
488.12	1359.85
488.32	1267.69
488.52	1282.03
488.72	1294.32
488.92	1284.08
489.12	1296.36
489.32	1261.55
489.53	1273.84
489.73	1322.99
489.93	1236.97
490.13	1218.54
490.33	1277.93
490.53	1294.32
490.73	1216.49
490.94	1320.94
491.14	1239.02
491.34	1269.74
491.54	1275.88
491.74	1273.84
491.94	1261.55
492.14	1310.70
492.34	1273.84
492.54	1284.08
492.75	1265.64
492.95	1298.41
493.15	1249.26
493.35	1267.69
493.55	1300.46
493.75	1269.74
493.95	1310.70
494.15	1249.26
494.35	1257.45
494.56	1232.88
494.76	1245.16
494.96	1210.35
495.16	1255.40
495.36	1245.16
495.56	1308.65
495.76	1208.30
495.96	1320.94
496.16	1267.69
496.36	1282.03
496.56	1273.84
496.77	1241.07
496.97	1257.45
497.17	1275.88
497.37	1277.93
497.57	1300.46
497.77	1257.45
497.97	1257.45
498.17	1279.98
498.37	1335.28
498.57	1257.45
498.77	1265.64
498.97	1251.31
499.17	1216.49
499.38	1273.84
499.58	1261.55
499.78	1230.83
499.98	1333.23
500.18	1279.98
500.38	1275.88
500.58	1273.84
500.78	1269.74
500.98	1302.51
501.18	1286.12
501.38	1185.77
501.58	1296.36
501.78	1261.55
501.98	1265.64
502.18	1230.83
502.38	1239.02
502.58	1277.93
502.78	1288.17
502.98	1228.78
503.18	1288.17
503.38	1243.12
503.59	1279.98
503.79	1296.36
503.99	1245.16
504.19	1259.50
504.39	1306.60
504.59	1275.88
504.79	1255.40
504.99	1271.79
505.19	1236.97
505.39	1290.22
505.59	1351.66
505.79	1290.22
505.99	1294.32
506.19	1261.55
506.39	1296.36
506.59	1302.51
506.79	1265.64
506.99	1202.16
507.19	1302.51
507.39	1296.36
507.59	1218.54
507.79	1273.84
507.99	1275.88
508.19	1249.26
508.39	1322.99
508.59	1265.64
508.79	1331.18
508.99	1298.41
509.19	1282.03
509.39	1261.55
509.59	1273.84
509.79	1269.74
509.99	1253.36
510.19	1271.79
510.39	1327.08
510.59	1333.23
510.79	1282.03
510.99	1286.12
511.19	1216.49
511.39	1308.65
511.59	1292.27
511.79	1310.70
511.99	1236.97
512.19	1257.45
512.38	1288.17
512.58	1306.60
512.78	1339.37
512.98	1249.26
513.18	1273.84
513.38	1263.60
513.58	1298.41
513.78	1269.74
513.98	1273.84
514.18	1255.40
514.38	1282.03
514.58	1318.89
514.78	1277.93
514.98	1214.45
515.18	1284.08
515.38	1275.88
515.58	1249.26
515.78	1306.60
515.98	1312.75
516.18	1220.59
516.38	1218.54
516.57	1316.84
516.77	1298.41
516.97	1314.80
517.17	1259.50
517.37	1279.98
517.57	1251.31
517.77	1277.93
517.97	1300.46
518.17	1226.73
518.37	1253.36
518.57	1228.78
518.77	1253.36
518.97	1292.27
519.16	1273.84
519.36	1331.18
519.56	1279.98
519.76	1257.45
519.96	1249.26
520.16	1259.50
520.36	1312.75
520.56	1325.04
520.76	1310.70
520.96	1314.80
521.16	1263.60
521.35	1296.36
521.55	1300.46
521.75	1232.88
521.95	1322.99
522.15	1187.82
522.35	1257.45
522.55	1224.69
522.75	1300.46
522.95	1290.22
523.14	1253.36
523.34	1265.64
523.54	1322.99
523.74	1218.54
523.94	1290.22
524.14	1284.08
524.34	1312.75
524.54	1316.84
524.73	1288.17
524.93	1236.97
525.13	1292.27
525.33	1282.03
525.53	1253.36
525.73	1253.36
525.93	1277.93
526.13	1296.36
526.32	1267.69
526.52	1310.70
526.72	1341.42
526.92	1341.42
527.12	1288.17
527.32	1351.66
527.52	1290.22
527.71	1304.56
527.91	1253.36
528.11	1245.16
528.31	1314.80
528.51	1374.19
528.71	1292.27
528.90	1245.16
529.10	1275.88
529.30	1251.31
529.50	1279.98
529.70	1239.02
529.90	1294.32
530.09	1290.22
530.29	1320.94
530.49	1292.27
530.69	1300.46
530.89	1310.70
531.09	1378.28
531.28	1314.80
531.48	1327.08
531.68	1261.55
531.88	1337.32
532.08	1226.73
532.28	1216.49
532.47	1234.93
532.67	1306.60
532.87	1255.40
533.07	1314.80
533.27	1314.80
533.46	1269.74
533.66	1273.84
533.86	1251.31
534.06	1228.78
534.26	1294.32
534.45	1257.45
534.65	1275.88
534.85	1255.40
535.05	1333.23
535.25	1232.88
535.44	1241.07
535.64	1368.04
535.84	1361.90
536.04	1304.56
536.24	1226.73
536.43	1277.93
536.63	1298.41
536.83	1296.36
537.03	1239.02
537.22	1322.99
537.42	1259.50
537.62	1304.56
537.82	1304.56
538.02	1243.12
538.21	1335.28
538.41	1247.21
538.61	1251.31
538.81	1247.21
539.00	1290.22
539.20	1294.32
539.40	1239.02
539.60	1335.28
539.79	1298.41
539.99	1366.00
540.19	1335.28
540.39	1282.03
540.58	1296.36
540.78	1263.60
540.98	1277.93
541.18	1273.84
541.37	1355.76
541.57	1218.54
541.77	1279.98
541.97	1322.99
542.16	1290.22
542.36	1239.02
542.56	1265.64
542.76	1290.22
542.95	1251.31
543.15	1325.04
543.35	1298.41
543.54	1312.75
543.74	1273.84
543.94	1304.56
544.14	1265.64
544.33	1308.65
544.53	1273.84
544.73	1236.97
544.93	1200.11
545.12	1294.32
545.32	1183.73
545.52	1322.99
545.71	1236.97
545.91	1282.03
546.11	1347.56
546.30	1296.36
546.50	1279.98
546.70	1232.88
546.90	1230.83
547.09	1251.31
547.29	1218.54
547.49	1267.69
547.68	1196.01
547.88	1292.27
548.08	1288.17
548.27	1359.85
548.47	1282.03
548.67	1331.18
548.87	1331.18
549.06	1284.08
549.26	1349.61
549.46	1279.98
549.65	1304.56
549.85	1306.60
550.05	1239.02
550.24	1327.08
550.44	1265.64
550.64	1341.42
550.83	1329.13
551.03	1253.36
551.23	1288.17
551.42	1337.32
551.62	1236.97
551.82	1306.60
552.01	1230.83
552.21	1308.65
552.41	1329.13
552.60	1224.69
552.80	1310.70
553.00	1275.88
553.19	1234.93
553.39	1269.74
553.59	1288.17
553.78	1261.55
553.98	1271.79
554.17	1351.66
554.37	1366.00
554.57	1234.93
554.76	1273.84
554.96	1302.51
555.16	1224.69
555.35	1193.97
555.55	1282.03
555.75	1265.64
555.94	1304.56
556.14	1325.04
556.33	1368.04
556.53	1279.98
556.73	1347.56
556.92	1226.73
557.12	1277.93
557.32	1247.21
557.51	1322.99
557.71	1296.36
557.90	1277.93
558.10	1302.51
558.30	1263.60
558.49	1243.12
558.69	1271.79
558.88	1312.75
559.08	1318.89
559.28	1302.51
559.47	1302.51
559.67	1273.84
559.86	1312.75
560.06	1263.60
560.26	1247.21
560.45	1306.60
560.65	1304.56
560.84	1269.74
561.04	1218.54
561.24	1255.40
561.43	1198.06
561.63	1331.18
561.82	1224.69
562.02	1306.60
562.22	1284.08
562.41	1366.00
562.61	1314.80
562.80	1290.22
563.00	1267.69
563.19	1234.93
563.39	1282.03
563.59	1255.40
563.78	1284.08
563.98	1232.88
564.17	1253.36
564.37	1261.55
564.56	1306.60
564.76	1267.69
564.96	1273.84
565.15	1312.75
565.35	1327.08
565.54	1214.45
565.74	1372.14
565.93	1208.30
566.13	1353.71
566.32	1230.83
566.52	1222.64
566.71	1339.37
566.91	1290.22
567.11	1273.84
567.30	1228.78
567.50	1232.88
567.69	1314.80
567.89	1265.64
568.08	1294.32
568.28	1200.11
568.47	1261.55
568.67	1302.51
568.86	1288.17
569.06	1239.02
569.25	1298.41
569.45	1310.70
569.64	1232.88
569.84	1306.60
570.04	1363.95
570.23	1216.49
570.43	1322.99
570.62	1302.51
570.82	1257.45
571.01	1253.36
571.21	1300.46
571.40	1241.07
571.60	1335.28
571.79	1277.93
571.99	1294.32
572.18	1279.98
572.38	1341.42
572.57	1337.32
572.77	1335.28
572.96	1347.56
573.16	1327.08
573.35	1157.10
573.55	1226.73
573.74	1322.99
573.94	1322.99
574.13	1288.17
574.33	1249.26
574.52	1249.26
574.71	1279.98
574.91	1243.12
575.10	1296.36
575.30	1286.12
575.49	1355.76
575.69	1279.98
575.88	1282.03
576.08	1296.36
576.27	1271.79
576.47	1220.59
576.66	1312.75
576.86	1286.12
577.05	1226.73
577.25	1284.08
577.44	1337.32
577.64	1257.45
577.83	1261.55
578.02	1249.26
578.22	1304.56
578.41	1304.56
578.61	1275.88
578.80	1239.02
579.00	1294.32
579.19	1322.99
579.39	1372.14
579.58	1271.79
579.77	1263.60
579.97	1282.03
580.16	1253.36
580.36	1390.57
580.55	1290.22
580.75	1228.78
580.94	1345.52
581.13	1288.17
581.33	1312.75
581.52	1216.49
581.72	1257.45
581.91	1220.59
582.11	1282.03
582.30	1366.00
582.49	1232.88
582.69	1349.61
582.88	1273.84
583.08	1271.79
583.27	1243.12
583.47	1257.45
583.66	1308.65
583.85	1243.12
584.05	1245.16
584.24	1288.17
584.44	1263.60
584.63	1275.88
584.82	1318.89
585.02	1310.70
585.21	1275.88
585.41	1298.41
585.60	1282.03
585.79	1265.64
585.99	1296.36
586.18	1163.25
586.37	1320.94
586.57	1212.40
586.76	1318.89
586.96	1290.22
587.15	1279.98
587.34	1257.45
587.54	1290.22
587.73	1325.04
587.93	1267.69
588.12	1331.18
588.31	1284.08
588.51	1316.84
588.70	1284.08
588.89	1245.16
589.09	1302.51
589.28	1284.08
589.47	1294.32
589.67	1310.70
589.86	1300.46
590.06	1333.23
590.25	1273.84
590.44	1322.99
590.64	1284.08
590.83	1279.98
591.02	1243.12
591.22	1310.70
591.41	1222.64
591.60	1247.21
591.80	1232.88
591.99	1253.36
592.18	1302.51
592.38	1230.83
592.57	1292.27
592.76	1273.84
592.96	1245.16
593.15	1322.99
593.34	1302.51
593.54	1273.84
593.73	1247.21
593.92	1327.08
594.12	1241.07
594.31	1347.56
594.50	1292.27
594.70	1212.40
594.89	1294.32
595.08	1282.03
595.28	1279.98
595.47	1269.74
595.66	1257.45
595.86	1269.74
596.05	1259.50
596.24	1288.17
596.43	1306.60
596.63	1200.11
596.82	1255.40
597.01	1282.03
597.21	1253.36
597.40	1275.88
597.59	1265.64
597.79	1308.65
597.98	1284.08
598.17	1292.27
598.36	1232.88
598.56	1263.60
598.75	1335.28
598.94	1312.75
599.14	1269.74
599.33	1316.84
599.52	1310.70
599.71	1294.32
599.91	1318.89
600.10	1331.18
600.29	1306.60
600.48	1165.29
600.68	1322.99
600.87	1249.26
601.06	1232.88
601.26	1275.88
601.45	1253.36
601.64	1335.28
601.83	1363.95
602.03	1224.69
602.22	1259.50
602.41	1245.16
602.60	1282.03
602.80	1298.41
602.99	1335.28
603.18	1277.93
603.37	1239.02
603.57	1279.98
603.76	1298.41
603.95	1257.45
604.14	1288.17
604.34	1288.17
604.53	1220.59
604.72	1284.08
604.91	1302.51
605.10	1239.02
605.30	1269.74
605.49	1222.64
605.68	1249.26
605.87	1273.84
606.07	1368.04
606.26	1275.88
606.45	1318.89
606.64	1296.36
606.84	1325.04
607.03	1261.55
607.22	1255.40
607.41	1277.93
607.60	1247.21
607.80	1370.09
607.99	1298.41
608.18	1339.37
608.37	1279.98
608.56	1212.40
608.76	1263.60
608.95	1382.38
609.14	1275.88
609.33	1257.45
609.52	1294.32
609.72	1269.74
609.91	1255.40
610.10	1277.93
610.29	1247.21
610.48	1337.32
610.68	1320.94
610.87	1243.12
611.06	1292.27
611.25	1288.17
611.44	1284.08
611.63	1325.04
611.83	1216.49
612.02	1318.89
612.21	1249.26
612.40	1269.74
612.59	1257.45
612.79	1202.16
612.98	1284.08
613.17	1294.32
613.36	1286.12
613.55	1290.22
613.74	1306.60
613.93	1290.22
614.13	1304.56
614.32	1318.89
614.51	1347.56
614.70	1253.36
614.89	1265.64
615.08	1177.58
615.28	1284.08
615.47	1196.01
615.66	1247.21
615.85	1318.89
616.04	1290.22
616.23	1359.85
616.42	1222.64
616.62	1294.32
616.81	1286.12
617.00	1300.46
617.19	1306.60
617.38	1273.84
617.57	1316.84
617.76	1277.93
617.95	1386.47
618.15	1267.69
618.34	1298.41
618.53	1267.69
618.72	1304.56
618.91	1224.69
619.10	1282.03
619.29	1298.41
619.48	1314.80
619.68	1286.12
619.87	1353.71
620.06	1316.84
620.25	1279.98
620.44	1269.74
620.63	1232.88
620.82	1284.08
621.01	1298.41
621.20	1402.86
621.39	1333.23
621.59	1261.55
621.78	1263.60
621.97	1263.60
622.16	1327.08
622.35	1257.45
622.54	1355.76
622.73	1298.41
622.92	1247.21
623.11	1282.03
623.30	1290.22
623.49	1318.89
623.68	1214.45
623.88	1306.60
624.07	1331.18
624.26	1298.41
624.45	1257.45
624.64	1341.42
624.83	1353.71
625.02	1245.16
625.21	1320.94
625.40	1335.28
625.59	1292.27
625.78	1282.03
625.97	1325.04
626.16	1241.07
626.35	1290.22
626.54	1294.32
626.74	1331.18
626.93	1302.51
627.12	1282.03
627.31	1312.75
627.50	1292.27
627.69	1337.32
627.88	1284.08
628.07	1308.65
628.26	1247.21
628.45	1290.22
628.64	1296.36
628.83	1298.41
629.02	1314.80
629.21	1335.28
629.40	1275.88
629.59	1282.03
629.78	1234.93
629.97	1259.50
630.16	1304.56
630.35	1269.74
630.54	1243.12
630.73	1316.84
630.92	1257.45
631.11	1245.16
631.30	1355.76
631.49	1322.99
631.68	1398.76
631.87	1574.89
632.06	1978.34
632.25	1599.46
632.44	1732.58
632.63	2056.16
632.82	2389.98
633.01	3067.86
633.20	3522.51
633.39	3483.59
633.58	2400.22
633.77	2234.33
633.96	2949.08
634.15	4257.73
634.34	4423.61
634.53	3639.24
634.72	2758.61
634.91	2201.57
635.10	1826.79
635.29	1621.99
635.48	1638.38
635.67	1552.36
635.86	1492.97
636.05	1419.24
636.24	1458.15
636.43	1308.65
636.62	1361.90
636.81	1374.19
637.00	1335.28
637.19	1296.36
637.38	1308.65
637.57	1277.93
637.76	1374.19
637.95	1374.19
638.14	1325.04
638.33	1345.52
638.52	1325.04
638.71	1331.18
638.89	1300.46
639.08	1331.18
639.27	1202.16
639.46	1316.84
639.65	1243.12
639.84	1298.41
640.03	1368.04
640.22	1300.46
640.41	1304.56
640.60	1243.12
640.79	1351.66
640.98	1290.22
641.17	1288.17
641.36	1378.28
641.55	1271.79
641.74	1271.79
641.92	1265.64
642.11	1267.69
642.30	1337.32
642.49	1325.04
642.68	1294.32
642.87	1296.36
643.06	1218.54
643.25	1374.19
643.44	1316.84
643.63	1294.32
643.82	1284.08
644.00	1251.31
644.19	1251.31
644.38	1245.16
644.57	1337.32
644.76	1341.42
644.95	1290.22
645.14	1298.41
645.33	1304.56
645.52	1284.08
645.71	1228.78
645.89	1206.25
646.08	1273.84
646.27	1288.17
646.46	1282.03
646.65	1314.80
646.84	1298.41
647.03	1236.97
647.22	1296.36
647.40	1261.55
647.59	1292.27
647.78	1304.56
647.97	1361.90
648.16	1220.59
648.35	1275.88
648.54	1275.88
648.73	1310.70
648.91	1349.61
649.10	1318.89
649.29	1290.22
649.48	1277.93
649.67	1286.12
649.86	1320.94
650.05	1275.88
650.23	1273.84
650.42	1282.03
650.61	1236.97
650.80	1212.40
650.99	1327.08
651.18	1220.59
651.36	1232.88
651.55	1245.16
651.74	1234.93
651.93	1302.51
652.12	1241.07
652.31	1329.13
652.49	1226.73
652.68	1257.45
652.87	1249.26
653.06	1329.13
653.25	1282.03
653.44	1279.98
653.62	1282.03
653.81	1341.42
654.00	1218.54
654.19	1243.12
654.38	1224.69
654.56	1263.60
654.75	1279.98
654.94	1286.12
655.13	1306.60
655.32	1296.36
655.51	1298.41
655.69	1302.51
655.88	1345.52
656.07	1316.84
656.26	1392.62
656.45	1257.45
656.63	1275.88
656.82	1212.40
657.01	1322.99
657.20	1232.88
657.38	1271.79
657.57	1265.64
657.76	1325.04
657.95	1292.27
658.14	1243.12
658.32	1261.55
658.51	1267.69
658.70	1220.59
658.89	1259.50
659.08	1304.56
659.26	1292.27
659.45	1232.88
659.64	1241.07
659.83	1214.45
660.01	1329.13
660.20	1257.45
660.39	1249.26
660.58	1290.22
660.76	1368.04
660.95	1247.21
661.14	1245.16
661.33	1329.13
661.51	1247.21
661.70	1288.17
661.89	1204.21
662.08	1234.93
662.26	1253.36
662.45	1224.69
662.64	1243.12
662.83	1230.83
663.01	1282.03
663.20	1316.84
663.39	1345.52
663.58	1271.79
663.76	1218.54
663.95	1322.99
664.14	1292.27
664.32	1306.60
664.51	1282.03
664.70	1292.27
664.89	1329.13
665.07	1382.38
665.26	1251.31
665.45	1282.03
665.64	1255.40
665.82	1255.40
666.01	1331.18
666.20	1245.16
666.38	1261.55
666.57	1222.64
666.76	1273.84
666.95	1327.08
667.13	1275.88
667.32	1200.11
667.51	1239.02
667.69	1253.36
667.88	1284.08
668.07	1232.88
668.25	1269.74
668.44	1239.02
668.63	1300.46
668.81	1243.12
669.00	1257.45
669.19	1267.69
669.38	1339.37
669.56	1329.13
669.75	1310.70
669.94	1314.80
670.12	1251.31
670.31	1255.40
670.50	1302.51
670.68	1241.07
670.87	1304.56
671.06	1226.73
671.24	1251.31
671.43	1279.98
671.62	1249.26
671.80	1351.66
671.99	1302.51
672.18	1234.93
672.36	1331.18
672.55	1249.26
672.74	1275.88
672.92	1290.22
673.11	1304.56
673.29	1353.71
673.48	1269.74
673.67	1269.74
673.85	1339.37
674.04	1279.98
674.23	1259.50
674.41	1212.40
674.60	1327.08
674.79	1243.12
674.97	1322.99
675.16	1277.93
675.34	1206.25
675.53	1236.97
675.72	1320.94
675.90	1284.08
676.09	1304.56
676.28	1292.27
676.46	1314.80
676.65	1284.08
676.83	1288.17
677.02	1265.64
677.21	1271.79
677.39	1308.65
677.58	1290.22
677.77	1288.17
677.95	1296.36
678.14	1290.22
678.32	1277.93
678.51	1210.35
678.70	1292.27
678.88	1290.22
679.07	1288.17
679.25	1279.98
679.44	1224.69
679.63	1294.32
679.81	1314.80
680.00	1243.12
680.18	1286.12
680.37	1296.36
680.55	1292.27
680.74	1279.98
680.93	1294.32
681.11	1329.13
681.30	1343.47
681.48	1251.31
681.67	1282.03
681.85	1234.93
682.04	1284.08
682.23	1304.56
682.41	1271.79
682.60	1259.50
682.78	1298.41
682.97	1212.40
683.15	1236.97
683.34	1292.27
683.53	1241.07
683.71	1292.27
683.90	1288.17
684.08	1218.54
684.27	1290.22
684.45	1263.60
684.64	1312.75
684.82	1249.26
685.01	1257.45
685.19	1271.79
685.38	1253.36
685.57	1253.36
685.75	1228.78
685.94	1243.12
686.12	1306.60
686.31	1243.12
686.49	1214.45
686.68	1306.60
686.86	1165.29
687.05	1247.21
687.23	1222.64
687.42	1208.30
687.60	1286.12
687.79	1273.84
687.97	1255.40
688.16	1214.45
688.34	1257.45
688.53	1183.73
688.71	1300.46
688.90	1249.26
689.08	1337.32
689.27	1279.98
689.45	1200.11
689.64	1214.45
689.82	1284.08
690.01	1302.51
690.19	1320.94
690.38	1331.18
690.56	1247.21
690.75	1318.89
690.93	1282.03
691.12	1257.45
691.30	1322.99
691.49	1304.56
691.67	1335.28
691.86	1222.64
692.04	1241.07
692.23	1265.64
692.41	1339.37
692.60	1331.18
692.78	1363.95
692.97	1269.74
693.15	1282.03
693.34	1316.84
693.52	1243.12
693.71	1300.46
693.89	1251.31
694.08	1208.30
694.26	1302.51
694.44	1253.36
694.63	1341.42
694.81	1220.59
695.00	1288.17
695.18	1310.70
695.37	1275.88
695.55	1308.65
695.74	1308.65
695.92	1224.69
696.10	1290.22
696.29	1220.59
696.47	1329.13
696.66	1228.78
696.84	1275.88
697.03	1343.47
697.21	1273.84
697.40	1298.41
697.58	1284.08
697.76	1241.07
697.95	1265.64
698.13	1224.69
698.32	1296.36
698.50	1241.07
698.68	1277.93
698.87	1226.73
699.05	1298.41
699.24	1277.93
699.42	1265.64
699.61	1310.70
699.79	1282.03
699.97	1206.25
700.16	1247.21
700.34	1216.49
700.53	1232.88
700.71	1347.56
700.89	1232.88
701.08	1286.12
701.26	1275.88
701.45	1232.88
701.63	1294.32
701.81	1345.52
702.00	1257.45
702.18	1255.40
702.37	1265.64
702.55	1253.36
702.73	1273.84
702.92	1298.41
703.10	1257.45
703.28	1273.84
703.47	1241.07
703.65	1257.45
703.84	1224.69
704.02	1265.64
704.20	1345.52
704.39	1284.08
704.57	1298.41
704.75	1341.42
704.94	1249.26
705.12	1224.69
705.30	1288.17
705.49	1224.69
705.67	1241.07
705.86	1263.60
706.04	1341.42
706.22	1284.08
706.41	1230.83
706.59	1245.16
706.77	1275.88
706.96	1241.07
707.14	1267.69
707.32	1236.97
707.51	1296.36
707.69	1331.18
707.87	1181.68
708.06	1204.21
708.24	1318.89
708.42	1292.27
708.61	1273.84
708.79	1279.98
708.97	1310.70
709.16	1308.65
709.34	1249.26
709.52	1265.64
709.71	1232.88
709.89	1241.07
710.07	1282.03
710.26	1261.55
710.44	1282.03
710.62	1286.12
710.80	1226.73
710.99	1222.64
711.17	1261.55
711.35	1277.93
711.54	1230.83
711.72	1255.40
711.90	1296.36
712.09	1312.75
712.27	1269.74
712.45	1298.41
712.63	1226.73
712.82	1257.45
713.00	1243.12
713.18	1273.84
713.37	1247.21
713.55	1255.40
713.73	1370.09
713.91	1230.83
714.10	1282.03
714.28	1216.49
714.46	1347.56
714.65	1286.12
714.83	1263.60
715.01	1263.60
715.19	1222.64
715.38	1239.02
715.56	1247.21
715.74	1243.12
715.92	1282.03
716.11	1292.27
716.29	1322.99
716.47	1269.74
716.65	1234.93
716.84	1206.25
717.02	1232.88
717.20	1239.02
717.38	1318.89
717.57	1322.99
717.75	1347.56
717.93	1275.88
718.11	1298.41
718.30	1275.88
718.48	1347.56
718.66	1234.93
718.84	1265.64
719.03	1263.60
719.21	1261.55
719.39	1249.26
719.57	1320.94
719.75	1277.93
719.94	1292.27
720.12	1245.16
720.30	1243.12
720.48	1282.03
720.67	1296.36
720.85	1310.70
721.03	1290.22
721.21	1288.17
721.39	1282.03
721.58	1282.03
721.76	1206.25
721.94	1331.18
722.12	1275.88
722.30	1290.22
722.49	1236.97
722.67	1236.97
722.85	1267.69
723.03	1218.54
723.21	1290.22
723.40	1284.08
723.58	1286.12
723.76	1230.83
723.94	1212.40
724.12	1279.98
724.30	1292.27
724.49	1286.12
724.67	1282.03
724.85	1271.79
725.03	1306.60
725.21	1310.70
725.40	1306.60
725.58	1224.69
725.76	1224.69
725.94	1288.17
726.12	1265.64
726.30	1273.84
726.49	1314.80
726.67	1239.02
726.85	1241.07
727.03	1245.16
727.21	1239.02
727.39	1167.34
727.57	1239.02
727.76	1224.69
727.94	1265.64
728.12	1290.22
728.30	1312.75
728.48	1271.79
728.66	1198.06
728.84	1249.26
729.03	1273.84
729.21	1294.32
729.39	1286.12
729.57	1265.64
729.75	1239.02
729.93	1257.45
730.11	1304.56
730.30	1296.36
730.48	1150.96
730.66	1243.12
730.84	1269.74
731.02	1232.88
731.20	1236.97
731.38	1306.60
731.56	1259.50
731.74	1310.70
731.93	1249.26
732.11	1269.74
732.29	1316.84
732.47	1200.11
732.65	1277.93
732.83	1339.37
733.01	1304.56
733.19	1232.88
733.37	1245.16
733.56	1290.22
733.74	1259.50
733.92	1212.40
734.10	1273.84
734.28	1187.82
734.46	1236.97
734.64	1290.22
734.82	1202.16
735.00	1243.12
735.18	1290.22
735.36	1322.99
735.54	1296.36
735.73	1378.28
735.91	1269.74
736.09	1247.21
736.27	1253.36
736.45	1239.02
736.63	1343.47
736.81	1273.84
736.99	1232.88
737.17	1298.41
737.35	1251.31
737.53	1245.16
737.71	1245.16
737.89	1294.32
738.07	1314.80
738.25	1216.49
738.43	1214.45
738.61	1218.54
738.80	1239.02
738.98	1294.32
739.16	1249.26
739.34	1290.22
739.52	1267.69
739.70	1232.88
739.88	1290.22
740.06	1273.84
740.24	1304.56
740.42	1335.28
740.60	1269.74
740.78	1253.36
740.96	1216.49
741.14	1210.35
741.32	1222.64
741.50	1202.16
741.68	1259.50
741.86	1267.69
742.04	1271.79
742.22	1247.21
742.40	1271.79
742.58	1296.36
742.76	1247.21
742.94	1216.49
743.12	1290.22
743.30	1255.40
743.48	1292.27
743.66	1292.27
743.84	1290.22
744.02	1216.49
744.20	1196.01
744.38	1261.55
744.56	1294.32
744.74	1333.23
744.92	1298.41
745.10	1230.83
745.28	1269.74
745.46	1249.26
745.64	1259.50
745.82	1241.07
746.00	1325.04
746.18	1253.36
746.36	1232.88
746.54	1222.64
746.72	1318.89
746.90	1234.93
747.08	1294.32
747.26	1216.49
747.44	1273.84
747.62	1300.46
747.80	1265.64
747.98	1226.73
748.15	1275.88
748.33	1255.40
748.51	1325.04
748.69	1310.70
748.87	1267.69
749.05	1257.45
749.23	1292.27
749.41	1259.50
749.59	1253.36
749.77	1230.83
749.95	1228.78
750.13	1269.74
750.31	1255.40
750.49	1204.21
750.67	1228.78
750.85	1263.60
751.03	1286.12
751.20	1290.22
751.38	1232.88
751.56	1257.45
751.74	1275.88
751.92	1239.02
752.10	1335.28
752.28	1241.07
752.46	1263.60
752.64	1165.29
752.82	1304.56
753.00	1251.31
753.18	1284.08
753.35	1255.40
753.53	1267.69
753.71	1251.31
753.89	1275.88
754.07	1290.22
754.25	1298.41
754.43	1247.21
754.61	1234.93
754.79	1234.93
754.97	1290.22
755.14	1247.21
755.32	1257.45
755.50	1234.93
755.68	1267.69
755.86	1236.97
756.04	1202.16
756.22	1265.64
756.40	1230.83
756.57	1243.12
756.75	1355.76
756.93	1273.84
757.11	1218.54
757.29	1290.22
757.47	1228.78
757.65	1312.75
757.82	1249.26
758.00	1218.54
758.18	1236.97
758.36	1241.07
758.54	1341.42
758.72	1259.50
758.90	1304.56
759.07	1271.79
759.25	1200.11
759.43	1298.41
759.61	1286.12
759.79	1273.84
759.97	1279.98
760.15	1216.49
760.32	1222.64
760.50	1241.07
760.68	1243.12
760.86	1226.73
761.04	1265.64
761.22	1288.17
761.39	1320.94
761.57	1290.22
761.75	1263.60
761.93	1267.69
762.11	1275.88
762.28	1310.70
762.46	1290.22
762.64	1337.32
762.82	1228.78
763.00	1187.82
763.18	1273.84
763.35	1230.83
763.53	1322.99
763.71	1265.64
763.89	1300.46
764.07	1255.40
764.24	1271.79
764.42	1292.27
764.60	1312.75
764.78	1216.49
764.96	1277.93
765.13	1257.45
765.31	1249.26
765.49	1263.60
765.67	1302.51
765.84	1255.40
766.02	1241.07
766.20	1251.31
766.38	1294.32
766.56	1310.70
766.73	1259.50
766.91	1298.41
767.09	1298.41
767.27	1220.59
767.44	1269.74
767.62	1224.69
767.80	1263.60
767.98	1273.84
768.15	1273.84
768.33	1239.02
768.51	1243.12
768.69	1234.93
768.87	1314.80
769.04	1265.64
769.22	1239.02
769.40	1236.97
769.58	1318.89
769.75	1273.84
769.93	1243.12
770.11	1251.31
770.28	1298.41
770.46	1204.21
770.64	1261.55
770.82	1339.37
770.99	1282.03
771.17	1204.21
771.35	1216.49
771.53	1234.93
771.70	1241.07
771.88	1239.02
772.06	1224.69
772.23	1251.31
772.41	1308.65
772.59	1310.70
772.77	1273.84
772.94	1310.70
773.12	1251.31
773.30	1290.22
773.47	1245.16
773.65	1279.98
773.83	1232.88
774.01	1288.17
774.18	1269.74
774.36	1253.36
774.54	1214.45
774.71	1292.27
774.89	1310.70
775.07	1316.84
775.24	1322.99
775.42	1261.55
775.60	1339.37
775.78	1275.88
775.95	1249.26
776.13	1331.18
776.31	1220.59
776.48	1279.98
776.66	1361.90
776.84	1232.88
777.01	1284.08
777.19	1267.69
777.37	1304.56
777.54	1288.17
777.72	1261.55
777.90	1232.88
778.07	1202.16
778.25	1236.97
778.43	1308.65
778.60	1187.82
778.78	1236.97
778.96	1325.04
779.13	1310.70
779.31	1320.94
779.49	1224.69
779.66	1239.02
779.84	1288.17
780.01	1271.79
780.19	1263.60
780.37	1290.22
780.54	1290.22
780.72	1200.11
780.90	1318.89
781.07	1253.36
781.25	1271.79
781.43	1355.76
781.60	1355.76
781.78	1230.83
781.95	1312.75
782.13	1302.51
782.31	1261.55
782.48	1249.26
782.66	1271.79
782.83	1279.98
783.01	1316.84
783.19	1294.32
783.36	1208.30
783.54	1290.22
783.72	1255.40
783.89	1308.65
784.07	1269.74
784.24	1310.70
784.42	1300.46
784.60	1189.87
784.77	1298.41
784.95	1212.40
785.12	1216.49
785.30	1232.88
785.47	1290.22
785.65	1271.79
785.83	1312.75
786.00	1214.45
786.18	1259.50
786.35	1210.35
786.53	1333.23
786.71	1298.41
786.88	1265.64
787.06	1243.12
787.23	1294.32
787.41	1212.40
787.58	1294.32
787.76	1294.32
787.94	1275.88
788.11	1343.47
788.29	1228.78
788.46	1314.80
788.64	1234.93
788.81	1249.26
788.99	1320.94
789.16	1279.98
789.34	1259.50
789.52	1308.65
789.69	1239.02
789.87	1267.69
790.04	1259.50
790.22	1251.31
790.39	1273.84
790.57	1216.49
790.74	1290.22
790.92	1288.17
791.09	1263.60
791.27	1308.65
791.44	1275.88
791.62	1275.88
791.79	1267.69
791.97	1263.60
792.15	1288.17
792.32	1300.46
792.50	1306.60
792.67	1257.45
792.85	1169.39
793.02	1286.12
793.20	1239.02
793.37	1249.26
793.55	1243.12
793.72	1245.16
793.90	1294.32
794.07	1216.49
794.25	1232.88
794.42	1273.84
794.60	1273.84
794.77	1269.74
794.95	1257.45
795.12	1282.03
795.30	1214.45
795.47	1230.83
795.65	1298.41
795.82	1271.79
796.00	1232.88
796.17	1284.08
796.34	1294.32
796.52	1159.15
796.69	1282.03
796.87	1322.99
797.04	1300.46
797.22	1230.83
797.39	1279.98
797.57	1290.22
797.74	1267.69
797.92	1253.36
798.09	1241.07
798.27	1335.28
798.44	1282.03
798.62	1265.64
798.79	1236.97
798.96	1267.69
799.14	1275.88
799.31	1265.64
799.49	1271.79
799.66	1277.93
799.84	1255.40
800.01	1271.79
800.19	1269.74
800.36	1259.50
800.53	1304.56
800.71	1277.93
800.88	1193.97
801.06	1298.41
801.23	1277.93
801.41	1218.54
801.58	1257.45
801.75	1275.88
801.93	1279.98
802.10	1322.99
802.28	1202.16
802.45	1230.83
802.63	1222.64
802.80	1228.78
802.97	1279.98
803.15	1232.88
803.32	1288.17
803.50	1224.69
803.67	1288.17
803.84	1316.84
804.02	1343.47
804.19	1245.16
804.37	1273.84
804.54	1290.22
804.71	1282.03
804.89	1290.22
805.06	1306.60
805.24	1218.54
805.41	1267.69
805.58	1212.40
805.76	1226.73
805.93	1249.26
806.10	1310.70
806.28	1265.64
806.45	1282.03
806.63	1216.49
806.80	1249.26
806.97	1288.17
807.15	1247.21
807.32	1249.26
807.49	1261.55
807.67	1294.32
807.84	1267.69
808.01	1290.22
808.19	1304.56
808.36	1257.45
808.54	1220.59
808.71	1245.16
808.88	1255.40
809.06	1265.64
809.23	1318.89
809.40	1245.16
809.58	1277.93
809.75	1267.69
809.92	1214.45
810.10	1318.89
810.27	1302.51
810.44	1198.06
810.62	1325.04
810.79	1236.97
810.96	1300.46
811.14	1173.49
811.31	1241.07
811.48	1253.36
811.66	1300.46
811.83	1249.26
812.00	1337.32
812.18	1243.12
812.35	1255.40
812.52	1292.27
812.69	1241.07
812.87	1224.69
813.04	1214.45
813.21	1271.79
813.39	1259.50
813.56	1312.75
813.73	1224.69
813.91	1277.93
814.08	1241.07
814.25	1318.89
814.42	1214.45
814.60	1241.07
814.77	1273.84
814.94	1357.80
815.12	1239.02
815.29	1273.84
815.46	1288.17
815.63	1253.36
815.81	1222.64
815.98	1212.40
816.15	1292.27
816.33	1253.36
816.50	1257.45
816.67	1316.84
816.84	1296.36
817.02	1308.65
817.19	1263.60
817.36	1279.98
817.53	1286.12
817.71	1310.70
817.88	1259.50
818.05	1271.79
818.22	1312.75
818.40	1191.92
818.57	1236.97
818.74	1265.64
818.91	1273.84
819.09	1243.12
819.26	1239.02
819.43	1253.36
819.60	1275.88
819.78	1263.60
819.95	1271.79
820.12	1275.88
820.29	1284.08
820.47	1259.50
820.64	1263.60
820.81	1294.32
820.98	1198.06
821.15	1333.23
821.33	1220.59
821.50	1245.16
821.67	1359.85
821.84	1263.60
822.02	1271.79
822.19	1265.64
822.36	1187.82
822.53	1247.21
822.70	1267.69
822.88	1269.74
823.05	1202.16
823.22	1249.26
823.39	1286.12
823.56	1204.21
823.74	1345.52
823.91	1257.45
824.08	1273.84
824.25	1251.31
824.42	1263.60
824.60	1212.40
824.77	1189.87
824.94	1277.93
825.11	1288.17
825.28	1267.69
825.45	1228.78
825.63	1300.46
825.80	1214.45
825.97	1224.69
826.14	1279.98
826.31	1239.02
826.48	1198.06
826.66	1241.07
826.83	1316.84
827.00	1261.55
827.17	1288.17
827.34	1228.78
827.51	1277.93
827.69	1267.69
827.86	1300.46
828.03	1277.93
828.20	1249.26
828.37	1263.60
828.54	1269.74
828.71	1191.92
828.89	1279.98
829.06	1288.17
829.23	1286.12
829.40	1249.26
829.57	1222.64
829.74	1245.16
829.91	1290.22
830.09	1288.17
830.26	1331.18
830.43	1279.98
830.60	1329.13
830.77	1163.25
830.94	1277.93
831.11	1302.51
831.28	1236.97
831.46	1236.97
831.63	1249.26
831.80	1294.32
831.97	1282.03
832.14	1232.88
832.31	1314.80
832.48	1239.02
832.65	1300.46
832.82	1265.64
832.99	1261.55
833.17	1277.93
833.34	1255.40
833.51	1245.16
833.68	1286.12
833.85	1277.93
834.02	1208.30
834.19	1189.87
834.36	1265.64
834.53	1271.79
834.70	1249.26
834.87	1228.78
835.04	1232.88
835.22	1269.74
835.39	1218.54
835.56	1257.45
835.73	1312.75
835.90	1196.01
836.07	1251.31
836.24	1269.74
836.41	1282.03
836.58	1228.78
836.75	1261.55
836.92	1339.37
837.09	1325.04
837.26	1302.51
837.43	1380.33
837.60	1212.40
837.77	1271.79
837.94	1318.89
838.12	1294.32
838.29	1277.93
838.46	1345.52
838.63	1249.26
838.80	1267.69
838.97	1226.73
839.14	1198.06
839.31	1273.84
839.48	1288.17
839.65	1284.08
839.82	1255.40
839.99	1267.69
840.16	1214.45
840.33	1298.41
840.50	1224.69
840.67	1232.88
840.84	1236.97
841.01	1337.32
841.18	1279.98
841.35	1302.51
841.52	1161.20
841.69	1296.36
841.86	1253.36
842.03	1331.18
842.20	1335.28
842.37	1318.89
842.54	1273.84
842.71	1300.46
842.88	1208.30
843.05	1210.35
843.22	1255.40
843.39	1277.93
843.56	1214.45
843.73	1239.02
843.90	1292.27
844.07	1312.75
844.24	1241.07
844.41	1257.45
844.58	1273.84
844.75	1267.69
844.92	1282.03
845.09	1261.55
845.26	1245.16
845.43	1243.12
845.60	1290.22
845.77	1282.03
845.94	1300.46
846.10	1300.46
846.27	1343.47
846.44	1230.83
846.61	1325.04
846.78	1288.17
846.95	1236.97
847.12	1282.03
847.29	1218.54
847.46	1286.12
847.63	1255.40
847.80	1306.60
847.97	1259.50
848.14	1241.07
848.31	1241.07
848.48	1329.13
848.65	1230.83
848.82	1271.79
848.98	1265.64
849.15	1259.50
849.32	1226.73
849.49	1351.66
849.66	1277.93
849.83	1353.71
850.00	1286.12
850.17	1292.27
850.34	1302.51
850.51	1302.51
850.68	1298.41
850.85	1279.98
851.01	1288.17
851.18	1224.69
851.35	1277.93
851.52	1279.98
851.69	1220.59
851.86	1204.21
852.03	1273.84
852.20	1316.84
852.37	1304.56
852.53	1208.30
852.70	1282.03
852.87	1210.35
853.04	1210.35
853.21	1245.16
853.38	1177.58
853.55	1255.40
853.72	1327.08
853.89	1187.82
854.05	1286.12
854.22	1261.55
854.39	1259.50
854.56	1314.80
854.73	1269.74
854.90	1296.36
855.07	1298.41
855.23	1294.32
855.40	1204.21
855.57	1230.83
855.74	1253.36
855.91	1247.21
856.08	1263.60
856.25	1257.45
856.41	1187.82
856.58	1267.69
856.75	1300.46
856.92	1204.21
857.09	1337.32
857.26	1206.25
857.42	1206.25
857.59	1239.02
857.76	1310.70
857.93	1249.26
858.10	1214.45
858.27	1294.32
858.43	1310.70
858.60	1251.31
858.77	1290.22
858.94	1245.16
859.11	1286.12
859.27	1236.97
859.44	1259.50
859.61	1261.55
859.78	1282.03
859.95	1300.46
860.12	1298.41
860.28	1322.99
860.45	1351.66
860.62	1204.21
860.79	1277.93
860.95	1277.93
861.12	1353.71
861.29	1322.99
861.46	1275.88
861.63	1261.55
861.79	1263.60
861.96	1273.84
862.13	1257.45
862.30	1257.45
862.47	1212.40
862.63	1312.75
862.80	1210.35
862.97	1259.50
863.14	1259.50
863.30	1279.98
863.47	1325.04
863.64	1232.88
863.81	1259.50
863.97	1263.60
864.14	1294.32
864.31	1372.14
864.48	1277.93
864.65	1220.59
864.81	1218.54
864.98	1298.41
865.15	1155.05
865.32	1298.41
865.48	1271.79
865.65	1275.88
865.82	1253.36
865.98	1355.76
866.15	1286.12
866.32	1273.84
866.49	1243.12
866.65	1200.11
866.82	1300.46
866.99	1261.55
867.16	1279.98
867.32	1288.17
867.49	1257.45
867.66	1259.50
867.83	1294.32
867.99	1224.69
868.16	1286.12
868.33	1341.42
868.49	1265.64
868.66	1296.36
868.83	1253.36
868.99	1316.84
869.16	1273.84
869.33	1249.26
869.50	1212.40
869.66	1327.08
869.83	1333.23
870.00	1279.98
870.16	1224.69
870.33	1294.32
870.50	1279.98
870.66	1222.64
870.83	1253.36
871.00	1265.64
871.17	1335.28
871.33	1273.84
871.50	1222.64
871.67	1245.16
871.83	1331.18
872.00	1277.93
872.17	1282.03
872.33	1267.69
872.50	1275.88
872.67	1216.49
872.83	1304.56
873.00	1284.08
873.17	1271.79
873.33	1290.22
873.50	1296.36
873.67	1273.84
873.83	1271.79
874.00	1228.78
874.16	1366.00
874.33	1366.00
874.50	1286.12
874.66	1216.49
874.83	1325.04
875.00	1296.36
875.16	1249.26
875.33	1255.40
875.50	1265.64
875.66	1312.75
875.83	1298.41
875.99	1269.74
876.16	1277.93
876.33	1243.12
876.49	1304.56
876.66	1253.36
876.83	1239.02
876.99	1185.77
877.16	1302.51
877.32	1230.83
877.49	1308.65
877.66	1290.22
877.82	1251.31
877.99	1304.56
878.15	1257.45
878.32	1310.70
878.49	1251.31
878.65	1300.46
878.82	1271.79
878.98	1253.36
879.15	1290.22
879.32	1333.23
879.48	1257.45
879.65	1282.03
879.81	1302.51
879.98	1314.80
880.15	1316.84
880.31	1210.35
880.48	1204.21
880.64	1251.31
880.81	1376.24
880.97	1247.21
881.14	1279.98
881.31	1306.60
881.47	1304.56
881.64	1304.56
881.80	1255.40
881.97	1193.97
882.13	1306.60
882.30	1257.45
882.47	1232.88
882.63	1241.07
882.80	1288.17
882.96	1298.41
883.13	1312.75
883.29	1306.60
883.46	1314.80
883.62	1216.49
883.79	1175.53
883.95	1200.11
884.12	1273.84
884.29	1300.46
884.45	1310.70
884.62	1251.31
884.78	1228.78
884.95	1292.27
885.11	1306.60
885.28	1300.46
885.44	1345.52
885.61	1247.21
885.77	1181.68
885.94	1294.32
886.10	1202.16
886.27	1296.36
886.43	1294.32
886.60	1284.08
886.76	1243.12
886.93	1310.70
887.09	1339.37
887.26	1251.31
887.42	1265.64
887.59	1216.49
887.75	1298.41
887.92	1216.49
888.08	1239.02
888.25	1230.83
888.41	1241.07
888.58	1284.08
888.74	1331.18
888.91	1187.82
>>>>>End Processed Spectral Data<<<<<
