SpectraSuite Data File
++++++++++++++++++++++++++++++++++++
Date: Sun Apr 03 19:55:38 CEST 2016
User: root
Dark Spectrum Present: No
Reference Spectrum Present: No
Number of Sampled Component Spectra: 1
Spectrometers: USB4C02835
Integration Time (usec): 10000 (USB4C02835)
Spectra Averaged: 1 (USB4C02835)
Boxcar Smoothing: 0 (USB4C02835)
Correct for Electrical Dark: No (USB4C02835)
Strobe/Lamp Enabled: No (USB4C02835)
Correct for Detector Non-linearity: No (USB4C02835)
Correct for Stray Light: No (USB4C02835)
Number of Pixels in Processed Spectrum: 3648
>>>>>Begin Processed Spectral Data<<<<<
177.47	1208.30
177.69	1208.30
177.91	1208.30
178.13	1294.32
178.36	1308.65
178.58	1316.84
178.80	1241.07
179.02	1277.93
179.24	1241.07
179.46	1304.56
179.68	1202.16
179.90	1304.56
180.13	1277.93
180.35	1318.89
180.57	1347.56
180.79	1302.51
181.01	1267.69
181.23	1304.56
181.45	1255.40
181.67	1255.40
181.90	1239.02
182.12	1232.88
182.34	1259.50
182.56	1286.12
182.78	1331.18
183.00	1257.45
183.22	1259.50
183.44	1290.22
183.66	1234.93
183.89	1273.84
184.11	1247.21
184.33	1312.75
184.55	1232.88
184.77	1212.40
184.99	1279.98
185.21	1216.49
185.43	1253.36
185.65	1277.93
185.87	1282.03
186.10	1275.88
186.32	1273.84
186.54	1243.12
186.76	1245.16
186.98	1279.98
187.20	1322.99
187.42	1296.36
187.64	1331.18
187.86	1171.44
188.08	1302.51
188.30	1251.31
188.52	1230.83
188.75	1282.03
188.97	1257.45
189.19	1196.01
189.41	1239.02
189.63	1282.03
189.85	1284.08
190.07	1275.88
190.29	1306.60
190.51	1259.50
190.73	1320.94
190.95	1267.69
191.17	1277.93
191.39	1200.11
191.61	1275.88
191.84	1251.31
192.06	1304.56
192.28	1253.36
192.50	1300.46
192.72	1232.88
192.94	1255.40
193.16	1302.51
193.38	1263.60
193.60	1247.21
193.82	1308.65
194.04	1292.27
194.26	1257.45
194.48	1251.31
194.70	1259.50
194.92	1249.26
195.14	1157.10
195.36	1310.70
195.58	1269.74
195.80	1206.25
196.02	1275.88
196.24	1265.64
196.46	1204.21
196.69	1337.32
196.91	1267.69
197.13	1329.13
197.35	1269.74
197.57	1273.84
197.79	1251.31
198.01	1224.69
198.23	1273.84
198.45	1232.88
198.67	1204.21
198.89	1245.16
199.11	1257.45
199.33	1275.88
199.55	1298.41
199.77	1290.22
199.99	1257.45
200.21	1282.03
200.43	1230.83
200.65	1243.12
200.87	1212.40
201.09	1220.59
201.31	1279.98
201.53	1296.36
201.75	1230.83
201.97	1232.88
202.19	1263.60
202.41	1284.08
202.63	1294.32
202.85	1236.97
203.07	1255.40
203.29	1359.85
203.51	1279.98
203.73	1318.89
203.95	1296.36
204.17	1269.74
204.39	1234.93
204.61	1265.64
204.83	1271.79
205.05	1306.60
205.27	1259.50
205.49	1253.36
205.71	1271.79
205.93	1337.32
206.15	1310.70
206.37	1216.49
206.59	1226.73
206.81	1241.07
207.03	1255.40
207.25	1239.02
207.47	1286.12
207.69	1271.79
207.91	1279.98
208.13	1279.98
208.34	1239.02
208.56	1277.93
208.78	1257.45
209.00	1288.17
209.22	1243.12
209.44	1253.36
209.66	1290.22
209.88	1279.98
210.10	1255.40
210.32	1298.41
210.54	1310.70
210.76	1198.06
210.98	1232.88
211.20	1361.90
211.42	1243.12
211.64	1308.65
211.86	1282.03
212.08	1216.49
212.30	1249.26
212.52	1245.16
212.74	1179.63
212.96	1230.83
213.17	1284.08
213.39	1277.93
213.61	1343.47
213.83	1333.23
214.05	1314.80
214.27	1245.16
214.49	1187.82
214.71	1265.64
214.93	1232.88
215.15	1255.40
215.37	1282.03
215.59	1271.79
215.81	1277.93
216.03	1296.36
216.24	1275.88
216.46	1249.26
216.68	1339.37
216.90	1300.46
217.12	1222.64
217.34	1316.84
217.56	1224.69
217.78	1349.61
218.00	1327.08
218.22	1228.78
218.44	1245.16
218.66	1226.73
218.87	1271.79
219.09	1306.60
219.31	1294.32
219.53	1304.56
219.75	1284.08
219.97	1302.51
220.19	1298.41
220.41	1294.32
220.63	1275.88
220.85	1271.79
221.06	1294.32
221.28	1183.73
221.50	1296.36
221.72	1277.93
221.94	1277.93
222.16	1222.64
222.38	1236.97
222.60	1218.54
222.82	1292.27
223.03	1327.08
223.25	1339.37
223.47	1279.98
223.69	1263.60
223.91	1284.08
224.13	1251.31
224.35	1279.98
224.57	1296.36
224.78	1279.98
225.00	1239.02
225.22	1265.64
225.44	1269.74
225.66	1325.04
225.88	1279.98
226.10	1275.88
226.32	1273.84
226.53	1277.93
226.75	1204.21
226.97	1253.36
227.19	1259.50
227.41	1234.93
227.63	1288.17
227.85	1267.69
228.06	1251.31
228.28	1218.54
228.50	1347.56
228.72	1255.40
228.94	1310.70
229.16	1230.83
229.37	1290.22
229.59	1318.89
229.81	1267.69
230.03	1193.97
230.25	1273.84
230.47	1230.83
230.69	1202.16
230.90	1286.12
231.12	1366.00
231.34	1257.45
231.56	1216.49
231.78	1234.93
232.00	1202.16
232.21	1243.12
232.43	1257.45
232.65	1286.12
232.87	1357.80
233.09	1214.45
233.30	1351.66
233.52	1232.88
233.74	1329.13
233.96	1210.35
234.18	1261.55
234.40	1239.02
234.61	1318.89
234.83	1181.68
235.05	1220.59
235.27	1286.12
235.49	1251.31
235.70	1191.92
235.92	1282.03
236.14	1224.69
236.36	1290.22
236.58	1206.25
236.79	1275.88
237.01	1290.22
237.23	1277.93
237.45	1286.12
237.67	1236.97
237.88	1325.04
238.10	1249.26
238.32	1273.84
238.54	1335.28
238.76	1249.26
238.97	1308.65
239.19	1306.60
239.41	1265.64
239.63	1284.08
239.85	1300.46
240.06	1208.30
240.28	1320.94
240.50	1310.70
240.72	1271.79
240.93	1251.31
241.15	1269.74
241.37	1261.55
241.59	1300.46
241.81	1243.12
242.02	1312.75
242.24	1220.59
242.46	1202.16
242.68	1304.56
242.89	1226.73
243.11	1275.88
243.33	1306.60
243.55	1335.28
243.76	1241.07
243.98	1279.98
244.20	1300.46
244.42	1247.21
244.64	1320.94
244.85	1261.55
245.07	1290.22
245.29	1247.21
245.51	1306.60
245.72	1265.64
245.94	1218.54
246.16	1361.90
246.38	1331.18
246.59	1255.40
246.81	1261.55
247.03	1275.88
247.24	1282.03
247.46	1273.84
247.68	1261.55
247.90	1265.64
248.11	1208.30
248.33	1259.50
248.55	1357.80
248.77	1247.21
248.98	1343.47
249.20	1234.93
249.42	1298.41
249.64	1255.40
249.85	1259.50
250.07	1245.16
250.29	1292.27
250.50	1196.01
250.72	1222.64
250.94	1222.64
251.16	1265.64
251.37	1294.32
251.59	1294.32
251.81	1275.88
252.02	1218.54
252.24	1224.69
252.46	1376.24
252.68	1327.08
252.89	1241.07
253.11	1247.21
253.33	1249.26
253.54	1284.08
253.76	1296.36
253.98	1222.64
254.20	1298.41
254.41	1249.26
254.63	1300.46
254.85	1210.35
255.06	1339.37
255.28	1236.97
255.50	1271.79
255.71	1277.93
255.93	1286.12
256.15	1275.88
256.36	1314.80
256.58	1273.84
256.80	1314.80
257.02	1294.32
257.23	1224.69
257.45	1249.26
257.67	1284.08
257.88	1325.04
258.10	1327.08
258.32	1226.73
258.53	1325.04
258.75	1222.64
258.97	1234.93
259.18	1306.60
259.40	1314.80
259.62	1257.45
259.83	1251.31
260.05	1269.74
260.27	1343.47
260.48	1335.28
260.70	1314.80
260.92	1273.84
261.13	1322.99
261.35	1220.59
261.57	1357.80
261.78	1230.83
262.00	1273.84
262.22	1322.99
262.43	1273.84
262.65	1284.08
262.86	1257.45
263.08	1230.83
263.30	1284.08
263.51	1263.60
263.73	1290.22
263.95	1288.17
264.16	1208.30
264.38	1300.46
264.60	1220.59
264.81	1222.64
265.03	1257.45
265.25	1191.92
265.46	1251.31
265.68	1304.56
265.89	1232.88
266.11	1306.60
266.33	1341.42
266.54	1247.21
266.76	1329.13
266.98	1269.74
267.19	1316.84
267.41	1372.14
267.62	1306.60
267.84	1185.77
268.06	1263.60
268.27	1204.21
268.49	1253.36
268.70	1304.56
268.92	1234.93
269.14	1253.36
269.35	1302.51
269.57	1241.07
269.79	1329.13
270.00	1298.41
270.22	1322.99
270.43	1300.46
270.65	1208.30
270.87	1273.84
271.08	1286.12
271.30	1228.78
271.51	1290.22
271.73	1249.26
271.95	1325.04
272.16	1277.93
272.38	1337.32
272.59	1183.73
272.81	1335.28
273.02	1277.93
273.24	1247.21
273.46	1263.60
273.67	1245.16
273.89	1185.77
274.10	1355.76
274.32	1259.50
274.54	1322.99
274.75	1329.13
274.97	1263.60
275.18	1220.59
275.40	1212.40
275.61	1241.07
275.83	1269.74
276.05	1218.54
276.26	1302.51
276.48	1314.80
276.69	1259.50
276.91	1290.22
277.12	1261.55
277.34	1259.50
277.55	1300.46
277.77	1232.88
277.99	1277.93
278.20	1259.50
278.42	1296.36
278.63	1318.89
278.85	1296.36
279.06	1322.99
279.28	1263.60
279.49	1212.40
279.71	1292.27
279.93	1298.41
280.14	1243.12
280.36	1243.12
280.57	1331.18
280.79	1253.36
281.00	1236.97
281.22	1243.12
281.43	1253.36
281.65	1316.84
281.86	1214.45
282.08	1255.40
282.29	1255.40
282.51	1339.37
282.73	1247.21
282.94	1259.50
283.16	1212.40
283.37	1243.12
283.59	1249.26
283.80	1308.65
284.02	1269.74
284.23	1263.60
284.45	1134.57
284.66	1267.69
284.88	1290.22
285.09	1210.35
285.31	1325.04
285.52	1279.98
285.74	1173.49
285.95	1253.36
286.17	1304.56
286.38	1245.16
286.60	1286.12
286.81	1263.60
287.03	1230.83
287.24	1214.45
287.46	1282.03
287.67	1294.32
287.89	1253.36
288.10	1261.55
288.32	1241.07
288.53	1249.26
288.75	1257.45
288.96	1357.80
289.18	1273.84
289.39	1230.83
289.61	1249.26
289.82	1259.50
290.04	1234.93
290.25	1286.12
290.47	1306.60
290.68	1251.31
290.90	1212.40
291.11	1257.45
291.33	1312.75
291.54	1253.36
291.76	1224.69
291.97	1277.93
292.18	1210.35
292.40	1290.22
292.61	1228.78
292.83	1277.93
293.04	1245.16
293.26	1265.64
293.47	1312.75
293.69	1284.08
293.90	1294.32
294.12	1382.38
294.33	1314.80
294.55	1222.64
294.76	1288.17
294.97	1300.46
295.19	1282.03
295.40	1261.55
295.62	1298.41
295.83	1271.79
296.05	1302.51
296.26	1269.74
296.48	1294.32
296.69	1265.64
296.90	1249.26
297.12	1275.88
297.33	1292.27
297.55	1216.49
297.76	1228.78
297.98	1220.59
298.19	1263.60
298.41	1220.59
298.62	1308.65
298.83	1306.60
299.05	1263.60
299.26	1304.56
299.48	1253.36
299.69	1257.45
299.90	1286.12
300.12	1251.31
300.33	1273.84
300.55	1241.07
300.76	1214.45
300.98	1216.49
301.19	1298.41
301.40	1335.28
301.62	1218.54
301.83	1239.02
302.05	1265.64
302.26	1271.79
302.47	1265.64
302.69	1282.03
302.90	1263.60
303.12	1337.32
303.33	1284.08
303.54	1302.51
303.76	1249.26
303.97	1265.64
304.19	1247.21
304.40	1251.31
304.61	1310.70
304.83	1314.80
305.04	1290.22
305.26	1286.12
305.47	1288.17
305.68	1320.94
305.90	1257.45
306.11	1236.97
306.33	1284.08
306.54	1308.65
306.75	1263.60
306.97	1265.64
307.18	1263.60
307.39	1269.74
307.61	1224.69
307.82	1228.78
308.04	1273.84
308.25	1255.40
308.46	1308.65
308.68	1226.73
308.89	1255.40
309.10	1239.02
309.32	1275.88
309.53	1263.60
309.74	1273.84
309.96	1210.35
310.17	1155.05
310.39	1247.21
310.60	1249.26
310.81	1255.40
311.03	1271.79
311.24	1253.36
311.45	1271.79
311.67	1286.12
311.88	1298.41
312.09	1288.17
312.31	1222.64
312.52	1304.56
312.73	1232.88
312.95	1212.40
313.16	1271.79
313.37	1210.35
313.59	1253.36
313.80	1275.88
314.01	1312.75
314.23	1310.70
314.44	1341.42
314.65	1245.16
314.87	1208.30
315.08	1316.84
315.29	1286.12
315.51	1343.47
315.72	1253.36
315.93	1265.64
316.15	1298.41
316.36	1290.22
316.57	1196.01
316.79	1267.69
317.00	1251.31
317.21	1216.49
317.43	1259.50
317.64	1269.74
317.85	1282.03
318.07	1275.88
318.28	1277.93
318.49	1325.04
318.70	1220.59
318.92	1277.93
319.13	1236.97
319.34	1243.12
319.56	1308.65
319.77	1337.32
319.98	1349.61
320.20	1310.70
320.41	1232.88
320.62	1241.07
320.83	1226.73
321.05	1300.46
321.26	1259.50
321.47	1298.41
321.69	1273.84
321.90	1255.40
322.11	1243.12
322.32	1284.08
322.54	1296.36
322.75	1308.65
322.96	1253.36
323.18	1249.26
323.39	1294.32
323.60	1224.69
323.81	1269.74
324.03	1279.98
324.24	1218.54
324.45	1263.60
324.66	1214.45
324.88	1204.21
325.09	1216.49
325.30	1253.36
325.52	1273.84
325.73	1261.55
325.94	1222.64
326.15	1259.50
326.37	1247.21
326.58	1298.41
326.79	1267.69
327.00	1288.17
327.22	1259.50
327.43	1292.27
327.64	1314.80
327.85	1247.21
328.07	1345.52
328.28	1310.70
328.49	1232.88
328.70	1236.97
328.92	1314.80
329.13	1329.13
329.34	1222.64
329.55	1343.47
329.76	1337.32
329.98	1226.73
330.19	1232.88
330.40	1230.83
330.61	1294.32
330.83	1290.22
331.04	1273.84
331.25	1277.93
331.46	1243.12
331.68	1210.35
331.89	1224.69
332.10	1241.07
332.31	1286.12
332.52	1247.21
332.74	1282.03
332.95	1198.06
333.16	1210.35
333.37	1314.80
333.58	1232.88
333.80	1314.80
334.01	1247.21
334.22	1239.02
334.43	1273.84
334.64	1296.36
334.86	1232.88
335.07	1261.55
335.28	1298.41
335.49	1249.26
335.70	1298.41
335.92	1218.54
336.13	1257.45
336.34	1286.12
336.55	1218.54
336.76	1314.80
336.98	1333.23
337.19	1294.32
337.40	1232.88
337.61	1259.50
337.82	1310.70
338.04	1310.70
338.25	1277.93
338.46	1288.17
338.67	1230.83
338.88	1314.80
339.09	1255.40
339.31	1204.21
339.52	1259.50
339.73	1236.97
339.94	1282.03
340.15	1294.32
340.36	1210.35
340.58	1269.74
340.79	1271.79
341.00	1187.82
341.21	1259.50
341.42	1236.97
341.63	1294.32
341.85	1236.97
342.06	1265.64
342.27	1267.69
342.48	1277.93
342.69	1214.45
342.90	1255.40
343.12	1290.22
343.33	1234.93
343.54	1294.32
343.75	1249.26
343.96	1261.55
344.17	1259.50
344.38	1322.99
344.60	1212.40
344.81	1282.03
345.02	1269.74
345.23	1282.03
345.44	1277.93
345.65	1239.02
345.86	1269.74
346.07	1300.46
346.29	1277.93
346.50	1263.60
346.71	1196.01
346.92	1322.99
347.13	1300.46
347.34	1202.16
347.55	1239.02
347.76	1310.70
347.98	1290.22
348.19	1267.69
348.40	1261.55
348.61	1196.01
348.82	1298.41
349.03	1267.69
349.24	1298.41
349.45	1232.88
349.66	1282.03
349.88	1218.54
350.09	1243.12
350.30	1325.04
350.51	1249.26
350.72	1267.69
350.93	1228.78
351.14	1212.40
351.35	1255.40
351.56	1187.82
351.77	1263.60
351.99	1257.45
352.20	1333.23
352.41	1253.36
352.62	1310.70
352.83	1349.61
353.04	1249.26
353.25	1302.51
353.46	1273.84
353.67	1210.35
353.88	1243.12
354.09	1267.69
354.30	1284.08
354.52	1202.16
354.73	1263.60
354.94	1284.08
355.15	1269.74
355.36	1255.40
355.57	1284.08
355.78	1275.88
355.99	1282.03
356.20	1249.26
356.41	1314.80
356.62	1210.35
356.83	1245.16
357.04	1271.79
357.25	1279.98
357.46	1167.34
357.68	1261.55
357.89	1247.21
358.10	1193.97
358.31	1187.82
358.52	1302.51
358.73	1277.93
358.94	1265.64
359.15	1304.56
359.36	1263.60
359.57	1224.69
359.78	1310.70
359.99	1290.22
360.20	1216.49
360.41	1279.98
360.62	1296.36
360.83	1318.89
361.04	1316.84
361.25	1269.74
361.46	1284.08
361.67	1210.35
361.88	1243.12
362.09	1288.17
362.30	1271.79
362.51	1318.89
362.72	1245.16
362.93	1239.02
363.14	1245.16
363.35	1284.08
363.56	1261.55
363.78	1279.98
363.99	1239.02
364.20	1243.12
364.41	1222.64
364.62	1241.07
364.83	1288.17
365.04	1239.02
365.25	1241.07
365.46	1255.40
365.67	1236.97
365.88	1314.80
366.09	1327.08
366.30	1279.98
366.51	1279.98
366.72	1232.88
366.93	1304.56
367.14	1247.21
367.35	1325.04
367.56	1236.97
367.77	1341.42
367.98	1247.21
368.18	1214.45
368.39	1275.88
368.60	1220.59
368.81	1316.84
369.02	1279.98
369.23	1251.31
369.44	1275.88
369.65	1320.94
369.86	1228.78
370.07	1239.02
370.28	1273.84
370.49	1204.21
370.70	1312.75
370.91	1245.16
371.12	1282.03
371.33	1236.97
371.54	1277.93
371.75	1263.60
371.96	1277.93
372.17	1247.21
372.38	1267.69
372.59	1239.02
372.80	1263.60
373.01	1279.98
373.22	1222.64
373.43	1290.22
373.64	1255.40
373.85	1212.40
374.06	1273.84
374.26	1277.93
374.47	1277.93
374.68	1241.07
374.89	1249.26
375.10	1234.93
375.31	1310.70
375.52	1271.79
375.73	1259.50
375.94	1263.60
376.15	1193.97
376.36	1335.28
376.57	1165.29
376.78	1261.55
376.99	1277.93
377.20	1269.74
377.40	1269.74
377.61	1308.65
377.82	1290.22
378.03	1226.73
378.24	1298.41
378.45	1290.22
378.66	1271.79
378.87	1290.22
379.08	1224.69
379.29	1269.74
379.50	1265.64
379.71	1275.88
379.91	1316.84
380.12	1316.84
380.33	1269.74
380.54	1247.21
380.75	1279.98
380.96	1269.74
381.17	1290.22
381.38	1302.51
381.59	1239.02
381.80	1277.93
382.00	1279.98
382.21	1271.79
382.42	1257.45
382.63	1259.50
382.84	1312.75
383.05	1316.84
383.26	1343.47
383.47	1218.54
383.68	1257.45
383.88	1277.93
384.09	1259.50
384.30	1251.31
384.51	1263.60
384.72	1273.84
384.93	1257.45
385.14	1277.93
385.35	1251.31
385.55	1196.01
385.76	1251.31
385.97	1247.21
386.18	1269.74
386.39	1224.69
386.60	1273.84
386.81	1359.85
387.02	1269.74
387.22	1263.60
387.43	1226.73
387.64	1263.60
387.85	1263.60
388.06	1282.03
388.27	1255.40
388.48	1339.37
388.68	1312.75
388.89	1226.73
389.10	1316.84
389.31	1222.64
389.52	1337.32
389.73	1279.98
389.93	1290.22
390.14	1288.17
390.35	1298.41
390.56	1208.30
390.77	1286.12
390.98	1228.78
391.18	1327.08
391.39	1226.73
391.60	1282.03
391.81	1193.97
392.02	1282.03
392.23	1310.70
392.43	1298.41
392.64	1290.22
392.85	1363.95
393.06	1296.36
393.27	1277.93
393.47	1265.64
393.68	1273.84
393.89	1308.65
394.10	1292.27
394.31	1312.75
394.52	1320.94
394.72	1316.84
394.93	1261.55
395.14	1265.64
395.35	1337.32
395.56	1220.59
395.76	1263.60
395.97	1329.13
396.18	1208.30
396.39	1247.21
396.60	1259.50
396.80	1183.73
397.01	1320.94
397.22	1263.60
397.43	1290.22
397.64	1282.03
397.84	1214.45
398.05	1236.97
398.26	1286.12
398.47	1220.59
398.67	1322.99
398.88	1202.16
399.09	1288.17
399.30	1335.28
399.51	1255.40
399.71	1249.26
399.92	1294.32
400.13	1318.89
400.34	1271.79
400.54	1189.87
400.75	1269.74
400.96	1210.35
401.17	1296.36
401.37	1265.64
401.58	1290.22
401.79	1271.79
402.00	1292.27
402.21	1290.22
402.41	1273.84
402.62	1236.97
402.83	1284.08
403.04	1257.45
403.24	1282.03
403.45	1308.65
403.66	1275.88
403.87	1302.51
404.07	1241.07
404.28	1206.25
404.49	1292.27
404.70	1306.60
404.90	1374.19
405.11	1294.32
405.32	1259.50
405.52	1267.69
405.73	1257.45
405.94	1300.46
406.15	1284.08
406.35	1271.79
406.56	1259.50
406.77	1208.30
406.98	1239.02
407.18	1302.51
407.39	1294.32
407.60	1216.49
407.80	1259.50
408.01	1318.89
408.22	1239.02
408.43	1193.97
408.63	1196.01
408.84	1267.69
409.05	1282.03
409.25	1204.21
409.46	1277.93
409.67	1228.78
409.88	1187.82
410.08	1218.54
410.29	1320.94
410.50	1302.51
410.70	1290.22
410.91	1318.89
411.12	1331.18
411.32	1279.98
411.53	1265.64
411.74	1335.28
411.95	1327.08
412.15	1298.41
412.36	1335.28
412.57	1210.35
412.77	1312.75
412.98	1275.88
413.19	1202.16
413.39	1210.35
413.60	1304.56
413.81	1255.40
414.01	1255.40
414.22	1273.84
414.43	1271.79
414.63	1189.87
414.84	1288.17
415.05	1298.41
415.25	1286.12
415.46	1232.88
415.67	1193.97
415.87	1257.45
416.08	1331.18
416.29	1185.77
416.49	1216.49
416.70	1239.02
416.91	1269.74
417.11	1247.21
417.32	1298.41
417.53	1206.25
417.73	1288.17
417.94	1347.56
418.15	1169.39
418.35	1257.45
418.56	1329.13
418.77	1241.07
418.97	1253.36
419.18	1368.04
419.38	1288.17
419.59	1282.03
419.80	1249.26
420.00	1271.79
420.21	1300.46
420.42	1277.93
420.62	1273.84
420.83	1277.93
421.04	1298.41
421.24	1218.54
421.45	1255.40
421.65	1263.60
421.86	1234.93
422.07	1316.84
422.27	1228.78
422.48	1263.60
422.69	1347.56
422.89	1271.79
423.10	1226.73
423.30	1247.21
423.51	1275.88
423.72	1265.64
423.92	1288.17
424.13	1279.98
424.33	1259.50
424.54	1198.06
424.75	1232.88
424.95	1320.94
425.16	1220.59
425.36	1318.89
425.57	1271.79
425.78	1251.31
425.98	1263.60
426.19	1228.78
426.39	1218.54
426.60	1269.74
426.81	1216.49
427.01	1226.73
427.22	1265.64
427.42	1273.84
427.63	1245.16
427.83	1224.69
428.04	1310.70
428.25	1224.69
428.45	1288.17
428.66	1300.46
428.86	1277.93
429.07	1284.08
429.28	1306.60
429.48	1255.40
429.69	1222.64
429.89	1325.04
430.10	1253.36
430.30	1193.97
430.51	1277.93
430.71	1265.64
430.92	1376.24
431.13	1265.64
431.33	1273.84
431.54	1243.12
431.74	1275.88
431.95	1310.70
432.15	1251.31
432.36	1228.78
432.56	1292.27
432.77	1308.65
432.98	1245.16
433.18	1288.17
433.39	1255.40
433.59	1187.82
433.80	1259.50
434.00	1290.22
434.21	1257.45
434.41	1304.56
434.62	1279.98
434.82	1275.88
435.03	1212.40
435.23	1245.16
435.44	1222.64
435.64	1279.98
435.85	1232.88
436.06	1198.06
436.26	1279.98
436.47	1265.64
436.67	1331.18
436.88	1247.21
437.08	1296.36
437.29	1333.23
437.49	1214.45
437.70	1331.18
437.90	1247.21
438.11	1220.59
438.31	1198.06
438.52	1204.21
438.72	1265.64
438.93	1271.79
439.13	1232.88
439.34	1245.16
439.54	1296.36
439.75	1212.40
439.95	1210.35
440.16	1245.16
440.36	1265.64
440.57	1286.12
440.77	1288.17
440.98	1232.88
441.18	1312.75
441.39	1245.16
441.59	1284.08
441.80	1243.12
442.00	1212.40
442.21	1290.22
442.41	1335.28
442.62	1243.12
442.82	1312.75
443.02	1263.60
443.23	1325.04
443.43	1265.64
443.64	1296.36
443.84	1220.59
444.05	1239.02
444.25	1290.22
444.46	1331.18
444.66	1325.04
444.87	1230.83
445.07	1255.40
445.28	1318.89
445.48	1327.08
445.69	1329.13
445.89	1314.80
446.09	1298.41
446.30	1294.32
446.50	1335.28
446.71	1232.88
446.91	1314.80
447.12	1245.16
447.32	1288.17
447.53	1310.70
447.73	1167.34
447.93	1310.70
448.14	1214.45
448.34	1273.84
448.55	1290.22
448.75	1216.49
448.96	1290.22
449.16	1279.98
449.36	1288.17
449.57	1204.21
449.77	1310.70
449.98	1300.46
450.18	1265.64
450.39	1265.64
450.59	1230.83
450.79	1218.54
451.00	1296.36
451.20	1279.98
451.41	1269.74
451.61	1310.70
451.81	1312.75
452.02	1304.56
452.22	1282.03
452.43	1269.74
452.63	1314.80
452.84	1284.08
453.04	1343.47
453.24	1316.84
453.45	1363.95
453.65	1277.93
453.86	1249.26
454.06	1261.55
454.26	1284.08
454.47	1288.17
454.67	1273.84
454.87	1247.21
455.08	1304.56
455.28	1345.52
455.49	1290.22
455.69	1249.26
455.89	1339.37
456.10	1290.22
456.30	1294.32
456.51	1316.84
456.71	1296.36
456.91	1273.84
457.12	1298.41
457.32	1269.74
457.52	1267.69
457.73	1241.07
457.93	1243.12
458.14	1275.88
458.34	1261.55
458.54	1271.79
458.75	1222.64
458.95	1251.31
459.15	1273.84
459.36	1271.79
459.56	1263.60
459.76	1271.79
459.97	1294.32
460.17	1347.56
460.37	1216.49
460.58	1220.59
460.78	1230.83
460.99	1206.25
461.19	1286.12
461.39	1282.03
461.60	1288.17
461.80	1261.55
462.00	1257.45
462.21	1265.64
462.41	1265.64
462.61	1234.93
462.82	1294.32
463.02	1257.45
463.22	1269.74
463.43	1298.41
463.63	1241.07
463.83	1296.36
464.04	1265.64
464.24	1269.74
464.44	1218.54
464.64	1284.08
464.85	1218.54
465.05	1306.60
465.25	1239.02
465.46	1259.50
465.66	1251.31
465.86	1288.17
466.07	1232.88
466.27	1298.41
466.47	1306.60
466.68	1284.08
466.88	1298.41
467.08	1212.40
467.29	1386.47
467.49	1224.69
467.69	1255.40
467.89	1279.98
468.10	1294.32
468.30	1273.84
468.50	1304.56
468.71	1216.49
468.91	1269.74
469.11	1331.18
469.31	1216.49
469.52	1247.21
469.72	1282.03
469.92	1335.28
470.13	1288.17
470.33	1312.75
470.53	1191.92
470.73	1257.45
470.94	1239.02
471.14	1277.93
471.34	1357.80
471.54	1318.89
471.75	1271.79
471.95	1306.60
472.15	1265.64
472.36	1241.07
472.56	1267.69
472.76	1214.45
472.96	1267.69
473.17	1331.18
473.37	1300.46
473.57	1204.21
473.77	1335.28
473.98	1279.98
474.18	1243.12
474.38	1325.04
474.58	1234.93
474.79	1314.80
474.99	1249.26
475.19	1249.26
475.39	1206.25
475.60	1241.07
475.80	1314.80
476.00	1206.25
476.20	1277.93
476.41	1277.93
476.61	1288.17
476.81	1236.97
477.01	1243.12
477.21	1241.07
477.42	1239.02
477.62	1294.32
477.82	1226.73
478.02	1267.69
478.23	1294.32
478.43	1257.45
478.63	1249.26
478.83	1275.88
479.03	1308.65
479.24	1212.40
479.44	1312.75
479.64	1239.02
479.84	1220.59
480.04	1251.31
480.25	1288.17
480.45	1282.03
480.65	1292.27
480.85	1288.17
481.06	1265.64
481.26	1282.03
481.46	1232.88
481.66	1200.11
481.86	1253.36
482.06	1341.42
482.27	1312.75
482.47	1241.07
482.67	1255.40
482.87	1249.26
483.07	1279.98
483.28	1273.84
483.48	1234.93
483.68	1353.71
483.88	1312.75
484.08	1257.45
484.29	1329.13
484.49	1271.79
484.69	1243.12
484.89	1312.75
485.09	1284.08
485.29	1275.88
485.50	1279.98
485.70	1327.08
485.90	1261.55
486.10	1269.74
486.30	1363.95
486.50	1288.17
486.71	1308.65
486.91	1279.98
487.11	1273.84
487.31	1261.55
487.51	1333.23
487.71	1347.56
487.91	1222.64
488.12	1236.97
488.32	1273.84
488.52	1234.93
488.72	1304.56
488.92	1241.07
489.12	1263.60
489.32	1302.51
489.53	1320.94
489.73	1265.64
489.93	1234.93
490.13	1261.55
490.33	1355.76
490.53	1255.40
490.73	1150.96
490.94	1232.88
491.14	1241.07
491.34	1322.99
491.54	1292.27
491.74	1247.21
491.94	1239.02
492.14	1298.41
492.34	1271.79
492.54	1279.98
492.75	1286.12
492.95	1255.40
493.15	1277.93
493.35	1288.17
493.55	1282.03
493.75	1284.08
493.95	1265.64
494.15	1259.50
494.35	1220.59
494.56	1239.02
494.76	1312.75
494.96	1249.26
495.16	1226.73
495.36	1296.36
495.56	1187.82
495.76	1263.60
495.96	1314.80
496.16	1298.41
496.36	1269.74
496.56	1212.40
496.77	1224.69
496.97	1265.64
497.17	1220.59
497.37	1273.84
497.57	1261.55
497.77	1290.22
497.97	1261.55
498.17	1232.88
498.37	1200.11
498.57	1292.27
498.77	1259.50
498.97	1290.22
499.17	1279.98
499.38	1370.09
499.58	1304.56
499.78	1314.80
499.98	1279.98
500.18	1230.83
500.38	1243.12
500.58	1288.17
500.78	1230.83
500.98	1290.22
501.18	1273.84
501.38	1224.69
501.58	1290.22
501.78	1273.84
501.98	1292.27
502.18	1212.40
502.38	1185.77
502.58	1292.27
502.78	1189.87
502.98	1308.65
503.18	1251.31
503.38	1273.84
503.59	1239.02
503.79	1224.69
503.99	1247.21
504.19	1255.40
504.39	1320.94
504.59	1308.65
504.79	1298.41
504.99	1359.85
505.19	1259.50
505.39	1325.04
505.59	1314.80
505.79	1312.75
505.99	1267.69
506.19	1302.51
506.39	1253.36
506.59	1316.84
506.79	1255.40
506.99	1286.12
507.19	1286.12
507.39	1216.49
507.59	1302.51
507.79	1267.69
507.99	1261.55
508.19	1275.88
508.39	1191.92
508.59	1284.08
508.79	1304.56
508.99	1249.26
509.19	1279.98
509.39	1265.64
509.59	1282.03
509.79	1273.84
509.99	1267.69
510.19	1263.60
510.39	1263.60
510.59	1255.40
510.79	1222.64
510.99	1298.41
511.19	1259.50
511.39	1327.08
511.59	1331.18
511.79	1265.64
511.99	1234.93
512.19	1247.21
512.38	1279.98
512.58	1284.08
512.78	1198.06
512.98	1349.61
513.18	1243.12
513.38	1282.03
513.58	1310.70
513.78	1282.03
513.98	1288.17
514.18	1279.98
514.38	1308.65
514.58	1304.56
514.78	1230.83
514.98	1314.80
515.18	1273.84
515.38	1245.16
515.58	1310.70
515.78	1253.36
515.98	1253.36
516.18	1265.64
516.38	1290.22
516.57	1239.02
516.77	1282.03
516.97	1261.55
517.17	1261.55
517.37	1251.31
517.57	1306.60
517.77	1243.12
517.97	1298.41
518.17	1292.27
518.37	1277.93
518.57	1312.75
518.77	1308.65
518.97	1343.47
519.16	1275.88
519.36	1257.45
519.56	1265.64
519.76	1263.60
519.96	1292.27
520.16	1261.55
520.36	1255.40
520.56	1288.17
520.76	1259.50
520.96	1320.94
521.16	1243.12
521.35	1314.80
521.55	1288.17
521.75	1269.74
521.95	1298.41
522.15	1337.32
522.35	1304.56
522.55	1187.82
522.75	1288.17
522.95	1263.60
523.14	1347.56
523.34	1322.99
523.54	1277.93
523.74	1257.45
523.94	1306.60
524.14	1200.11
524.34	1279.98
524.54	1245.16
524.73	1275.88
524.93	1236.97
525.13	1292.27
525.33	1107.95
525.53	1273.84
525.73	1263.60
525.93	1294.32
526.13	1312.75
526.32	1220.59
526.52	1202.16
526.72	1314.80
526.92	1265.64
527.12	1316.84
527.32	1282.03
527.52	1288.17
527.71	1239.02
527.91	1312.75
528.11	1253.36
528.31	1296.36
528.51	1296.36
528.71	1232.88
528.90	1247.21
529.10	1214.45
529.30	1261.55
529.50	1284.08
529.70	1355.76
529.90	1239.02
530.09	1220.59
530.29	1269.74
530.49	1251.31
530.69	1331.18
530.89	1249.26
531.09	1343.47
531.28	1206.25
531.48	1320.94
531.68	1298.41
531.88	1310.70
532.08	1257.45
532.28	1269.74
532.47	1288.17
532.67	1312.75
532.87	1300.46
533.07	1206.25
533.27	1210.35
533.46	1322.99
533.66	1322.99
533.86	1290.22
534.06	1331.18
534.26	1218.54
534.45	1251.31
534.65	1234.93
534.85	1308.65
535.05	1279.98
535.25	1345.52
535.44	1316.84
535.64	1275.88
535.84	1304.56
536.04	1292.27
536.24	1300.46
536.43	1265.64
536.63	1234.93
536.83	1212.40
537.03	1351.66
537.22	1277.93
537.42	1253.36
537.62	1275.88
537.82	1253.36
538.02	1269.74
538.21	1265.64
538.41	1314.80
538.61	1241.07
538.81	1279.98
539.00	1384.43
539.20	1271.79
539.40	1318.89
539.60	1204.21
539.79	1263.60
539.99	1314.80
540.19	1189.87
540.39	1337.32
540.58	1279.98
540.78	1308.65
540.98	1306.60
541.18	1329.13
541.37	1308.65
541.57	1265.64
541.77	1265.64
541.97	1372.14
542.16	1314.80
542.36	1269.74
542.56	1337.32
542.76	1308.65
542.95	1265.64
543.15	1294.32
543.35	1306.60
543.54	1398.76
543.74	1216.49
543.94	1282.03
544.14	1279.98
544.33	1329.13
544.53	1288.17
544.73	1335.28
544.93	1310.70
545.12	1261.55
545.32	1296.36
545.52	1212.40
545.71	1277.93
545.91	1316.84
546.11	1380.33
546.30	1204.21
546.50	1298.41
546.70	1290.22
546.90	1282.03
547.09	1286.12
547.29	1271.79
547.49	1232.88
547.68	1337.32
547.88	1290.22
548.08	1357.80
548.27	1255.40
548.47	1251.31
548.67	1296.36
548.87	1306.60
549.06	1216.49
549.26	1267.69
549.46	1284.08
549.65	1296.36
549.85	1353.71
550.05	1288.17
550.24	1359.85
550.44	1275.88
550.64	1257.45
550.83	1310.70
551.03	1243.12
551.23	1247.21
551.42	1359.85
551.62	1316.84
551.82	1304.56
552.01	1310.70
552.21	1294.32
552.41	1411.05
552.60	1302.51
552.80	1286.12
553.00	1214.45
553.19	1298.41
553.39	1277.93
553.59	1273.84
553.78	1224.69
553.98	1316.84
554.17	1306.60
554.37	1247.21
554.57	1300.46
554.76	1218.54
554.96	1314.80
555.16	1325.04
555.35	1249.26
555.55	1302.51
555.75	1302.51
555.94	1214.45
556.14	1261.55
556.33	1288.17
556.53	1265.64
556.73	1282.03
556.92	1318.89
557.12	1292.27
557.32	1294.32
557.51	1273.84
557.71	1263.60
557.90	1288.17
558.10	1296.36
558.30	1284.08
558.49	1257.45
558.69	1298.41
558.88	1294.32
559.08	1284.08
559.28	1286.12
559.47	1331.18
559.67	1292.27
559.86	1302.51
560.06	1236.97
560.26	1216.49
560.45	1275.88
560.65	1294.32
560.84	1251.31
561.04	1245.16
561.24	1216.49
561.43	1316.84
561.63	1265.64
561.82	1300.46
562.02	1292.27
562.22	1329.13
562.41	1347.56
562.61	1277.93
562.80	1292.27
563.00	1251.31
563.19	1302.51
563.39	1343.47
563.59	1198.06
563.78	1206.25
563.98	1255.40
564.17	1343.47
564.37	1368.04
564.56	1239.02
564.76	1286.12
564.96	1335.28
565.15	1318.89
565.35	1255.40
565.54	1355.76
565.74	1257.45
565.93	1306.60
566.13	1265.64
566.32	1345.52
566.52	1275.88
566.71	1296.36
566.91	1320.94
567.11	1304.56
567.30	1292.27
567.50	1308.65
567.69	1284.08
567.89	1312.75
568.08	1347.56
568.28	1286.12
568.47	1292.27
568.67	1284.08
568.86	1314.80
569.06	1284.08
569.25	1273.84
569.45	1288.17
569.64	1355.76
569.84	1279.98
570.04	1337.32
570.23	1171.44
570.43	1298.41
570.62	1322.99
570.82	1292.27
571.01	1181.68
571.21	1368.04
571.40	1271.79
571.60	1232.88
571.79	1255.40
571.99	1263.60
572.18	1220.59
572.38	1288.17
572.57	1312.75
572.77	1341.42
572.96	1279.98
573.16	1206.25
573.35	1236.97
573.55	1325.04
573.74	1341.42
573.94	1212.40
574.13	1288.17
574.33	1314.80
574.52	1265.64
574.71	1318.89
574.91	1196.01
575.10	1267.69
575.30	1243.12
575.49	1386.47
575.69	1370.09
575.88	1349.61
576.08	1249.26
576.27	1181.68
576.47	1308.65
576.66	1263.60
576.86	1277.93
577.05	1269.74
577.25	1265.64
577.44	1247.21
577.64	1220.59
577.83	1245.16
578.02	1212.40
578.22	1200.11
578.41	1243.12
578.61	1232.88
578.80	1271.79
579.00	1249.26
579.19	1257.45
579.39	1312.75
579.58	1282.03
579.77	1253.36
579.97	1288.17
580.16	1372.14
580.36	1339.37
580.55	1247.21
580.75	1245.16
580.94	1232.88
581.13	1308.65
581.33	1265.64
581.52	1294.32
581.72	1224.69
581.91	1304.56
582.11	1306.60
582.30	1292.27
582.49	1331.18
582.69	1288.17
582.88	1308.65
583.08	1304.56
583.27	1302.51
583.47	1273.84
583.66	1277.93
583.85	1351.66
584.05	1337.32
584.24	1245.16
584.44	1282.03
584.63	1236.97
584.82	1302.51
585.02	1302.51
585.21	1284.08
585.41	1245.16
585.60	1282.03
585.79	1271.79
585.99	1267.69
586.18	1277.93
586.37	1275.88
586.57	1218.54
586.76	1236.97
586.96	1234.93
587.15	1298.41
587.34	1277.93
587.54	1271.79
587.73	1239.02
587.93	1298.41
588.12	1318.89
588.31	1241.07
588.51	1263.60
588.70	1236.97
588.89	1288.17
589.09	1259.50
589.28	1286.12
589.47	1261.55
589.67	1279.98
589.86	1312.75
590.06	1296.36
590.25	1275.88
590.44	1271.79
590.64	1253.36
590.83	1288.17
591.02	1333.23
591.22	1308.65
591.41	1177.58
591.60	1279.98
591.80	1267.69
591.99	1312.75
592.18	1318.89
592.38	1355.76
592.57	1322.99
592.76	1339.37
592.96	1329.13
593.15	1320.94
593.34	1275.88
593.54	1247.21
593.73	1284.08
593.92	1228.78
594.12	1314.80
594.31	1339.37
594.50	1310.70
594.70	1255.40
594.89	1296.36
595.08	1284.08
595.28	1269.74
595.47	1275.88
595.66	1312.75
595.86	1265.64
596.05	1249.26
596.24	1269.74
596.43	1294.32
596.63	1306.60
596.82	1302.51
597.01	1224.69
597.21	1226.73
597.40	1372.14
597.59	1310.70
597.79	1284.08
597.98	1282.03
598.17	1275.88
598.36	1214.45
598.56	1288.17
598.75	1279.98
598.94	1306.60
599.14	1282.03
599.33	1320.94
599.52	1247.21
599.71	1273.84
599.91	1349.61
600.10	1286.12
600.29	1279.98
600.48	1302.51
600.68	1230.83
600.87	1302.51
601.06	1304.56
601.26	1325.04
601.45	1443.82
601.64	1316.84
601.83	1288.17
602.03	1345.52
602.22	1261.55
602.41	1236.97
602.60	1337.32
602.80	1296.36
602.99	1343.47
603.18	1337.32
603.37	1294.32
603.57	1320.94
603.76	1302.51
603.95	1267.69
604.14	1204.21
604.34	1304.56
604.53	1333.23
604.72	1267.69
604.91	1222.64
605.10	1292.27
605.30	1331.18
605.49	1325.04
605.68	1357.80
605.87	1277.93
606.07	1345.52
606.26	1212.40
606.45	1257.45
606.64	1247.21
606.84	1277.93
607.03	1331.18
607.22	1320.94
607.41	1310.70
607.60	1302.51
607.80	1245.16
607.99	1288.17
608.18	1273.84
608.37	1314.80
608.56	1312.75
608.76	1312.75
608.95	1290.22
609.14	1249.26
609.33	1249.26
609.52	1269.74
609.72	1241.07
609.91	1290.22
610.10	1206.25
610.29	1306.60
610.48	1290.22
610.68	1325.04
610.87	1290.22
611.06	1304.56
611.25	1269.74
611.44	1257.45
611.63	1327.08
611.83	1259.50
612.02	1314.80
612.21	1249.26
612.40	1298.41
612.59	1277.93
612.79	1314.80
612.98	1290.22
613.17	1294.32
613.36	1277.93
613.55	1282.03
613.74	1267.69
613.93	1300.46
614.13	1304.56
614.32	1327.08
614.51	1269.74
614.70	1263.60
614.89	1279.98
615.08	1308.65
615.28	1267.69
615.47	1277.93
615.66	1282.03
615.85	1261.55
616.04	1318.89
616.23	1255.40
616.42	1288.17
616.62	1257.45
616.81	1173.49
617.00	1316.84
617.19	1226.73
617.38	1214.45
617.57	1245.16
617.76	1296.36
617.95	1288.17
618.15	1341.42
618.34	1292.27
618.53	1255.40
618.72	1277.93
618.91	1257.45
619.10	1310.70
619.29	1286.12
619.48	1279.98
619.68	1320.94
619.87	1325.04
620.06	1339.37
620.25	1181.68
620.44	1269.74
620.63	1302.51
620.82	1302.51
621.01	1210.35
621.20	1253.36
621.39	1290.22
621.59	1261.55
621.78	1316.84
621.97	1253.36
622.16	1337.32
622.35	1298.41
622.54	1275.88
622.73	1269.74
622.92	1263.60
623.11	1327.08
623.30	1351.66
623.49	1234.93
623.68	1228.78
623.88	1331.18
624.07	1206.25
624.26	1372.14
624.45	1341.42
624.64	1294.32
624.83	1269.74
625.02	1261.55
625.21	1239.02
625.40	1361.90
625.59	1374.19
625.78	1288.17
625.97	1302.51
626.16	1325.04
626.35	1292.27
626.54	1343.47
626.74	1304.56
626.93	1329.13
627.12	1265.64
627.31	1359.85
627.50	1232.88
627.69	1329.13
627.88	1210.35
628.07	1245.16
628.26	1228.78
628.45	1275.88
628.64	1288.17
628.83	1290.22
629.02	1347.56
629.21	1337.32
629.40	1337.32
629.59	1310.70
629.78	1288.17
629.97	1290.22
630.16	1265.64
630.35	1302.51
630.54	1286.12
630.73	1331.18
630.92	1421.29
631.11	1318.89
631.30	1247.21
631.49	1310.70
631.68	1347.56
631.87	1501.16
632.06	1873.89
632.25	1689.57
632.44	1714.15
632.63	1968.10
632.82	2371.55
633.01	3002.32
633.20	3354.57
633.39	3340.24
633.58	2355.16
633.77	2107.36
633.96	2865.11
634.15	4020.16
634.34	3985.35
634.53	3444.68
634.72	2688.98
634.91	2060.26
635.10	1789.92
635.29	1617.90
635.48	1546.22
635.67	1548.26
635.86	1544.17
636.05	1404.91
636.24	1390.57
636.43	1411.05
636.62	1302.51
636.81	1325.04
637.00	1271.79
637.19	1300.46
637.38	1302.51
637.57	1327.08
637.76	1271.79
637.95	1294.32
638.14	1378.28
638.33	1327.08
638.52	1386.47
638.71	1269.74
638.89	1314.80
639.08	1337.32
639.27	1320.94
639.46	1310.70
639.65	1304.56
639.84	1302.51
640.03	1298.41
640.22	1247.21
640.41	1247.21
640.60	1261.55
640.79	1329.13
640.98	1314.80
641.17	1363.95
641.36	1322.99
641.55	1322.99
641.74	1222.64
641.92	1290.22
642.11	1325.04
642.30	1222.64
642.49	1300.46
642.68	1198.06
642.87	1306.60
643.06	1320.94
643.25	1300.46
643.44	1239.02
643.63	1331.18
643.82	1288.17
644.00	1302.51
644.19	1241.07
644.38	1306.60
644.57	1251.31
644.76	1341.42
644.95	1232.88
645.14	1304.56
645.33	1290.22
645.52	1261.55
645.71	1230.83
645.89	1314.80
646.08	1228.78
646.27	1329.13
646.46	1239.02
646.65	1157.10
646.84	1300.46
647.03	1302.51
647.22	1304.56
647.40	1245.16
647.59	1275.88
647.78	1261.55
647.97	1208.30
648.16	1234.93
648.35	1216.49
648.54	1261.55
648.73	1349.61
648.91	1325.04
649.10	1284.08
649.29	1314.80
649.48	1255.40
649.67	1261.55
649.86	1286.12
650.05	1327.08
650.23	1302.51
650.42	1273.84
650.61	1306.60
650.80	1253.36
650.99	1269.74
651.18	1308.65
651.36	1183.73
651.55	1273.84
651.74	1292.27
651.93	1228.78
652.12	1277.93
652.31	1275.88
652.49	1331.18
652.68	1243.12
652.87	1300.46
653.06	1327.08
653.25	1253.36
653.44	1253.36
653.62	1259.50
653.81	1247.21
654.00	1255.40
654.19	1253.36
654.38	1239.02
654.56	1241.07
654.75	1300.46
654.94	1267.69
655.13	1329.13
655.32	1271.79
655.51	1247.21
655.69	1265.64
655.88	1351.66
656.07	1296.36
656.26	1284.08
656.45	1210.35
656.63	1282.03
656.82	1294.32
657.01	1286.12
657.20	1282.03
657.38	1279.98
657.57	1331.18
657.76	1279.98
657.95	1314.80
658.14	1310.70
658.32	1226.73
658.51	1282.03
658.70	1239.02
658.89	1259.50
659.08	1288.17
659.26	1255.40
659.45	1290.22
659.64	1282.03
659.83	1236.97
660.01	1308.65
660.20	1212.40
660.39	1288.17
660.58	1243.12
660.76	1288.17
660.95	1193.97
661.14	1271.79
661.33	1304.56
661.51	1253.36
661.70	1191.92
661.89	1282.03
662.08	1179.63
662.26	1269.74
662.45	1236.97
662.64	1265.64
662.83	1210.35
663.01	1255.40
663.20	1304.56
663.39	1325.04
663.58	1298.41
663.76	1236.97
663.95	1273.84
664.14	1245.16
664.32	1282.03
664.51	1277.93
664.70	1318.89
664.89	1300.46
665.07	1335.28
665.26	1335.28
665.45	1347.56
665.64	1306.60
665.82	1271.79
666.01	1273.84
666.20	1298.41
666.38	1286.12
666.57	1347.56
666.76	1298.41
666.95	1288.17
667.13	1329.13
667.32	1306.60
667.51	1329.13
667.69	1255.40
667.88	1359.85
668.07	1351.66
668.25	1200.11
668.44	1243.12
668.63	1224.69
668.81	1310.70
669.00	1220.59
669.19	1286.12
669.38	1327.08
669.56	1335.28
669.75	1325.04
669.94	1292.27
670.12	1230.83
670.31	1259.50
670.50	1288.17
670.68	1218.54
670.87	1247.21
671.06	1306.60
671.24	1228.78
671.43	1239.02
671.62	1288.17
671.80	1318.89
671.99	1263.60
672.18	1333.23
672.36	1259.50
672.55	1302.51
672.74	1234.93
672.92	1271.79
673.11	1347.56
673.29	1236.97
673.48	1290.22
673.67	1220.59
673.85	1296.36
674.04	1320.94
674.23	1329.13
674.41	1290.22
674.60	1247.21
674.79	1277.93
674.97	1314.80
675.16	1314.80
675.34	1208.30
675.53	1267.69
675.72	1255.40
675.90	1308.65
676.09	1232.88
676.28	1320.94
676.46	1232.88
676.65	1314.80
676.83	1279.98
677.02	1277.93
677.21	1290.22
677.39	1300.46
677.58	1273.84
677.77	1284.08
677.95	1286.12
678.14	1265.64
678.32	1249.26
678.51	1267.69
678.70	1185.77
678.88	1271.79
679.07	1247.21
679.25	1245.16
679.44	1275.88
679.63	1245.16
679.81	1255.40
680.00	1253.36
680.18	1456.11
680.37	1300.46
680.55	1366.00
680.74	1277.93
680.93	1290.22
681.11	1267.69
681.30	1257.45
681.48	1232.88
681.67	1261.55
681.85	1208.30
682.04	1327.08
682.23	1259.50
682.41	1298.41
682.60	1337.32
682.78	1306.60
682.97	1222.64
683.15	1247.21
683.34	1245.16
683.53	1247.21
683.71	1277.93
683.90	1306.60
684.08	1261.55
684.27	1302.51
684.45	1290.22
684.64	1302.51
684.82	1275.88
685.01	1300.46
685.19	1259.50
685.38	1269.74
685.57	1271.79
685.75	1269.74
685.94	1261.55
686.12	1239.02
686.31	1234.93
686.49	1279.98
686.68	1310.70
686.86	1249.26
687.05	1335.28
687.23	1296.36
687.42	1296.36
687.60	1236.97
687.79	1304.56
687.97	1298.41
688.16	1253.36
688.34	1306.60
688.53	1292.27
688.71	1284.08
688.90	1245.16
689.08	1286.12
689.27	1271.79
689.45	1298.41
689.64	1261.55
689.82	1243.12
690.01	1255.40
690.19	1179.63
690.38	1286.12
690.56	1271.79
690.75	1245.16
690.93	1296.36
691.12	1286.12
691.30	1255.40
691.49	1292.27
691.67	1296.36
691.86	1255.40
692.04	1331.18
692.23	1279.98
692.41	1269.74
692.60	1282.03
692.78	1337.32
692.97	1382.38
693.15	1271.79
693.34	1314.80
693.52	1314.80
693.71	1251.31
693.89	1279.98
694.08	1214.45
694.26	1337.32
694.44	1312.75
694.63	1288.17
694.81	1282.03
695.00	1300.46
695.18	1339.37
695.37	1290.22
695.55	1247.21
695.74	1239.02
695.92	1339.37
696.10	1282.03
696.29	1275.88
696.47	1308.65
696.66	1290.22
696.84	1275.88
697.03	1255.40
697.21	1320.94
697.40	1286.12
697.58	1300.46
697.76	1253.36
697.95	1265.64
698.13	1222.64
698.32	1269.74
698.50	1257.45
698.68	1251.31
698.87	1243.12
699.05	1173.49
699.24	1366.00
699.42	1249.26
699.61	1271.79
699.79	1290.22
699.97	1224.69
700.16	1286.12
700.34	1241.07
700.53	1230.83
700.71	1259.50
700.89	1239.02
701.08	1277.93
701.26	1294.32
701.45	1290.22
701.63	1253.36
701.81	1290.22
702.00	1300.46
702.18	1376.24
702.37	1312.75
702.55	1243.12
702.73	1261.55
702.92	1279.98
703.10	1279.98
703.28	1282.03
703.47	1267.69
703.65	1341.42
703.84	1255.40
704.02	1200.11
704.20	1314.80
704.39	1302.51
704.57	1300.46
704.75	1247.21
704.94	1218.54
705.12	1220.59
705.30	1282.03
705.49	1294.32
705.67	1200.11
705.86	1292.27
706.04	1370.09
706.22	1236.97
706.41	1284.08
706.59	1314.80
706.77	1302.51
706.96	1243.12
707.14	1232.88
707.32	1261.55
707.51	1300.46
707.69	1279.98
707.87	1271.79
708.06	1316.84
708.24	1286.12
708.42	1308.65
708.61	1296.36
708.79	1263.60
708.97	1247.21
709.16	1261.55
709.34	1353.71
709.52	1243.12
709.71	1267.69
709.89	1241.07
710.07	1220.59
710.26	1275.88
710.44	1214.45
710.62	1236.97
710.80	1214.45
710.99	1224.69
711.17	1318.89
711.35	1353.71
711.54	1251.31
711.72	1282.03
711.90	1304.56
712.09	1335.28
712.27	1257.45
712.45	1265.64
712.63	1216.49
712.82	1271.79
713.00	1284.08
713.18	1302.51
713.37	1255.40
713.55	1306.60
713.73	1263.60
713.91	1296.36
714.10	1310.70
714.28	1306.60
714.46	1236.97
714.65	1232.88
714.83	1294.32
715.01	1261.55
715.19	1314.80
715.38	1245.16
715.56	1247.21
715.74	1306.60
715.92	1341.42
716.11	1290.22
716.29	1249.26
716.47	1175.53
716.65	1267.69
716.84	1157.10
717.02	1224.69
717.20	1292.27
717.38	1247.21
717.57	1241.07
717.75	1308.65
717.93	1265.64
718.11	1216.49
718.30	1265.64
718.48	1290.22
718.66	1322.99
718.84	1243.12
719.03	1286.12
719.21	1271.79
719.39	1298.41
719.57	1222.64
719.75	1265.64
719.94	1198.06
720.12	1228.78
720.30	1296.36
720.48	1298.41
720.67	1282.03
720.85	1222.64
721.03	1329.13
721.21	1277.93
721.39	1310.70
721.58	1236.97
721.76	1314.80
721.94	1263.60
722.12	1273.84
722.30	1265.64
722.49	1239.02
722.67	1286.12
722.85	1275.88
723.03	1259.50
723.21	1310.70
723.40	1245.16
723.58	1322.99
723.76	1296.36
723.94	1214.45
724.12	1277.93
724.30	1286.12
724.49	1251.31
724.67	1282.03
724.85	1253.36
725.03	1212.40
725.21	1306.60
725.40	1288.17
725.58	1222.64
725.76	1345.52
725.94	1273.84
726.12	1222.64
726.30	1249.26
726.49	1290.22
726.67	1265.64
726.85	1249.26
727.03	1212.40
727.21	1255.40
727.39	1224.69
727.57	1310.70
727.76	1271.79
727.94	1292.27
728.12	1277.93
728.30	1275.88
728.48	1298.41
728.66	1249.26
728.84	1234.93
729.03	1298.41
729.21	1306.60
729.39	1249.26
729.57	1204.21
729.75	1253.36
729.93	1232.88
730.11	1267.69
730.30	1241.07
730.48	1292.27
730.66	1241.07
730.84	1226.73
731.02	1300.46
731.20	1255.40
731.38	1300.46
731.56	1294.32
731.74	1187.82
731.93	1249.26
732.11	1322.99
732.29	1275.88
732.47	1245.16
732.65	1290.22
732.83	1255.40
733.01	1306.60
733.19	1179.63
733.37	1279.98
733.56	1241.07
733.74	1257.45
733.92	1228.78
734.10	1239.02
734.28	1353.71
734.46	1247.21
734.64	1241.07
734.82	1241.07
735.00	1228.78
735.18	1277.93
735.36	1325.04
735.54	1335.28
735.73	1298.41
735.91	1304.56
736.09	1302.51
736.27	1265.64
736.45	1236.97
736.63	1263.60
736.81	1257.45
736.99	1267.69
737.17	1284.08
737.35	1290.22
737.53	1204.21
737.71	1310.70
737.89	1304.56
738.07	1294.32
738.25	1288.17
738.43	1294.32
738.61	1214.45
738.80	1230.83
738.98	1171.44
739.16	1263.60
739.34	1265.64
739.52	1230.83
739.70	1300.46
739.88	1259.50
740.06	1310.70
740.24	1218.54
740.42	1251.31
740.60	1298.41
740.78	1245.16
740.96	1239.02
741.14	1206.25
741.32	1234.93
741.50	1327.08
741.68	1226.73
741.86	1255.40
742.04	1298.41
742.22	1296.36
742.40	1277.93
742.58	1294.32
742.76	1243.12
742.94	1314.80
743.12	1298.41
743.30	1208.30
743.48	1329.13
743.66	1234.93
743.84	1247.21
744.02	1316.84
744.20	1320.94
744.38	1214.45
744.56	1288.17
744.74	1273.84
744.92	1263.60
745.10	1224.69
745.28	1282.03
745.46	1294.32
745.64	1220.59
745.82	1355.76
746.00	1316.84
746.18	1292.27
746.36	1325.04
746.54	1249.26
746.72	1279.98
746.90	1208.30
747.08	1339.37
747.26	1290.22
747.44	1265.64
747.62	1198.06
747.80	1306.60
747.98	1275.88
748.15	1300.46
748.33	1286.12
748.51	1273.84
748.69	1247.21
748.87	1236.97
749.05	1228.78
749.23	1269.74
749.41	1339.37
749.59	1288.17
749.77	1318.89
749.95	1312.75
750.13	1232.88
750.31	1300.46
750.49	1212.40
750.67	1312.75
750.85	1249.26
751.03	1216.49
751.20	1263.60
751.38	1353.71
751.56	1247.21
751.74	1255.40
751.92	1245.16
752.10	1226.73
752.28	1257.45
752.46	1245.16
752.64	1241.07
752.82	1198.06
753.00	1314.80
753.18	1310.70
753.35	1275.88
753.53	1200.11
753.71	1251.31
753.89	1251.31
754.07	1261.55
754.25	1282.03
754.43	1282.03
754.61	1306.60
754.79	1222.64
754.97	1255.40
755.14	1214.45
755.32	1304.56
755.50	1232.88
755.68	1304.56
755.86	1239.02
756.04	1251.31
756.22	1218.54
756.40	1261.55
756.57	1316.84
756.75	1239.02
756.93	1249.26
757.11	1288.17
757.29	1277.93
757.47	1241.07
757.65	1271.79
757.82	1277.93
758.00	1249.26
758.18	1187.82
758.36	1308.65
758.54	1222.64
758.72	1261.55
758.90	1212.40
759.07	1228.78
759.25	1329.13
759.43	1232.88
759.61	1282.03
759.79	1335.28
759.97	1372.14
760.15	1320.94
760.32	1204.21
760.50	1296.36
760.68	1255.40
760.86	1239.02
761.04	1310.70
761.22	1298.41
761.39	1335.28
761.57	1279.98
761.75	1230.83
761.93	1286.12
762.11	1308.65
762.28	1279.98
762.46	1306.60
762.64	1282.03
762.82	1275.88
763.00	1218.54
763.18	1261.55
763.35	1259.50
763.53	1261.55
763.71	1300.46
763.89	1226.73
764.07	1232.88
764.24	1347.56
764.42	1329.13
764.60	1290.22
764.78	1310.70
764.96	1320.94
765.13	1251.31
765.31	1296.36
765.49	1343.47
765.67	1263.60
765.84	1228.78
766.02	1275.88
766.20	1271.79
766.38	1269.74
766.56	1275.88
766.73	1232.88
766.91	1261.55
767.09	1279.98
767.27	1298.41
767.44	1263.60
767.62	1216.49
767.80	1257.45
767.98	1277.93
768.15	1282.03
768.33	1259.50
768.51	1273.84
768.69	1241.07
768.87	1230.83
769.04	1214.45
769.22	1292.27
769.40	1275.88
769.58	1329.13
769.75	1236.97
769.93	1187.82
770.11	1277.93
770.28	1212.40
770.46	1189.87
770.64	1230.83
770.82	1320.94
770.99	1249.26
771.17	1304.56
771.35	1296.36
771.53	1277.93
771.70	1265.64
771.88	1222.64
772.06	1304.56
772.23	1298.41
772.41	1255.40
772.59	1247.21
772.77	1249.26
772.94	1232.88
773.12	1269.74
773.30	1288.17
773.47	1273.84
773.65	1304.56
773.83	1249.26
774.01	1284.08
774.18	1198.06
774.36	1284.08
774.54	1310.70
774.71	1288.17
774.89	1187.82
775.07	1247.21
775.24	1232.88
775.42	1245.16
775.60	1265.64
775.78	1214.45
775.95	1320.94
776.13	1239.02
776.31	1251.31
776.48	1261.55
776.66	1300.46
776.84	1284.08
777.01	1343.47
777.19	1230.83
777.37	1288.17
777.54	1263.60
777.72	1277.93
777.90	1206.25
778.07	1279.98
778.25	1290.22
778.43	1228.78
778.60	1222.64
778.78	1277.93
778.96	1282.03
779.13	1265.64
779.31	1304.56
779.49	1302.51
779.66	1316.84
779.84	1308.65
780.01	1255.40
780.19	1322.99
780.37	1273.84
780.54	1282.03
780.72	1275.88
780.90	1298.41
781.07	1308.65
781.25	1271.79
781.43	1273.84
781.60	1292.27
781.78	1273.84
781.95	1267.69
782.13	1286.12
782.31	1286.12
782.48	1249.26
782.66	1218.54
782.83	1339.37
783.01	1288.17
783.19	1282.03
783.36	1288.17
783.54	1298.41
783.72	1257.45
783.89	1294.32
784.07	1230.83
784.24	1298.41
784.42	1241.07
784.60	1247.21
784.77	1253.36
784.95	1234.93
785.12	1296.36
785.30	1230.83
785.47	1333.23
785.65	1226.73
785.83	1275.88
786.00	1245.16
786.18	1245.16
786.35	1275.88
786.53	1288.17
786.71	1275.88
786.88	1245.16
787.06	1271.79
787.23	1271.79
787.41	1261.55
787.58	1277.93
787.76	1271.79
787.94	1245.16
788.11	1257.45
788.29	1271.79
788.46	1322.99
788.64	1241.07
788.81	1316.84
788.99	1308.65
789.16	1255.40
789.34	1265.64
789.52	1236.97
789.69	1224.69
789.87	1282.03
790.04	1224.69
790.22	1202.16
790.39	1271.79
790.57	1247.21
790.74	1271.79
790.92	1220.59
791.09	1226.73
791.27	1316.84
791.44	1296.36
791.62	1275.88
791.79	1214.45
791.97	1267.69
792.15	1302.51
792.32	1210.35
792.50	1306.60
792.67	1269.74
792.85	1282.03
793.02	1269.74
793.20	1265.64
793.37	1241.07
793.55	1267.69
793.72	1196.01
793.90	1306.60
794.07	1339.37
794.25	1273.84
794.42	1261.55
794.60	1208.30
794.77	1349.61
794.95	1300.46
795.12	1269.74
795.30	1189.87
795.47	1212.40
795.65	1230.83
795.82	1247.21
796.00	1275.88
796.17	1253.36
796.34	1308.65
796.52	1232.88
796.69	1232.88
796.87	1218.54
797.04	1247.21
797.22	1218.54
797.39	1288.17
797.57	1284.08
797.74	1269.74
797.92	1165.29
798.09	1353.71
798.27	1224.69
798.44	1271.79
798.62	1271.79
798.79	1290.22
798.96	1286.12
799.14	1232.88
799.31	1200.11
799.49	1232.88
799.66	1171.44
799.84	1302.51
800.01	1200.11
800.19	1306.60
800.36	1277.93
800.53	1304.56
800.71	1261.55
800.88	1339.37
801.06	1253.36
801.23	1243.12
801.41	1224.69
801.58	1331.18
801.75	1284.08
801.93	1298.41
802.10	1288.17
802.28	1341.42
802.45	1290.22
802.63	1290.22
802.80	1286.12
802.97	1312.75
803.15	1294.32
803.32	1308.65
803.50	1263.60
803.67	1253.36
803.84	1247.21
804.02	1294.32
804.19	1290.22
804.37	1331.18
804.54	1234.93
804.71	1286.12
804.89	1239.02
805.06	1253.36
805.24	1239.02
805.41	1361.90
805.58	1292.27
805.76	1263.60
805.93	1232.88
806.10	1241.07
806.28	1277.93
806.45	1236.97
806.63	1277.93
806.80	1206.25
806.97	1232.88
807.15	1271.79
807.32	1298.41
807.49	1288.17
807.67	1228.78
807.84	1222.64
808.01	1249.26
808.19	1247.21
808.36	1363.95
808.54	1263.60
808.71	1284.08
808.88	1181.68
809.06	1306.60
809.23	1298.41
809.40	1290.22
809.58	1173.49
809.75	1239.02
809.92	1247.21
810.10	1255.40
810.27	1265.64
810.44	1290.22
810.62	1296.36
810.79	1267.69
810.96	1304.56
811.14	1279.98
811.31	1230.83
811.48	1212.40
811.66	1257.45
811.83	1261.55
812.00	1239.02
812.18	1329.13
812.35	1218.54
812.52	1245.16
812.69	1247.21
812.87	1271.79
813.04	1290.22
813.21	1282.03
813.39	1222.64
813.56	1277.93
813.73	1224.69
813.91	1216.49
814.08	1265.64
814.25	1357.80
814.42	1259.50
814.60	1306.60
814.77	1286.12
814.94	1286.12
815.12	1255.40
815.29	1212.40
815.46	1288.17
815.63	1282.03
815.81	1222.64
815.98	1290.22
816.15	1230.83
816.33	1253.36
816.50	1259.50
816.67	1292.27
816.84	1312.75
817.02	1316.84
817.19	1275.88
817.36	1378.28
817.53	1265.64
817.71	1288.17
817.88	1263.60
818.05	1257.45
818.22	1279.98
818.40	1294.32
818.57	1292.27
818.74	1196.01
818.91	1226.73
819.09	1288.17
819.26	1269.74
819.43	1302.51
819.60	1204.21
819.78	1275.88
819.95	1306.60
820.12	1294.32
820.29	1234.93
820.47	1200.11
820.64	1320.94
820.81	1224.69
820.98	1302.51
821.15	1269.74
821.33	1241.07
821.50	1247.21
821.67	1310.70
821.84	1302.51
822.02	1282.03
822.19	1298.41
822.36	1249.26
822.53	1271.79
822.70	1304.56
822.88	1282.03
823.05	1273.84
823.22	1261.55
823.39	1288.17
823.56	1224.69
823.74	1294.32
823.91	1284.08
824.08	1288.17
824.25	1273.84
824.42	1234.93
824.60	1253.36
824.77	1314.80
824.94	1241.07
825.11	1279.98
825.28	1284.08
825.45	1263.60
825.63	1282.03
825.80	1230.83
825.97	1310.70
826.14	1253.36
826.31	1290.22
826.48	1314.80
826.66	1296.36
826.83	1322.99
827.00	1351.66
827.17	1263.60
827.34	1245.16
827.51	1308.65
827.69	1322.99
827.86	1245.16
828.03	1222.64
828.20	1316.84
828.37	1306.60
828.54	1255.40
828.71	1267.69
828.89	1265.64
829.06	1284.08
829.23	1277.93
829.40	1198.06
829.57	1318.89
829.74	1304.56
829.91	1261.55
830.09	1288.17
830.26	1222.64
830.43	1318.89
830.60	1265.64
830.77	1294.32
830.94	1255.40
831.11	1318.89
831.28	1259.50
831.46	1282.03
831.63	1269.74
831.80	1282.03
831.97	1331.18
832.14	1234.93
832.31	1234.93
832.48	1302.51
832.65	1322.99
832.82	1214.45
832.99	1331.18
833.17	1267.69
833.34	1193.97
833.51	1294.32
833.68	1275.88
833.85	1230.83
834.02	1255.40
834.19	1284.08
834.36	1239.02
834.53	1253.36
834.70	1282.03
834.87	1236.97
835.04	1282.03
835.22	1296.36
835.39	1271.79
835.56	1296.36
835.73	1243.12
835.90	1316.84
836.07	1257.45
836.24	1286.12
836.41	1193.97
836.58	1294.32
836.75	1193.97
836.92	1236.97
837.09	1292.27
837.26	1226.73
837.43	1224.69
837.60	1177.58
837.77	1271.79
837.94	1294.32
838.12	1343.47
838.29	1312.75
838.46	1335.28
838.63	1185.77
838.80	1288.17
838.97	1304.56
839.14	1241.07
839.31	1251.31
839.48	1232.88
839.65	1271.79
839.82	1370.09
839.99	1296.36
840.16	1279.98
840.33	1273.84
840.50	1210.35
840.67	1310.70
840.84	1218.54
841.01	1296.36
841.18	1273.84
841.35	1296.36
841.52	1212.40
841.69	1261.55
841.86	1257.45
842.03	1232.88
842.20	1294.32
842.37	1290.22
842.54	1284.08
842.71	1302.51
842.88	1214.45
843.05	1271.79
843.22	1257.45
843.39	1236.97
843.56	1277.93
843.73	1296.36
843.90	1245.16
844.07	1343.47
844.24	1202.16
844.41	1263.60
844.58	1308.65
844.75	1255.40
844.92	1265.64
845.09	1351.66
845.26	1282.03
845.43	1185.77
845.60	1296.36
845.77	1214.45
845.94	1234.93
846.10	1286.12
846.27	1275.88
846.44	1245.16
846.61	1216.49
846.78	1261.55
846.95	1245.16
847.12	1267.69
847.29	1261.55
847.46	1286.12
847.63	1249.26
847.80	1265.64
847.97	1294.32
848.14	1245.16
848.31	1327.08
848.48	1253.36
848.65	1273.84
848.82	1263.60
848.98	1230.83
849.15	1267.69
849.32	1208.30
849.49	1239.02
849.66	1277.93
849.83	1247.21
850.00	1277.93
850.17	1327.08
850.34	1335.28
850.51	1267.69
850.68	1243.12
850.85	1214.45
851.01	1312.75
851.18	1347.56
851.35	1282.03
851.52	1298.41
851.69	1245.16
851.86	1306.60
852.03	1284.08
852.20	1279.98
852.37	1300.46
852.53	1292.27
852.70	1282.03
852.87	1322.99
853.04	1282.03
853.21	1329.13
853.38	1271.79
853.55	1251.31
853.72	1236.97
853.89	1261.55
854.05	1265.64
854.22	1216.49
854.39	1263.60
854.56	1239.02
854.73	1294.32
854.90	1255.40
855.07	1290.22
855.23	1357.80
855.40	1275.88
855.57	1245.16
855.74	1177.58
855.91	1273.84
856.08	1271.79
856.25	1239.02
856.41	1298.41
856.58	1277.93
856.75	1286.12
856.92	1253.36
857.09	1226.73
857.26	1208.30
857.42	1202.16
857.59	1210.35
857.76	1318.89
857.93	1282.03
858.10	1214.45
858.27	1308.65
858.43	1247.21
858.60	1277.93
858.77	1247.21
858.94	1253.36
859.11	1302.51
859.27	1329.13
859.44	1306.60
859.61	1241.07
859.78	1265.64
859.95	1245.16
860.12	1198.06
860.28	1347.56
860.45	1212.40
860.62	1251.31
860.79	1234.93
860.95	1300.46
861.12	1304.56
861.29	1261.55
861.46	1312.75
861.63	1298.41
861.79	1247.21
861.96	1282.03
862.13	1312.75
862.30	1220.59
862.47	1226.73
862.63	1204.21
862.80	1265.64
862.97	1310.70
863.14	1267.69
863.30	1316.84
863.47	1339.37
863.64	1263.60
863.81	1294.32
863.97	1292.27
864.14	1249.26
864.31	1335.28
864.48	1245.16
864.65	1243.12
864.81	1282.03
864.98	1267.69
865.15	1308.65
865.32	1273.84
865.48	1279.98
865.65	1294.32
865.82	1265.64
865.98	1292.27
866.15	1282.03
866.32	1236.97
866.49	1265.64
866.65	1265.64
866.82	1318.89
866.99	1263.60
867.16	1306.60
867.32	1300.46
867.49	1239.02
867.66	1224.69
867.83	1302.51
867.99	1304.56
868.16	1249.26
868.33	1234.93
868.49	1279.98
868.66	1335.28
868.83	1200.11
868.99	1263.60
869.16	1220.59
869.33	1267.69
869.50	1251.31
869.66	1288.17
869.83	1210.35
870.00	1222.64
870.16	1339.37
870.33	1236.97
870.50	1331.18
870.66	1284.08
870.83	1271.79
871.00	1284.08
871.17	1275.88
871.33	1273.84
871.50	1298.41
871.67	1267.69
871.83	1222.64
872.00	1271.79
872.17	1335.28
872.33	1204.21
872.50	1312.75
872.67	1290.22
872.83	1312.75
873.00	1269.74
873.17	1212.40
873.33	1277.93
873.50	1296.36
873.67	1286.12
873.83	1206.25
874.00	1286.12
874.16	1353.71
874.33	1277.93
874.50	1265.64
874.66	1310.70
874.83	1286.12
875.00	1304.56
875.16	1273.84
875.33	1239.02
875.50	1226.73
875.66	1282.03
875.83	1257.45
875.99	1204.21
876.16	1224.69
876.33	1243.12
876.49	1288.17
876.66	1267.69
876.83	1273.84
876.99	1259.50
877.16	1335.28
877.32	1298.41
877.49	1288.17
877.66	1294.32
877.82	1292.27
877.99	1214.45
878.15	1314.80
878.32	1284.08
878.49	1292.27
878.65	1255.40
878.82	1306.60
878.98	1236.97
879.15	1257.45
879.32	1216.49
879.48	1251.31
879.65	1247.21
879.81	1208.30
879.98	1269.74
880.15	1249.26
880.31	1226.73
880.48	1339.37
880.64	1265.64
880.81	1216.49
880.97	1271.79
881.14	1249.26
881.31	1200.11
881.47	1306.60
881.64	1294.32
881.80	1212.40
881.97	1273.84
882.13	1288.17
882.30	1232.88
882.47	1222.64
882.63	1273.84
882.80	1308.65
882.96	1255.40
883.13	1286.12
883.29	1265.64
883.46	1230.83
883.62	1302.51
883.79	1290.22
883.95	1210.35
884.12	1271.79
884.29	1277.93
884.45	1318.89
884.62	1310.70
884.78	1269.74
884.95	1253.36
885.11	1247.21
885.28	1239.02
885.44	1193.97
885.61	1273.84
885.77	1286.12
885.94	1271.79
886.10	1222.64
886.27	1355.76
886.43	1232.88
886.60	1314.80
886.76	1290.22
886.93	1191.92
887.09	1337.32
887.26	1275.88
887.42	1337.32
887.59	1255.40
887.75	1236.97
887.92	1296.36
888.08	1230.83
888.25	1236.97
888.41	1277.93
888.58	1284.08
888.74	1320.94
888.91	1322.99
>>>>>End Processed Spectral Data<<<<<
