SpectraSuite Data File
++++++++++++++++++++++++++++++++++++
Date: Sun Apr 03 19:55:26 CEST 2016
User: root
Dark Spectrum Present: No
Reference Spectrum Present: No
Number of Sampled Component Spectra: 1
Spectrometers: USB4C02835
Integration Time (usec): 10000 (USB4C02835)
Spectra Averaged: 1 (USB4C02835)
Boxcar Smoothing: 0 (USB4C02835)
Correct for Electrical Dark: No (USB4C02835)
Strobe/Lamp Enabled: No (USB4C02835)
Correct for Detector Non-linearity: No (USB4C02835)
Correct for Stray Light: No (USB4C02835)
Number of Pixels in Processed Spectrum: 3648
>>>>>Begin Processed Spectral Data<<<<<
177.47	1288.17
177.69	1288.17
177.91	1288.17
178.13	1327.08
178.36	1206.25
178.58	1312.75
178.80	1255.40
179.02	1234.93
179.24	1286.12
179.46	1259.50
179.68	1269.74
179.90	1214.45
180.13	1286.12
180.35	1153.01
180.57	1263.60
180.79	1241.07
181.01	1279.98
181.23	1312.75
181.45	1228.78
181.67	1290.22
181.90	1282.03
182.12	1251.31
182.34	1265.64
182.56	1253.36
182.78	1255.40
183.00	1220.59
183.22	1337.32
183.44	1239.02
183.66	1300.46
183.89	1249.26
184.11	1279.98
184.33	1257.45
184.55	1286.12
184.77	1200.11
184.99	1247.21
185.21	1355.76
185.43	1292.27
185.65	1314.80
185.87	1249.26
186.10	1298.41
186.32	1241.07
186.54	1292.27
186.76	1275.88
186.98	1255.40
187.20	1239.02
187.42	1257.45
187.64	1249.26
187.86	1286.12
188.08	1288.17
188.30	1232.88
188.52	1292.27
188.75	1206.25
188.97	1234.93
189.19	1214.45
189.41	1249.26
189.63	1273.84
189.85	1294.32
190.07	1224.69
190.29	1308.65
190.51	1245.16
190.73	1241.07
190.95	1234.93
191.17	1331.18
191.39	1286.12
191.61	1294.32
191.84	1218.54
192.06	1222.64
192.28	1243.12
192.50	1300.46
192.72	1265.64
192.94	1245.16
193.16	1327.08
193.38	1288.17
193.60	1263.60
193.82	1286.12
194.04	1308.65
194.26	1304.56
194.48	1273.84
194.70	1247.21
194.92	1277.93
195.14	1286.12
195.36	1249.26
195.58	1245.16
195.80	1218.54
196.02	1298.41
196.24	1265.64
196.46	1290.22
196.69	1294.32
196.91	1263.60
197.13	1265.64
197.35	1241.07
197.57	1155.05
197.79	1259.50
198.01	1265.64
198.23	1312.75
198.45	1202.16
198.67	1267.69
198.89	1267.69
199.11	1226.73
199.33	1337.32
199.55	1269.74
199.77	1243.12
199.99	1294.32
200.21	1228.78
200.43	1302.51
200.65	1337.32
200.87	1267.69
201.09	1251.31
201.31	1230.83
201.53	1232.88
201.75	1292.27
201.97	1247.21
202.19	1298.41
202.41	1282.03
202.63	1316.84
202.85	1232.88
203.07	1316.84
203.29	1208.30
203.51	1325.04
203.73	1284.08
203.95	1282.03
204.17	1320.94
204.39	1318.89
204.61	1269.74
204.83	1275.88
205.05	1259.50
205.27	1216.49
205.49	1269.74
205.71	1216.49
205.93	1185.77
206.15	1255.40
206.37	1253.36
206.59	1279.98
206.81	1282.03
207.03	1290.22
207.25	1347.56
207.47	1241.07
207.69	1218.54
207.91	1257.45
208.13	1263.60
208.34	1226.73
208.56	1179.63
208.78	1269.74
209.00	1220.59
209.22	1206.25
209.44	1210.35
209.66	1282.03
209.88	1193.97
210.10	1302.51
210.32	1312.75
210.54	1202.16
210.76	1255.40
210.98	1208.30
211.20	1251.31
211.42	1263.60
211.64	1271.79
211.86	1202.16
212.08	1251.31
212.30	1243.12
212.52	1241.07
212.74	1296.36
212.96	1189.87
213.17	1232.88
213.39	1273.84
213.61	1261.55
213.83	1288.17
214.05	1267.69
214.27	1288.17
214.49	1269.74
214.71	1304.56
214.93	1263.60
215.15	1222.64
215.37	1245.16
215.59	1196.01
215.81	1236.97
216.03	1239.02
216.24	1263.60
216.46	1161.20
216.68	1243.12
216.90	1265.64
217.12	1292.27
217.34	1304.56
217.56	1226.73
217.78	1273.84
218.00	1273.84
218.22	1257.45
218.44	1249.26
218.66	1327.08
218.87	1218.54
219.09	1257.45
219.31	1288.17
219.53	1277.93
219.75	1257.45
219.97	1241.07
220.19	1292.27
220.41	1275.88
220.63	1265.64
220.85	1320.94
221.06	1271.79
221.28	1335.28
221.50	1294.32
221.72	1265.64
221.94	1261.55
222.16	1241.07
222.38	1294.32
222.60	1269.74
222.82	1255.40
223.03	1282.03
223.25	1200.11
223.47	1271.79
223.69	1212.40
223.91	1273.84
224.13	1271.79
224.35	1318.89
224.57	1251.31
224.78	1247.21
225.00	1224.69
225.22	1314.80
225.44	1232.88
225.66	1212.40
225.88	1282.03
226.10	1234.93
226.32	1236.97
226.53	1257.45
226.75	1220.59
226.97	1269.74
227.19	1296.36
227.41	1284.08
227.63	1222.64
227.85	1312.75
228.06	1286.12
228.28	1316.84
228.50	1312.75
228.72	1286.12
228.94	1245.16
229.16	1239.02
229.37	1220.59
229.59	1208.30
229.81	1198.06
230.03	1269.74
230.25	1288.17
230.47	1202.16
230.69	1247.21
230.90	1282.03
231.12	1269.74
231.34	1247.21
231.56	1296.36
231.78	1273.84
232.00	1275.88
232.21	1353.71
232.43	1232.88
232.65	1275.88
232.87	1294.32
233.09	1243.12
233.30	1269.74
233.52	1308.65
233.74	1284.08
233.96	1282.03
234.18	1265.64
234.40	1265.64
234.61	1282.03
234.83	1302.51
235.05	1290.22
235.27	1296.36
235.49	1296.36
235.70	1290.22
235.92	1273.84
236.14	1208.30
236.36	1273.84
236.58	1253.36
236.79	1282.03
237.01	1294.32
237.23	1282.03
237.45	1265.64
237.67	1187.82
237.88	1255.40
238.10	1304.56
238.32	1249.26
238.54	1337.32
238.76	1277.93
238.97	1304.56
239.19	1202.16
239.41	1282.03
239.63	1288.17
239.85	1257.45
240.06	1239.02
240.28	1314.80
240.50	1247.21
240.72	1322.99
240.93	1234.93
241.15	1288.17
241.37	1331.18
241.59	1273.84
241.81	1339.37
242.02	1230.83
242.24	1275.88
242.46	1230.83
242.68	1288.17
242.89	1294.32
243.11	1271.79
243.33	1243.12
243.55	1292.27
243.76	1257.45
243.98	1277.93
244.20	1230.83
244.42	1300.46
244.64	1325.04
244.85	1275.88
245.07	1277.93
245.29	1353.71
245.51	1253.36
245.72	1271.79
245.94	1218.54
246.16	1296.36
246.38	1345.52
246.59	1347.56
246.81	1312.75
247.03	1290.22
247.24	1191.92
247.46	1243.12
247.68	1175.53
247.90	1247.21
248.11	1296.36
248.33	1228.78
248.55	1200.11
248.77	1224.69
248.98	1239.02
249.20	1282.03
249.42	1263.60
249.64	1294.32
249.85	1212.40
250.07	1245.16
250.29	1269.74
250.50	1208.30
250.72	1247.21
250.94	1275.88
251.16	1200.11
251.37	1255.40
251.59	1273.84
251.81	1290.22
252.02	1304.56
252.24	1265.64
252.46	1279.98
252.68	1179.63
252.89	1249.26
253.11	1232.88
253.33	1325.04
253.54	1339.37
253.76	1286.12
253.98	1347.56
254.20	1255.40
254.41	1329.13
254.63	1218.54
254.85	1288.17
255.06	1253.36
255.28	1138.67
255.50	1314.80
255.71	1312.75
255.93	1249.26
256.15	1296.36
256.36	1329.13
256.58	1153.01
256.80	1298.41
257.02	1267.69
257.23	1208.30
257.45	1200.11
257.67	1273.84
257.88	1202.16
258.10	1257.45
258.32	1232.88
258.53	1302.51
258.75	1286.12
258.97	1253.36
259.18	1269.74
259.40	1310.70
259.62	1286.12
259.83	1253.36
260.05	1370.09
260.27	1398.76
260.48	1269.74
260.70	1304.56
260.92	1300.46
261.13	1265.64
261.35	1290.22
261.57	1298.41
261.78	1277.93
262.00	1279.98
262.22	1337.32
262.43	1322.99
262.65	1265.64
262.86	1239.02
263.08	1267.69
263.30	1185.77
263.51	1183.73
263.73	1277.93
263.95	1259.50
264.16	1251.31
264.38	1189.87
264.60	1296.36
264.81	1279.98
265.03	1181.68
265.25	1261.55
265.46	1304.56
265.68	1198.06
265.89	1294.32
266.11	1196.01
266.33	1243.12
266.54	1259.50
266.76	1200.11
266.98	1257.45
267.19	1290.22
267.41	1308.65
267.62	1327.08
267.84	1253.36
268.06	1230.83
268.27	1216.49
268.49	1255.40
268.70	1224.69
268.92	1273.84
269.14	1331.18
269.35	1288.17
269.57	1302.51
269.79	1347.56
270.00	1327.08
270.22	1216.49
270.43	1331.18
270.65	1216.49
270.87	1212.40
271.08	1247.21
271.30	1234.93
271.51	1206.25
271.73	1298.41
271.95	1275.88
272.16	1292.27
272.38	1257.45
272.59	1234.93
272.81	1259.50
273.02	1290.22
273.24	1243.12
273.46	1251.31
273.67	1333.23
273.89	1216.49
274.10	1316.84
274.32	1261.55
274.54	1236.97
274.75	1267.69
274.97	1325.04
275.18	1265.64
275.40	1325.04
275.61	1218.54
275.83	1288.17
276.05	1284.08
276.26	1345.52
276.48	1247.21
276.69	1232.88
276.91	1239.02
277.12	1294.32
277.34	1376.24
277.55	1239.02
277.77	1279.98
277.99	1300.46
278.20	1265.64
278.42	1314.80
278.63	1284.08
278.85	1318.89
279.06	1275.88
279.28	1243.12
279.49	1310.70
279.71	1251.31
279.93	1277.93
280.14	1241.07
280.36	1236.97
280.57	1175.53
280.79	1247.21
281.00	1310.70
281.22	1341.42
281.43	1277.93
281.65	1241.07
281.86	1255.40
282.08	1290.22
282.29	1314.80
282.51	1218.54
282.73	1249.26
282.94	1187.82
283.16	1271.79
283.37	1247.21
283.59	1232.88
283.80	1236.97
284.02	1306.60
284.23	1257.45
284.45	1269.74
284.66	1214.45
284.88	1228.78
285.09	1257.45
285.31	1322.99
285.52	1230.83
285.74	1316.84
285.95	1275.88
286.17	1304.56
286.38	1253.36
286.60	1279.98
286.81	1261.55
287.03	1277.93
287.24	1269.74
287.46	1265.64
287.67	1245.16
287.89	1271.79
288.10	1239.02
288.32	1296.36
288.53	1204.21
288.75	1277.93
288.96	1222.64
289.18	1263.60
289.39	1308.65
289.61	1298.41
289.82	1327.08
290.04	1306.60
290.25	1234.93
290.47	1259.50
290.68	1167.34
290.90	1214.45
291.11	1275.88
291.33	1282.03
291.54	1273.84
291.76	1275.88
291.97	1267.69
292.18	1322.99
292.40	1288.17
292.61	1282.03
292.83	1234.93
293.04	1282.03
293.26	1306.60
293.47	1261.55
293.69	1288.17
293.90	1275.88
294.12	1300.46
294.33	1277.93
294.55	1306.60
294.76	1259.50
294.97	1275.88
295.19	1320.94
295.40	1216.49
295.62	1249.26
295.83	1302.51
296.05	1345.52
296.26	1224.69
296.48	1253.36
296.69	1300.46
296.90	1277.93
297.12	1230.83
297.33	1296.36
297.55	1292.27
297.76	1277.93
297.98	1304.56
298.19	1325.04
298.41	1282.03
298.62	1300.46
298.83	1279.98
299.05	1249.26
299.26	1222.64
299.48	1230.83
299.69	1220.59
299.90	1282.03
300.12	1310.70
300.33	1298.41
300.55	1279.98
300.76	1325.04
300.98	1261.55
301.19	1298.41
301.40	1337.32
301.62	1226.73
301.83	1247.21
302.05	1230.83
302.26	1304.56
302.47	1279.98
302.69	1241.07
302.90	1320.94
303.12	1191.92
303.33	1228.78
303.54	1290.22
303.76	1339.37
303.97	1275.88
304.19	1261.55
304.40	1265.64
304.61	1310.70
304.83	1247.21
305.04	1216.49
305.26	1263.60
305.47	1257.45
305.68	1253.36
305.90	1265.64
306.11	1265.64
306.33	1363.95
306.54	1232.88
306.75	1222.64
306.97	1234.93
307.18	1245.16
307.39	1275.88
307.61	1267.69
307.82	1314.80
308.04	1290.22
308.25	1312.75
308.46	1288.17
308.68	1251.31
308.89	1253.36
309.10	1304.56
309.32	1253.36
309.53	1253.36
309.74	1294.32
309.96	1277.93
310.17	1296.36
310.39	1191.92
310.60	1273.84
310.81	1296.36
311.03	1234.93
311.24	1286.12
311.45	1306.60
311.67	1345.52
311.88	1255.40
312.09	1224.69
312.31	1286.12
312.52	1269.74
312.73	1304.56
312.95	1282.03
313.16	1230.83
313.37	1191.92
313.59	1282.03
313.80	1273.84
314.01	1279.98
314.23	1267.69
314.44	1269.74
314.65	1222.64
314.87	1308.65
315.08	1294.32
315.29	1279.98
315.51	1331.18
315.72	1282.03
315.93	1306.60
316.15	1355.76
316.36	1290.22
316.57	1304.56
316.79	1271.79
317.00	1257.45
317.21	1267.69
317.43	1253.36
317.64	1255.40
317.85	1218.54
318.07	1269.74
318.28	1292.27
318.49	1249.26
318.70	1224.69
318.92	1312.75
319.13	1228.78
319.34	1306.60
319.56	1257.45
319.77	1275.88
319.98	1306.60
320.20	1249.26
320.41	1226.73
320.62	1290.22
320.83	1236.97
321.05	1290.22
321.26	1312.75
321.47	1220.59
321.69	1294.32
321.90	1273.84
322.11	1304.56
322.32	1216.49
322.54	1351.66
322.75	1265.64
322.96	1267.69
323.18	1243.12
323.39	1241.07
323.60	1271.79
323.81	1239.02
324.03	1294.32
324.24	1282.03
324.45	1282.03
324.66	1314.80
324.88	1249.26
325.09	1220.59
325.30	1279.98
325.52	1263.60
325.73	1261.55
325.94	1261.55
326.15	1243.12
326.37	1263.60
326.58	1279.98
326.79	1327.08
327.00	1232.88
327.22	1249.26
327.43	1290.22
327.64	1255.40
327.85	1341.42
328.07	1282.03
328.28	1320.94
328.49	1282.03
328.70	1310.70
328.92	1275.88
329.13	1259.50
329.34	1265.64
329.55	1279.98
329.76	1224.69
329.98	1322.99
330.19	1239.02
330.40	1196.01
330.61	1343.47
330.83	1198.06
331.04	1236.97
331.25	1261.55
331.46	1273.84
331.68	1290.22
331.89	1241.07
332.10	1271.79
332.31	1269.74
332.52	1361.90
332.74	1247.21
332.95	1269.74
333.16	1259.50
333.37	1314.80
333.58	1353.71
333.80	1290.22
334.01	1292.27
334.22	1173.49
334.43	1247.21
334.64	1312.75
334.86	1226.73
335.07	1306.60
335.28	1230.83
335.49	1193.97
335.70	1239.02
335.92	1277.93
336.13	1253.36
336.34	1239.02
336.55	1282.03
336.76	1347.56
336.98	1249.26
337.19	1290.22
337.40	1288.17
337.61	1224.69
337.82	1310.70
338.04	1234.93
338.25	1259.50
338.46	1251.31
338.67	1208.30
338.88	1171.44
339.09	1234.93
339.31	1302.51
339.52	1226.73
339.73	1271.79
339.94	1245.16
340.15	1236.97
340.36	1277.93
340.58	1302.51
340.79	1312.75
341.00	1267.69
341.21	1251.31
341.42	1196.01
341.63	1318.89
341.85	1251.31
342.06	1269.74
342.27	1273.84
342.48	1263.60
342.69	1226.73
342.90	1251.31
343.12	1306.60
343.33	1249.26
343.54	1286.12
343.75	1306.60
343.96	1304.56
344.17	1335.28
344.38	1259.50
344.60	1204.21
344.81	1271.79
345.02	1267.69
345.23	1284.08
345.44	1277.93
345.65	1279.98
345.86	1372.14
346.07	1261.55
346.29	1298.41
346.50	1279.98
346.71	1284.08
346.92	1308.65
347.13	1234.93
347.34	1292.27
347.55	1296.36
347.76	1253.36
347.98	1294.32
348.19	1267.69
348.40	1257.45
348.61	1230.83
348.82	1327.08
349.03	1300.46
349.24	1294.32
349.45	1306.60
349.66	1331.18
349.88	1263.60
350.09	1363.95
350.30	1273.84
350.51	1341.42
350.72	1247.21
350.93	1288.17
351.14	1310.70
351.35	1312.75
351.56	1265.64
351.77	1265.64
351.99	1318.89
352.20	1277.93
352.41	1239.02
352.62	1325.04
352.83	1282.03
353.04	1279.98
353.25	1257.45
353.46	1290.22
353.67	1273.84
353.88	1284.08
354.09	1228.78
354.30	1247.21
354.52	1331.18
354.73	1290.22
354.94	1279.98
355.15	1271.79
355.36	1230.83
355.57	1337.32
355.78	1245.16
355.99	1232.88
356.20	1279.98
356.41	1245.16
356.62	1200.11
356.83	1253.36
357.04	1288.17
357.25	1212.40
357.46	1249.26
357.68	1304.56
357.89	1273.84
358.10	1388.52
358.31	1222.64
358.52	1271.79
358.73	1271.79
358.94	1282.03
359.15	1279.98
359.36	1277.93
359.57	1257.45
359.78	1267.69
359.99	1224.69
360.20	1243.12
360.41	1257.45
360.62	1245.16
360.83	1222.64
361.04	1247.21
361.25	1265.64
361.46	1298.41
361.67	1239.02
361.88	1263.60
362.09	1300.46
362.30	1255.40
362.51	1239.02
362.72	1282.03
362.93	1228.78
363.14	1314.80
363.35	1298.41
363.56	1267.69
363.78	1286.12
363.99	1294.32
364.20	1300.46
364.41	1312.75
364.62	1304.56
364.83	1288.17
365.04	1232.88
365.25	1251.31
365.46	1290.22
365.67	1267.69
365.88	1290.22
366.09	1322.99
366.30	1265.64
366.51	1294.32
366.72	1273.84
366.93	1282.03
367.14	1232.88
367.35	1193.97
367.56	1202.16
367.77	1320.94
367.98	1257.45
368.18	1292.27
368.39	1292.27
368.60	1286.12
368.81	1255.40
369.02	1259.50
369.23	1181.68
369.44	1320.94
369.65	1298.41
369.86	1169.39
370.07	1228.78
370.28	1204.21
370.49	1210.35
370.70	1290.22
370.91	1255.40
371.12	1257.45
371.33	1263.60
371.54	1325.04
371.75	1183.73
371.96	1216.49
372.17	1200.11
372.38	1257.45
372.59	1298.41
372.80	1273.84
373.01	1218.54
373.22	1316.84
373.43	1228.78
373.64	1234.93
373.85	1290.22
374.06	1275.88
374.26	1271.79
374.47	1212.40
374.68	1243.12
374.89	1253.36
375.10	1310.70
375.31	1202.16
375.52	1239.02
375.73	1245.16
375.94	1279.98
376.15	1241.07
376.36	1288.17
376.57	1304.56
376.78	1218.54
376.99	1249.26
377.20	1230.83
377.40	1226.73
377.61	1269.74
377.82	1198.06
378.03	1251.31
378.24	1296.36
378.45	1269.74
378.66	1230.83
378.87	1206.25
379.08	1236.97
379.29	1212.40
379.50	1275.88
379.71	1259.50
379.91	1282.03
380.12	1279.98
380.33	1257.45
380.54	1220.59
380.75	1345.52
380.96	1269.74
381.17	1327.08
381.38	1200.11
381.59	1251.31
381.80	1257.45
382.00	1275.88
382.21	1286.12
382.42	1318.89
382.63	1261.55
382.84	1286.12
383.05	1277.93
383.26	1224.69
383.47	1232.88
383.68	1296.36
383.88	1251.31
384.09	1273.84
384.30	1214.45
384.51	1322.99
384.72	1267.69
384.93	1245.16
385.14	1286.12
385.35	1320.94
385.55	1224.69
385.76	1275.88
385.97	1267.69
386.18	1204.21
386.39	1310.70
386.60	1275.88
386.81	1308.65
387.02	1257.45
387.22	1146.86
387.43	1277.93
387.64	1290.22
387.85	1284.08
388.06	1357.80
388.27	1263.60
388.48	1206.25
388.68	1284.08
388.89	1212.40
389.10	1282.03
389.31	1277.93
389.52	1318.89
389.73	1228.78
389.93	1306.60
390.14	1228.78
390.35	1273.84
390.56	1312.75
390.77	1292.27
390.98	1245.16
391.18	1232.88
391.39	1200.11
391.60	1271.79
391.81	1290.22
392.02	1271.79
392.23	1275.88
392.43	1298.41
392.64	1286.12
392.85	1247.21
393.06	1202.16
393.27	1183.73
393.47	1269.74
393.68	1253.36
393.89	1294.32
394.10	1241.07
394.31	1193.97
394.52	1249.26
394.72	1290.22
394.93	1239.02
395.14	1271.79
395.35	1325.04
395.56	1228.78
395.76	1251.31
395.97	1228.78
396.18	1257.45
396.39	1286.12
396.60	1312.75
396.80	1236.97
397.01	1234.93
397.22	1286.12
397.43	1230.83
397.64	1302.51
397.84	1265.64
398.05	1261.55
398.26	1167.34
398.47	1269.74
398.67	1259.50
398.88	1300.46
399.09	1322.99
399.30	1230.83
399.51	1249.26
399.71	1288.17
399.92	1263.60
400.13	1271.79
400.34	1327.08
400.54	1265.64
400.75	1296.36
400.96	1257.45
401.17	1341.42
401.37	1275.88
401.58	1241.07
401.79	1261.55
402.00	1339.37
402.21	1282.03
402.41	1294.32
402.62	1275.88
402.83	1361.90
403.04	1249.26
403.24	1261.55
403.45	1251.31
403.66	1282.03
403.87	1243.12
404.07	1275.88
404.28	1230.83
404.49	1310.70
404.70	1224.69
404.90	1257.45
405.11	1239.02
405.32	1335.28
405.52	1275.88
405.73	1282.03
405.94	1290.22
406.15	1224.69
406.35	1220.59
406.56	1288.17
406.77	1275.88
406.98	1206.25
407.18	1282.03
407.39	1230.83
407.60	1200.11
407.80	1292.27
408.01	1265.64
408.22	1257.45
408.43	1257.45
408.63	1216.49
408.84	1224.69
409.05	1212.40
409.25	1224.69
409.46	1312.75
409.67	1329.13
409.88	1218.54
410.08	1241.07
410.29	1224.69
410.50	1234.93
410.70	1378.28
410.91	1282.03
411.12	1257.45
411.32	1339.37
411.53	1253.36
411.74	1232.88
411.95	1216.49
412.15	1193.97
412.36	1222.64
412.57	1277.93
412.77	1286.12
412.98	1226.73
413.19	1255.40
413.39	1236.97
413.60	1304.56
413.81	1257.45
414.01	1304.56
414.22	1265.64
414.43	1275.88
414.63	1310.70
414.84	1239.02
415.05	1216.49
415.25	1251.31
415.46	1251.31
415.67	1216.49
415.87	1267.69
416.08	1269.74
416.29	1300.46
416.49	1224.69
416.70	1302.51
416.91	1310.70
417.11	1277.93
417.32	1284.08
417.53	1292.27
417.73	1290.22
417.94	1300.46
418.15	1312.75
418.35	1263.60
418.56	1245.16
418.77	1314.80
418.97	1267.69
419.18	1269.74
419.38	1318.89
419.59	1288.17
419.80	1290.22
420.00	1208.30
420.21	1304.56
420.42	1339.37
420.62	1306.60
420.83	1220.59
421.04	1232.88
421.24	1253.36
421.45	1296.36
421.65	1273.84
421.86	1275.88
422.07	1308.65
422.27	1267.69
422.48	1284.08
422.69	1273.84
422.89	1249.26
423.10	1308.65
423.30	1327.08
423.51	1284.08
423.72	1212.40
423.92	1300.46
424.13	1302.51
424.33	1277.93
424.54	1282.03
424.75	1257.45
424.95	1251.31
425.16	1243.12
425.36	1261.55
425.57	1322.99
425.78	1234.93
425.98	1239.02
426.19	1273.84
426.39	1325.04
426.60	1206.25
426.81	1335.28
427.01	1318.89
427.22	1302.51
427.42	1198.06
427.63	1288.17
427.83	1263.60
428.04	1302.51
428.25	1273.84
428.45	1208.30
428.66	1314.80
428.86	1312.75
429.07	1271.79
429.28	1290.22
429.48	1247.21
429.69	1273.84
429.89	1286.12
430.10	1341.42
430.30	1234.93
430.51	1282.03
430.71	1265.64
430.92	1320.94
431.13	1265.64
431.33	1212.40
431.54	1308.65
431.74	1277.93
431.95	1241.07
432.15	1282.03
432.36	1255.40
432.56	1325.04
432.77	1271.79
432.98	1331.18
433.18	1216.49
433.39	1239.02
433.59	1298.41
433.80	1288.17
434.00	1226.73
434.21	1310.70
434.41	1224.69
434.62	1224.69
434.82	1306.60
435.03	1302.51
435.23	1288.17
435.44	1294.32
435.64	1255.40
435.85	1245.16
436.06	1239.02
436.26	1269.74
436.47	1282.03
436.67	1290.22
436.88	1271.79
437.08	1304.56
437.29	1286.12
437.49	1277.93
437.70	1265.64
437.90	1290.22
438.11	1316.84
438.31	1224.69
438.52	1322.99
438.72	1275.88
438.93	1255.40
439.13	1273.84
439.34	1265.64
439.54	1216.49
439.75	1243.12
439.95	1269.74
440.16	1249.26
440.36	1200.11
440.57	1353.71
440.77	1353.71
440.98	1306.60
441.18	1271.79
441.39	1314.80
441.59	1275.88
441.80	1245.16
442.00	1298.41
442.21	1304.56
442.41	1261.55
442.62	1282.03
442.82	1271.79
443.02	1253.36
443.23	1267.69
443.43	1333.23
443.64	1279.98
443.84	1318.89
444.05	1255.40
444.25	1296.36
444.46	1251.31
444.66	1249.26
444.87	1298.41
445.07	1263.60
445.28	1288.17
445.48	1230.83
445.69	1249.26
445.89	1273.84
446.09	1249.26
446.30	1271.79
446.50	1271.79
446.71	1304.56
446.91	1243.12
447.12	1265.64
447.32	1343.47
447.53	1261.55
447.73	1271.79
447.93	1314.80
448.14	1286.12
448.34	1267.69
448.55	1261.55
448.75	1265.64
448.96	1308.65
449.16	1239.02
449.36	1251.31
449.57	1279.98
449.77	1241.07
449.98	1265.64
450.18	1259.50
450.39	1292.27
450.59	1241.07
450.79	1286.12
451.00	1277.93
451.20	1241.07
451.41	1265.64
451.61	1241.07
451.81	1243.12
452.02	1282.03
452.22	1331.18
452.43	1292.27
452.63	1282.03
452.84	1306.60
453.04	1306.60
453.24	1245.16
453.45	1239.02
453.65	1282.03
453.86	1239.02
454.06	1294.32
454.26	1249.26
454.47	1337.32
454.67	1257.45
454.87	1279.98
455.08	1193.97
455.28	1275.88
455.49	1298.41
455.69	1163.25
455.89	1257.45
456.10	1226.73
456.30	1353.71
456.51	1239.02
456.71	1204.21
456.91	1279.98
457.12	1259.50
457.32	1224.69
457.52	1290.22
457.73	1241.07
457.93	1282.03
458.14	1277.93
458.34	1241.07
458.54	1247.21
458.75	1204.21
458.95	1290.22
459.15	1265.64
459.36	1347.56
459.56	1308.65
459.76	1226.73
459.97	1247.21
460.17	1249.26
460.37	1290.22
460.58	1267.69
460.78	1269.74
460.99	1196.01
461.19	1302.51
461.39	1372.14
461.60	1239.02
461.80	1253.36
462.00	1230.83
462.21	1183.73
462.41	1273.84
462.61	1218.54
462.82	1255.40
463.02	1181.68
463.22	1294.32
463.43	1300.46
463.63	1284.08
463.83	1259.50
464.04	1308.65
464.24	1273.84
464.44	1263.60
464.64	1251.31
464.85	1304.56
465.05	1316.84
465.25	1230.83
465.46	1269.74
465.66	1347.56
465.86	1247.21
466.07	1277.93
466.27	1290.22
466.47	1269.74
466.68	1214.45
466.88	1241.07
467.08	1286.12
467.29	1226.73
467.49	1257.45
467.69	1298.41
467.89	1296.36
468.10	1286.12
468.30	1284.08
468.50	1306.60
468.71	1316.84
468.91	1314.80
469.11	1249.26
469.31	1304.56
469.52	1298.41
469.72	1322.99
469.92	1204.21
470.13	1310.70
470.33	1322.99
470.53	1247.21
470.73	1296.36
470.94	1290.22
471.14	1245.16
471.34	1292.27
471.54	1300.46
471.75	1294.32
471.95	1222.64
472.15	1279.98
472.36	1269.74
472.56	1312.75
472.76	1310.70
472.96	1320.94
473.17	1322.99
473.37	1273.84
473.57	1284.08
473.77	1284.08
473.98	1273.84
474.18	1239.02
474.38	1361.90
474.58	1259.50
474.79	1275.88
474.99	1279.98
475.19	1245.16
475.39	1286.12
475.60	1288.17
475.80	1298.41
476.00	1232.88
476.20	1277.93
476.41	1236.97
476.61	1286.12
476.81	1286.12
477.01	1218.54
477.21	1308.65
477.42	1331.18
477.62	1320.94
477.82	1294.32
478.02	1265.64
478.23	1298.41
478.43	1345.52
478.63	1259.50
478.83	1249.26
479.03	1359.85
479.24	1302.51
479.44	1220.59
479.64	1302.51
479.84	1284.08
480.04	1286.12
480.25	1265.64
480.45	1306.60
480.65	1320.94
480.85	1259.50
481.06	1206.25
481.26	1224.69
481.46	1247.21
481.66	1247.21
481.86	1298.41
482.06	1322.99
482.27	1241.07
482.47	1236.97
482.67	1331.18
482.87	1294.32
483.07	1228.78
483.28	1239.02
483.48	1265.64
483.68	1345.52
483.88	1245.16
484.08	1267.69
484.29	1288.17
484.49	1298.41
484.69	1294.32
484.89	1243.12
485.09	1241.07
485.29	1212.40
485.50	1200.11
485.70	1308.65
485.90	1298.41
486.10	1275.88
486.30	1253.36
486.50	1300.46
486.71	1269.74
486.91	1263.60
487.11	1318.89
487.31	1261.55
487.51	1282.03
487.71	1277.93
487.91	1271.79
488.12	1261.55
488.32	1261.55
488.52	1236.97
488.72	1288.17
488.92	1255.40
489.12	1208.30
489.32	1253.36
489.53	1343.47
489.73	1314.80
489.93	1294.32
490.13	1322.99
490.33	1245.16
490.53	1243.12
490.73	1284.08
490.94	1220.59
491.14	1263.60
491.34	1355.76
491.54	1284.08
491.74	1374.19
491.94	1267.69
492.14	1255.40
492.34	1271.79
492.54	1290.22
492.75	1353.71
492.95	1263.60
493.15	1249.26
493.35	1265.64
493.55	1257.45
493.75	1236.97
493.95	1318.89
494.15	1290.22
494.35	1353.71
494.56	1327.08
494.76	1290.22
494.96	1267.69
495.16	1253.36
495.36	1318.89
495.56	1286.12
495.76	1210.35
495.96	1200.11
496.16	1300.46
496.36	1193.97
496.56	1175.53
496.77	1232.88
496.97	1234.93
497.17	1273.84
497.37	1232.88
497.57	1232.88
497.77	1300.46
497.97	1292.27
498.17	1279.98
498.37	1327.08
498.57	1263.60
498.77	1269.74
498.97	1255.40
499.17	1253.36
499.38	1255.40
499.58	1189.87
499.78	1232.88
499.98	1345.52
500.18	1273.84
500.38	1286.12
500.58	1294.32
500.78	1261.55
500.98	1277.93
501.18	1288.17
501.38	1265.64
501.58	1318.89
501.78	1282.03
501.98	1253.36
502.18	1300.46
502.38	1378.28
502.58	1230.83
502.78	1306.60
502.98	1267.69
503.18	1322.99
503.38	1253.36
503.59	1347.56
503.79	1308.65
503.99	1263.60
504.19	1245.16
504.39	1271.79
504.59	1300.46
504.79	1269.74
504.99	1310.70
505.19	1251.31
505.39	1273.84
505.59	1304.56
505.79	1210.35
505.99	1284.08
506.19	1253.36
506.39	1325.04
506.59	1265.64
506.79	1308.65
506.99	1269.74
507.19	1331.18
507.39	1271.79
507.59	1284.08
507.79	1208.30
507.99	1275.88
508.19	1216.49
508.39	1255.40
508.59	1279.98
508.79	1200.11
508.99	1249.26
509.19	1273.84
509.39	1265.64
509.59	1316.84
509.79	1304.56
509.99	1298.41
510.19	1322.99
510.39	1247.21
510.59	1234.93
510.79	1247.21
510.99	1298.41
511.19	1320.94
511.39	1253.36
511.59	1284.08
511.79	1261.55
511.99	1316.84
512.19	1277.93
512.38	1265.64
512.58	1288.17
512.78	1294.32
512.98	1200.11
513.18	1226.73
513.38	1292.27
513.58	1284.08
513.78	1327.08
513.98	1269.74
514.18	1263.60
514.38	1327.08
514.58	1341.42
514.78	1257.45
514.98	1296.36
515.18	1370.09
515.38	1288.17
515.58	1191.92
515.78	1290.22
515.98	1228.78
516.18	1243.12
516.38	1359.85
516.57	1193.97
516.77	1273.84
516.97	1212.40
517.17	1277.93
517.37	1277.93
517.57	1253.36
517.77	1236.97
517.97	1277.93
518.17	1322.99
518.37	1292.27
518.57	1282.03
518.77	1269.74
518.97	1286.12
519.16	1286.12
519.36	1273.84
519.56	1257.45
519.76	1318.89
519.96	1230.83
520.16	1279.98
520.36	1241.07
520.56	1300.46
520.76	1255.40
520.96	1296.36
521.16	1265.64
521.35	1308.65
521.55	1236.97
521.75	1361.90
521.95	1288.17
522.15	1292.27
522.35	1273.84
522.55	1255.40
522.75	1302.51
522.95	1259.50
523.14	1245.16
523.34	1294.32
523.54	1273.84
523.74	1298.41
523.94	1245.16
524.14	1271.79
524.34	1271.79
524.54	1251.31
524.73	1322.99
524.93	1310.70
525.13	1292.27
525.33	1198.06
525.53	1288.17
525.73	1273.84
525.93	1314.80
526.13	1265.64
526.32	1284.08
526.52	1337.32
526.72	1265.64
526.92	1216.49
527.12	1273.84
527.32	1302.51
527.52	1253.36
527.71	1222.64
527.91	1241.07
528.11	1259.50
528.31	1282.03
528.51	1236.97
528.71	1282.03
528.90	1261.55
529.10	1273.84
529.30	1267.69
529.50	1169.39
529.70	1267.69
529.90	1277.93
530.09	1331.18
530.29	1224.69
530.49	1355.76
530.69	1320.94
530.89	1296.36
531.09	1331.18
531.28	1325.04
531.48	1363.95
531.68	1318.89
531.88	1251.31
532.08	1310.70
532.28	1261.55
532.47	1275.88
532.67	1329.13
532.87	1228.78
533.07	1282.03
533.27	1245.16
533.46	1261.55
533.66	1251.31
533.86	1335.28
534.06	1310.70
534.26	1282.03
534.45	1325.04
534.65	1269.74
534.85	1306.60
535.05	1273.84
535.25	1308.65
535.44	1259.50
535.64	1302.51
535.84	1234.93
536.04	1255.40
536.24	1265.64
536.43	1284.08
536.63	1239.02
536.83	1243.12
537.03	1257.45
537.22	1220.59
537.42	1263.60
537.62	1282.03
537.82	1271.79
538.02	1308.65
538.21	1296.36
538.41	1241.07
538.61	1294.32
538.81	1277.93
539.00	1271.79
539.20	1271.79
539.40	1257.45
539.60	1181.68
539.79	1275.88
539.99	1191.92
540.19	1236.97
540.39	1275.88
540.58	1320.94
540.78	1288.17
540.98	1290.22
541.18	1261.55
541.37	1236.97
541.57	1302.51
541.77	1308.65
541.97	1265.64
542.16	1253.36
542.36	1261.55
542.56	1216.49
542.76	1284.08
542.95	1316.84
543.15	1234.93
543.35	1314.80
543.54	1277.93
543.74	1261.55
543.94	1316.84
544.14	1224.69
544.33	1312.75
544.53	1288.17
544.73	1212.40
544.93	1273.84
545.12	1351.66
545.32	1320.94
545.52	1290.22
545.71	1204.21
545.91	1310.70
546.11	1314.80
546.30	1304.56
546.50	1271.79
546.70	1279.98
546.90	1325.04
547.09	1269.74
547.29	1257.45
547.49	1198.06
547.68	1263.60
547.88	1284.08
548.08	1345.52
548.27	1220.59
548.47	1296.36
548.67	1363.95
548.87	1304.56
549.06	1263.60
549.26	1304.56
549.46	1316.84
549.65	1222.64
549.85	1265.64
550.05	1265.64
550.24	1259.50
550.44	1247.21
550.64	1273.84
550.83	1327.08
551.03	1282.03
551.23	1261.55
551.42	1325.04
551.62	1290.22
551.82	1335.28
552.01	1310.70
552.21	1331.18
552.41	1353.71
552.60	1286.12
552.80	1253.36
553.00	1294.32
553.19	1224.69
553.39	1325.04
553.59	1222.64
553.78	1290.22
553.98	1282.03
554.17	1277.93
554.37	1320.94
554.57	1298.41
554.76	1282.03
554.96	1255.40
555.16	1304.56
555.35	1222.64
555.55	1286.12
555.75	1314.80
555.94	1327.08
556.14	1261.55
556.33	1279.98
556.53	1366.00
556.73	1366.00
556.92	1218.54
557.12	1296.36
557.32	1290.22
557.51	1337.32
557.71	1294.32
557.90	1284.08
558.10	1312.75
558.30	1292.27
558.49	1273.84
558.69	1306.60
558.88	1355.76
559.08	1247.21
559.28	1277.93
559.47	1366.00
559.67	1298.41
559.86	1314.80
560.06	1234.93
560.26	1314.80
560.45	1402.86
560.65	1216.49
560.84	1224.69
561.04	1263.60
561.24	1279.98
561.43	1339.37
561.63	1312.75
561.82	1271.79
562.02	1230.83
562.22	1296.36
562.41	1267.69
562.61	1304.56
562.80	1294.32
563.00	1275.88
563.19	1380.33
563.39	1239.02
563.59	1288.17
563.78	1292.27
563.98	1320.94
564.17	1290.22
564.37	1290.22
564.56	1257.45
564.76	1282.03
564.96	1257.45
565.15	1284.08
565.35	1341.42
565.54	1239.02
565.74	1245.16
565.93	1226.73
566.13	1232.88
566.32	1304.56
566.52	1271.79
566.71	1314.80
566.91	1216.49
567.11	1226.73
567.30	1206.25
567.50	1275.88
567.69	1234.93
567.89	1310.70
568.08	1269.74
568.28	1257.45
568.47	1255.40
568.67	1277.93
568.86	1290.22
569.06	1220.59
569.25	1259.50
569.45	1269.74
569.64	1314.80
569.84	1224.69
570.04	1257.45
570.23	1271.79
570.43	1220.59
570.62	1282.03
570.82	1265.64
571.01	1243.12
571.21	1253.36
571.40	1257.45
571.60	1239.02
571.79	1306.60
571.99	1314.80
572.18	1314.80
572.38	1290.22
572.57	1298.41
572.77	1296.36
572.96	1210.35
573.16	1353.71
573.35	1341.42
573.55	1273.84
573.74	1308.65
573.94	1271.79
574.13	1243.12
574.33	1269.74
574.52	1290.22
574.71	1234.93
574.91	1314.80
575.10	1273.84
575.30	1261.55
575.49	1318.89
575.69	1290.22
575.88	1357.80
576.08	1290.22
576.27	1282.03
576.47	1279.98
576.66	1341.42
576.86	1259.50
577.05	1316.84
577.25	1271.79
577.44	1263.60
577.64	1357.80
577.83	1312.75
578.02	1269.74
578.22	1282.03
578.41	1286.12
578.61	1337.32
578.80	1361.90
579.00	1239.02
579.19	1255.40
579.39	1214.45
579.58	1269.74
579.77	1312.75
579.97	1251.31
580.16	1269.74
580.36	1318.89
580.55	1234.93
580.75	1249.26
580.94	1333.23
581.13	1312.75
581.33	1286.12
581.52	1298.41
581.72	1253.36
581.91	1304.56
582.11	1269.74
582.30	1329.13
582.49	1310.70
582.69	1345.52
582.88	1234.93
583.08	1310.70
583.27	1318.89
583.47	1275.88
583.66	1204.21
583.85	1275.88
584.05	1286.12
584.24	1228.78
584.44	1290.22
584.63	1239.02
584.82	1245.16
585.02	1296.36
585.21	1318.89
585.41	1296.36
585.60	1273.84
585.79	1263.60
585.99	1249.26
586.18	1294.32
586.37	1265.64
586.57	1357.80
586.76	1277.93
586.96	1257.45
587.15	1208.30
587.34	1316.84
587.54	1298.41
587.73	1284.08
587.93	1310.70
588.12	1284.08
588.31	1245.16
588.51	1286.12
588.70	1279.98
588.89	1241.07
589.09	1243.12
589.28	1302.51
589.47	1343.47
589.67	1232.88
589.86	1277.93
590.06	1306.60
590.25	1290.22
590.44	1249.26
590.64	1302.51
590.83	1216.49
591.02	1294.32
591.22	1347.56
591.41	1243.12
591.60	1212.40
591.80	1220.59
591.99	1282.03
592.18	1269.74
592.38	1294.32
592.57	1230.83
592.76	1265.64
592.96	1271.79
593.15	1312.75
593.34	1271.79
593.54	1247.21
593.73	1282.03
593.92	1222.64
594.12	1255.40
594.31	1230.83
594.50	1284.08
594.70	1329.13
594.89	1288.17
595.08	1302.51
595.28	1247.21
595.47	1247.21
595.66	1261.55
595.86	1204.21
596.05	1239.02
596.24	1259.50
596.43	1329.13
596.63	1290.22
596.82	1257.45
597.01	1224.69
597.21	1282.03
597.40	1263.60
597.59	1337.32
597.79	1320.94
597.98	1220.59
598.17	1210.35
598.36	1243.12
598.56	1296.36
598.75	1322.99
598.94	1294.32
599.14	1288.17
599.33	1308.65
599.52	1232.88
599.71	1296.36
599.91	1302.51
600.10	1247.21
600.29	1363.95
600.48	1361.90
600.68	1288.17
600.87	1312.75
601.06	1232.88
601.26	1306.60
601.45	1275.88
601.64	1339.37
601.83	1296.36
602.03	1294.32
602.22	1312.75
602.41	1302.51
602.60	1339.37
602.80	1263.60
602.99	1312.75
603.18	1161.20
603.37	1337.32
603.57	1255.40
603.76	1222.64
603.95	1320.94
604.14	1288.17
604.34	1275.88
604.53	1302.51
604.72	1288.17
604.91	1343.47
605.10	1306.60
605.30	1282.03
605.49	1316.84
605.68	1218.54
605.87	1282.03
606.07	1288.17
606.26	1273.84
606.45	1310.70
606.64	1304.56
606.84	1259.50
607.03	1306.60
607.22	1232.88
607.41	1239.02
607.60	1189.87
607.80	1277.93
607.99	1353.71
608.18	1282.03
608.37	1247.21
608.56	1353.71
608.76	1245.16
608.95	1341.42
609.14	1296.36
609.33	1275.88
609.52	1269.74
609.72	1249.26
609.91	1314.80
610.10	1267.69
610.29	1310.70
610.48	1314.80
610.68	1259.50
610.87	1216.49
611.06	1304.56
611.25	1288.17
611.44	1304.56
611.63	1257.45
611.83	1288.17
612.02	1222.64
612.21	1339.37
612.40	1255.40
612.59	1273.84
612.79	1333.23
612.98	1282.03
613.17	1269.74
613.36	1300.46
613.55	1384.43
613.74	1337.32
613.93	1310.70
614.13	1249.26
614.32	1318.89
614.51	1257.45
614.70	1273.84
614.89	1273.84
615.08	1265.64
615.28	1314.80
615.47	1298.41
615.66	1230.83
615.85	1275.88
616.04	1294.32
616.23	1312.75
616.42	1290.22
616.62	1273.84
616.81	1292.27
617.00	1241.07
617.19	1228.78
617.38	1222.64
617.57	1216.49
617.76	1251.31
617.95	1316.84
618.15	1255.40
618.34	1286.12
618.53	1290.22
618.72	1265.64
618.91	1265.64
619.10	1265.64
619.29	1228.78
619.48	1312.75
619.68	1290.22
619.87	1267.69
620.06	1304.56
620.25	1247.21
620.44	1277.93
620.63	1196.01
620.82	1185.77
621.01	1263.60
621.20	1259.50
621.39	1261.55
621.59	1286.12
621.78	1288.17
621.97	1259.50
622.16	1347.56
622.35	1298.41
622.54	1308.65
622.73	1282.03
622.92	1275.88
623.11	1247.21
623.30	1292.27
623.49	1175.53
623.68	1292.27
623.88	1239.02
624.07	1275.88
624.26	1296.36
624.45	1288.17
624.64	1249.26
624.83	1331.18
625.02	1294.32
625.21	1345.52
625.40	1212.40
625.59	1306.60
625.78	1277.93
625.97	1363.95
626.16	1308.65
626.35	1288.17
626.54	1302.51
626.74	1345.52
626.93	1327.08
627.12	1263.60
627.31	1318.89
627.50	1257.45
627.69	1339.37
627.88	1327.08
628.07	1263.60
628.26	1300.46
628.45	1298.41
628.64	1236.97
628.83	1267.69
629.02	1304.56
629.21	1269.74
629.40	1353.71
629.59	1316.84
629.78	1300.46
629.97	1286.12
630.16	1322.99
630.35	1290.22
630.54	1241.07
630.73	1261.55
630.92	1224.69
631.11	1308.65
631.30	1331.18
631.49	1400.81
631.68	1841.12
631.87	2688.98
632.06	5048.24
632.25	8146.82
632.44	15349.53
632.63	27344.48
632.82	35954.14
633.01	22746.79
633.20	7825.29
633.39	4483.00
633.58	3373.00
633.77	2621.40
633.96	2127.84
634.15	2021.35
634.34	1867.75
634.53	1804.26
634.72	1720.29
634.91	1544.17
635.10	1572.84
635.29	1552.36
635.48	1548.26
635.67	1521.64
635.86	1484.78
636.05	1402.86
636.24	1400.81
636.43	1392.62
636.62	1402.86
636.81	1296.36
637.00	1308.65
637.19	1400.81
637.38	1327.08
637.57	1277.93
637.76	1259.50
637.95	1290.22
638.14	1327.08
638.33	1189.87
638.52	1277.93
638.71	1267.69
638.89	1304.56
639.08	1306.60
639.27	1290.22
639.46	1267.69
639.65	1333.23
639.84	1257.45
640.03	1273.84
640.22	1320.94
640.41	1325.04
640.60	1263.60
640.79	1290.22
640.98	1361.90
641.17	1306.60
641.36	1236.97
641.55	1267.69
641.74	1318.89
641.92	1304.56
642.11	1279.98
642.30	1306.60
642.49	1245.16
642.68	1263.60
642.87	1234.93
643.06	1300.46
643.25	1304.56
643.44	1243.12
643.63	1277.93
643.82	1355.76
644.00	1386.47
644.19	1337.32
644.38	1357.80
644.57	1320.94
644.76	1265.64
644.95	1241.07
645.14	1318.89
645.33	1312.75
645.52	1269.74
645.71	1224.69
645.89	1341.42
646.08	1271.79
646.27	1322.99
646.46	1286.12
646.65	1284.08
646.84	1234.93
647.03	1257.45
647.22	1261.55
647.40	1251.31
647.59	1294.32
647.78	1304.56
647.97	1312.75
648.16	1232.88
648.35	1314.80
648.54	1259.50
648.73	1259.50
648.91	1341.42
649.10	1294.32
649.29	1320.94
649.48	1320.94
649.67	1206.25
649.86	1312.75
650.05	1269.74
650.23	1255.40
650.42	1333.23
650.61	1302.51
650.80	1292.27
650.99	1314.80
651.18	1310.70
651.36	1279.98
651.55	1282.03
651.74	1288.17
651.93	1263.60
652.12	1218.54
652.31	1284.08
652.49	1353.71
652.68	1310.70
652.87	1275.88
653.06	1259.50
653.25	1255.40
653.44	1261.55
653.62	1320.94
653.81	1296.36
654.00	1163.25
654.19	1282.03
654.38	1286.12
654.56	1286.12
654.75	1288.17
654.94	1245.16
655.13	1261.55
655.32	1257.45
655.51	1300.46
655.69	1273.84
655.88	1292.27
656.07	1212.40
656.26	1282.03
656.45	1282.03
656.63	1322.99
656.82	1273.84
657.01	1304.56
657.20	1269.74
657.38	1271.79
657.57	1275.88
657.76	1236.97
657.95	1298.41
658.14	1306.60
658.32	1279.98
658.51	1241.07
658.70	1304.56
658.89	1304.56
659.08	1312.75
659.26	1306.60
659.45	1226.73
659.64	1302.51
659.83	1320.94
660.01	1247.21
660.20	1282.03
660.39	1292.27
660.58	1251.31
660.76	1236.97
660.95	1275.88
661.14	1294.32
661.33	1267.69
661.51	1210.35
661.70	1191.92
661.89	1300.46
662.08	1234.93
662.26	1304.56
662.45	1236.97
662.64	1341.42
662.83	1208.30
663.01	1337.32
663.20	1318.89
663.39	1284.08
663.58	1239.02
663.76	1339.37
663.95	1243.12
664.14	1265.64
664.32	1269.74
664.51	1267.69
664.70	1236.97
664.89	1263.60
665.07	1347.56
665.26	1263.60
665.45	1275.88
665.64	1198.06
665.82	1308.65
666.01	1298.41
666.20	1263.60
666.38	1273.84
666.57	1193.97
666.76	1310.70
666.95	1261.55
667.13	1279.98
667.32	1267.69
667.51	1294.32
667.69	1224.69
667.88	1230.83
668.07	1282.03
668.25	1273.84
668.44	1212.40
668.63	1241.07
668.81	1241.07
669.00	1347.56
669.19	1318.89
669.38	1277.93
669.56	1173.49
669.75	1292.27
669.94	1183.73
670.12	1265.64
670.31	1265.64
670.50	1275.88
670.68	1224.69
670.87	1273.84
671.06	1247.21
671.24	1249.26
671.43	1224.69
671.62	1312.75
671.80	1257.45
671.99	1269.74
672.18	1279.98
672.36	1320.94
672.55	1269.74
672.74	1234.93
672.92	1265.64
673.11	1322.99
673.29	1212.40
673.48	1261.55
673.67	1284.08
673.85	1329.13
674.04	1314.80
674.23	1271.79
674.41	1310.70
674.60	1273.84
674.79	1314.80
674.97	1167.34
675.16	1193.97
675.34	1273.84
675.53	1234.93
675.72	1275.88
675.90	1288.17
676.09	1298.41
676.28	1216.49
676.46	1277.93
676.65	1298.41
676.83	1243.12
677.02	1245.16
677.21	1271.79
677.39	1288.17
677.58	1325.04
677.77	1341.42
677.95	1267.69
678.14	1245.16
678.32	1251.31
678.51	1300.46
678.70	1378.28
678.88	1249.26
679.07	1298.41
679.25	1275.88
679.44	1269.74
679.63	1218.54
679.81	1255.40
680.00	1275.88
680.18	1327.08
680.37	1284.08
680.55	1322.99
680.74	1226.73
680.93	1222.64
681.11	1249.26
681.30	1290.22
681.48	1224.69
681.67	1263.60
681.85	1236.97
682.04	1202.16
682.23	1265.64
682.41	1331.18
682.60	1288.17
682.78	1206.25
682.97	1241.07
683.15	1255.40
683.34	1304.56
683.53	1363.95
683.71	1251.31
683.90	1282.03
684.08	1296.36
684.27	1257.45
684.45	1198.06
684.64	1249.26
684.82	1308.65
685.01	1275.88
685.19	1200.11
685.38	1259.50
685.57	1234.93
685.75	1269.74
685.94	1300.46
686.12	1359.85
686.31	1239.02
686.49	1243.12
686.68	1259.50
686.86	1318.89
687.05	1232.88
687.23	1355.76
687.42	1265.64
687.60	1277.93
687.79	1247.21
687.97	1296.36
688.16	1314.80
688.34	1247.21
688.53	1337.32
688.71	1322.99
688.90	1284.08
689.08	1312.75
689.27	1312.75
689.45	1206.25
689.64	1230.83
689.82	1236.97
690.01	1310.70
690.19	1288.17
690.38	1265.64
690.56	1245.16
690.75	1296.36
690.93	1286.12
691.12	1277.93
691.30	1216.49
691.49	1245.16
691.67	1208.30
691.86	1253.36
692.04	1243.12
692.23	1357.80
692.41	1239.02
692.60	1232.88
692.78	1171.44
692.97	1255.40
693.15	1265.64
693.34	1249.26
693.52	1257.45
693.71	1245.16
693.89	1290.22
694.08	1290.22
694.26	1288.17
694.44	1245.16
694.63	1288.17
694.81	1253.36
695.00	1224.69
695.18	1310.70
695.37	1282.03
695.55	1306.60
695.74	1341.42
695.92	1261.55
696.10	1273.84
696.29	1314.80
696.47	1275.88
696.66	1251.31
696.84	1247.21
697.03	1353.71
697.21	1298.41
697.40	1306.60
697.58	1273.84
697.76	1247.21
697.95	1243.12
698.13	1173.49
698.32	1236.97
698.50	1329.13
698.68	1265.64
698.87	1253.36
699.05	1279.98
699.24	1269.74
699.42	1298.41
699.61	1277.93
699.79	1263.60
699.97	1286.12
700.16	1308.65
700.34	1296.36
700.53	1220.59
700.71	1247.21
700.89	1204.21
701.08	1279.98
701.26	1357.80
701.45	1292.27
701.63	1296.36
701.81	1265.64
702.00	1310.70
702.18	1255.40
702.37	1255.40
702.55	1318.89
702.73	1343.47
702.92	1261.55
703.10	1243.12
703.28	1241.07
703.47	1263.60
703.65	1282.03
703.84	1292.27
704.02	1255.40
704.20	1222.64
704.39	1294.32
704.57	1302.51
704.75	1282.03
704.94	1314.80
705.12	1210.35
705.30	1220.59
705.49	1327.08
705.67	1263.60
705.86	1263.60
706.04	1236.97
706.22	1298.41
706.41	1245.16
706.59	1298.41
706.77	1247.21
706.96	1253.36
707.14	1216.49
707.32	1214.45
707.51	1279.98
707.69	1302.51
707.87	1247.21
708.06	1245.16
708.24	1380.33
708.42	1245.16
708.61	1245.16
708.79	1308.65
708.97	1230.83
709.16	1286.12
709.34	1261.55
709.52	1243.12
709.71	1286.12
709.89	1294.32
710.07	1271.79
710.26	1290.22
710.44	1273.84
710.62	1245.16
710.80	1228.78
710.99	1239.02
711.17	1261.55
711.35	1249.26
711.54	1290.22
711.72	1282.03
711.90	1312.75
712.09	1267.69
712.27	1218.54
712.45	1347.56
712.63	1322.99
712.82	1241.07
713.00	1257.45
713.18	1269.74
713.37	1273.84
713.55	1290.22
713.73	1239.02
713.91	1191.92
714.10	1300.46
714.28	1249.26
714.46	1292.27
714.65	1234.93
714.83	1282.03
715.01	1282.03
715.19	1304.56
715.38	1351.66
715.56	1292.27
715.74	1335.28
715.92	1212.40
716.11	1288.17
716.29	1230.83
716.47	1245.16
716.65	1249.26
716.84	1284.08
717.02	1259.50
717.20	1251.31
717.38	1298.41
717.57	1273.84
717.75	1247.21
717.93	1277.93
718.11	1282.03
718.30	1251.31
718.48	1245.16
718.66	1189.87
718.84	1257.45
719.03	1312.75
719.21	1245.16
719.39	1271.79
719.57	1306.60
719.75	1257.45
719.94	1335.28
720.12	1296.36
720.30	1245.16
720.48	1265.64
720.67	1290.22
720.85	1161.20
721.03	1267.69
721.21	1239.02
721.39	1298.41
721.58	1218.54
721.76	1298.41
721.94	1306.60
722.12	1306.60
722.30	1232.88
722.49	1298.41
722.67	1208.30
722.85	1333.23
723.03	1226.73
723.21	1239.02
723.40	1239.02
723.58	1286.12
723.76	1247.21
723.94	1232.88
724.12	1302.51
724.30	1296.36
724.49	1241.07
724.67	1282.03
724.85	1273.84
725.03	1255.40
725.21	1273.84
725.40	1275.88
725.58	1247.21
725.76	1214.45
725.94	1351.66
726.12	1239.02
726.30	1263.60
726.49	1269.74
726.67	1251.31
726.85	1306.60
727.03	1304.56
727.21	1261.55
727.39	1247.21
727.57	1275.88
727.76	1241.07
727.94	1335.28
728.12	1318.89
728.30	1275.88
728.48	1241.07
728.66	1220.59
728.84	1279.98
729.03	1273.84
729.21	1251.31
729.39	1265.64
729.57	1200.11
729.75	1224.69
729.93	1220.59
730.11	1259.50
730.30	1286.12
730.48	1294.32
730.66	1257.45
730.84	1292.27
731.02	1294.32
731.20	1306.60
731.38	1316.84
731.56	1257.45
731.74	1239.02
731.93	1343.47
732.11	1331.18
732.29	1284.08
732.47	1312.75
732.65	1245.16
732.83	1277.93
733.01	1318.89
733.19	1253.36
733.37	1230.83
733.56	1284.08
733.74	1247.21
733.92	1329.13
734.10	1353.71
734.28	1222.64
734.46	1206.25
734.64	1261.55
734.82	1253.36
735.00	1333.23
735.18	1257.45
735.36	1265.64
735.54	1269.74
735.73	1263.60
735.91	1206.25
736.09	1277.93
736.27	1290.22
736.45	1304.56
736.63	1232.88
736.81	1327.08
736.99	1314.80
737.17	1277.93
737.35	1247.21
737.53	1296.36
737.71	1241.07
737.89	1261.55
738.07	1230.83
738.25	1284.08
738.43	1259.50
738.61	1187.82
738.80	1224.69
738.98	1288.17
739.16	1243.12
739.34	1304.56
739.52	1306.60
739.70	1249.26
739.88	1239.02
740.06	1415.15
740.24	1370.09
740.42	1316.84
740.60	1232.88
740.78	1214.45
740.96	1310.70
741.14	1288.17
741.32	1314.80
741.50	1228.78
741.68	1288.17
741.86	1398.76
742.04	1245.16
742.22	1236.97
742.40	1320.94
742.58	1302.51
742.76	1214.45
742.94	1296.36
743.12	1265.64
743.30	1257.45
743.48	1261.55
743.66	1239.02
743.84	1302.51
744.02	1257.45
744.20	1241.07
744.38	1284.08
744.56	1273.84
744.74	1234.93
744.92	1306.60
745.10	1288.17
745.28	1265.64
745.46	1308.65
745.64	1306.60
745.82	1269.74
746.00	1298.41
746.18	1294.32
746.36	1316.84
746.54	1277.93
746.72	1265.64
746.90	1177.58
747.08	1249.26
747.26	1259.50
747.44	1279.98
747.62	1198.06
747.80	1249.26
747.98	1300.46
748.15	1308.65
748.33	1265.64
748.51	1378.28
748.69	1277.93
748.87	1327.08
749.05	1310.70
749.23	1257.45
749.41	1294.32
749.59	1286.12
749.77	1259.50
749.95	1263.60
750.13	1216.49
750.31	1290.22
750.49	1282.03
750.67	1273.84
750.85	1232.88
751.03	1247.21
751.20	1279.98
751.38	1271.79
751.56	1263.60
751.74	1234.93
751.92	1249.26
752.10	1279.98
752.28	1200.11
752.46	1216.49
752.64	1247.21
752.82	1249.26
753.00	1312.75
753.18	1212.40
753.35	1261.55
753.53	1261.55
753.71	1239.02
753.89	1216.49
754.07	1275.88
754.25	1316.84
754.43	1236.97
754.61	1298.41
754.79	1241.07
754.97	1241.07
755.14	1302.51
755.32	1275.88
755.50	1302.51
755.68	1263.60
755.86	1236.97
756.04	1208.30
756.22	1255.40
756.40	1327.08
756.57	1255.40
756.75	1247.21
756.93	1308.65
757.11	1290.22
757.29	1279.98
757.47	1312.75
757.65	1380.33
757.82	1288.17
758.00	1251.31
758.18	1277.93
758.36	1288.17
758.54	1259.50
758.72	1171.44
758.90	1261.55
759.07	1282.03
759.25	1232.88
759.43	1267.69
759.61	1310.70
759.79	1396.71
759.97	1279.98
760.15	1290.22
760.32	1333.23
760.50	1318.89
760.68	1294.32
760.86	1302.51
761.04	1271.79
761.22	1370.09
761.39	1265.64
761.57	1257.45
761.75	1271.79
761.93	1171.44
762.11	1228.78
762.28	1232.88
762.46	1257.45
762.64	1191.92
762.82	1294.32
763.00	1247.21
763.18	1212.40
763.35	1314.80
763.53	1277.93
763.71	1263.60
763.89	1263.60
764.07	1314.80
764.24	1282.03
764.42	1224.69
764.60	1222.64
764.78	1288.17
764.96	1243.12
765.13	1298.41
765.31	1232.88
765.49	1288.17
765.67	1208.30
765.84	1245.16
766.02	1220.59
766.20	1249.26
766.38	1245.16
766.56	1202.16
766.73	1300.46
766.91	1322.99
767.09	1277.93
767.27	1257.45
767.44	1263.60
767.62	1234.93
767.80	1304.56
767.98	1212.40
768.15	1243.12
768.33	1271.79
768.51	1208.30
768.69	1247.21
768.87	1304.56
769.04	1171.44
769.22	1249.26
769.40	1261.55
769.58	1282.03
769.75	1241.07
769.93	1318.89
770.11	1277.93
770.28	1300.46
770.46	1208.30
770.64	1204.21
770.82	1187.82
770.99	1216.49
771.17	1249.26
771.35	1230.83
771.53	1357.80
771.70	1284.08
771.88	1224.69
772.06	1304.56
772.23	1261.55
772.41	1236.97
772.59	1157.10
772.77	1273.84
772.94	1261.55
773.12	1292.27
773.30	1204.21
773.47	1271.79
773.65	1294.32
773.83	1267.69
774.01	1349.61
774.18	1298.41
774.36	1189.87
774.54	1165.29
774.71	1284.08
774.89	1216.49
775.07	1228.78
775.24	1284.08
775.42	1314.80
775.60	1247.21
775.78	1245.16
775.95	1206.25
776.13	1302.51
776.31	1263.60
776.48	1308.65
776.66	1366.00
776.84	1302.51
777.01	1282.03
777.19	1290.22
777.37	1232.88
777.54	1308.65
777.72	1230.83
777.90	1271.79
778.07	1277.93
778.25	1335.28
778.43	1236.97
778.60	1298.41
778.78	1314.80
778.96	1292.27
779.13	1277.93
779.31	1265.64
779.49	1239.02
779.66	1279.98
779.84	1294.32
780.01	1245.16
780.19	1220.59
780.37	1247.21
780.54	1208.30
780.72	1220.59
780.90	1198.06
781.07	1228.78
781.25	1304.56
781.43	1277.93
781.60	1257.45
781.78	1325.04
781.95	1277.93
782.13	1251.31
782.31	1325.04
782.48	1189.87
782.66	1157.10
782.83	1265.64
783.01	1325.04
783.19	1191.92
783.36	1249.26
783.54	1294.32
783.72	1241.07
783.89	1218.54
784.07	1208.30
784.24	1257.45
784.42	1251.31
784.60	1245.16
784.77	1277.93
784.95	1277.93
785.12	1355.76
785.30	1298.41
785.47	1241.07
785.65	1243.12
785.83	1183.73
786.00	1292.27
786.18	1275.88
786.35	1234.93
786.53	1302.51
786.71	1241.07
786.88	1273.84
787.06	1314.80
787.23	1218.54
787.41	1290.22
787.58	1298.41
787.76	1290.22
787.94	1265.64
788.11	1288.17
788.29	1284.08
788.46	1339.37
788.64	1269.74
788.81	1210.35
788.99	1224.69
789.16	1251.31
789.34	1239.02
789.52	1253.36
789.69	1304.56
789.87	1265.64
790.04	1310.70
790.22	1306.60
790.39	1271.79
790.57	1286.12
790.74	1241.07
790.92	1263.60
791.09	1232.88
791.27	1271.79
791.44	1220.59
791.62	1234.93
791.79	1249.26
791.97	1257.45
792.15	1320.94
792.32	1312.75
792.50	1279.98
792.67	1224.69
792.85	1288.17
793.02	1294.32
793.20	1331.18
793.37	1236.97
793.55	1329.13
793.72	1230.83
793.90	1279.98
794.07	1202.16
794.25	1245.16
794.42	1198.06
794.60	1282.03
794.77	1202.16
794.95	1239.02
795.12	1257.45
795.30	1314.80
795.47	1200.11
795.65	1275.88
795.82	1175.53
796.00	1271.79
796.17	1202.16
796.34	1331.18
796.52	1239.02
796.69	1212.40
796.87	1329.13
797.04	1290.22
797.22	1308.65
797.39	1320.94
797.57	1265.64
797.74	1279.98
797.92	1296.36
798.09	1269.74
798.27	1288.17
798.44	1214.45
798.62	1263.60
798.79	1277.93
798.96	1273.84
799.14	1265.64
799.31	1294.32
799.49	1275.88
799.66	1259.50
799.84	1282.03
800.01	1189.87
800.19	1261.55
800.36	1216.49
800.53	1284.08
800.71	1228.78
800.88	1296.36
801.06	1302.51
801.23	1296.36
801.41	1271.79
801.58	1282.03
801.75	1216.49
801.93	1312.75
802.10	1284.08
802.28	1224.69
802.45	1232.88
802.63	1249.26
802.80	1187.82
802.97	1267.69
803.15	1294.32
803.32	1239.02
803.50	1282.03
803.67	1234.93
803.84	1304.56
804.02	1196.01
804.19	1286.12
804.37	1265.64
804.54	1290.22
804.71	1185.77
804.89	1261.55
805.06	1241.07
805.24	1234.93
805.41	1279.98
805.58	1290.22
805.76	1294.32
805.93	1284.08
806.10	1329.13
806.28	1263.60
806.45	1284.08
806.63	1271.79
806.80	1300.46
806.97	1288.17
807.15	1273.84
807.32	1314.80
807.49	1263.60
807.67	1257.45
807.84	1253.36
808.01	1284.08
808.19	1216.49
808.36	1288.17
808.54	1273.84
808.71	1275.88
808.88	1234.93
809.06	1294.32
809.23	1306.60
809.40	1296.36
809.58	1206.25
809.75	1220.59
809.92	1257.45
810.10	1292.27
810.27	1273.84
810.44	1327.08
810.62	1298.41
810.79	1232.88
810.96	1234.93
811.14	1322.99
811.31	1232.88
811.48	1292.27
811.66	1239.02
811.83	1294.32
812.00	1249.26
812.18	1298.41
812.35	1300.46
812.52	1210.35
812.69	1214.45
812.87	1253.36
813.04	1279.98
813.21	1327.08
813.39	1269.74
813.56	1267.69
813.73	1331.18
813.91	1253.36
814.08	1306.60
814.25	1314.80
814.42	1239.02
814.60	1271.79
814.77	1337.32
814.94	1333.23
815.12	1232.88
815.29	1249.26
815.46	1200.11
815.63	1284.08
815.81	1234.93
815.98	1271.79
816.15	1298.41
816.33	1245.16
816.50	1314.80
816.67	1200.11
816.84	1216.49
817.02	1290.22
817.19	1273.84
817.36	1193.97
817.53	1288.17
817.71	1228.78
817.88	1300.46
818.05	1316.84
818.22	1216.49
818.40	1232.88
818.57	1232.88
818.74	1290.22
818.91	1218.54
819.09	1216.49
819.26	1384.43
819.43	1286.12
819.60	1241.07
819.78	1216.49
819.95	1298.41
820.12	1275.88
820.29	1322.99
820.47	1302.51
820.64	1220.59
820.81	1271.79
820.98	1224.69
821.15	1243.12
821.33	1341.42
821.50	1224.69
821.67	1308.65
821.84	1189.87
822.02	1239.02
822.19	1271.79
822.36	1251.31
822.53	1236.97
822.70	1249.26
822.88	1245.16
823.05	1253.36
823.22	1296.36
823.39	1279.98
823.56	1257.45
823.74	1255.40
823.91	1294.32
824.08	1255.40
824.25	1253.36
824.42	1290.22
824.60	1288.17
824.77	1269.74
824.94	1312.75
825.11	1292.27
825.28	1241.07
825.45	1198.06
825.63	1286.12
825.80	1290.22
825.97	1251.31
826.14	1216.49
826.31	1228.78
826.48	1286.12
826.66	1316.84
826.83	1261.55
827.00	1265.64
827.17	1337.32
827.34	1298.41
827.51	1208.30
827.69	1282.03
827.86	1273.84
828.03	1267.69
828.20	1282.03
828.37	1267.69
828.54	1331.18
828.71	1230.83
828.89	1296.36
829.06	1247.21
829.23	1275.88
829.40	1275.88
829.57	1247.21
829.74	1257.45
829.91	1292.27
830.09	1222.64
830.26	1304.56
830.43	1398.76
830.60	1263.60
830.77	1286.12
830.94	1302.51
831.11	1263.60
831.28	1259.50
831.46	1314.80
831.63	1247.21
831.80	1236.97
831.97	1302.51
832.14	1249.26
832.31	1298.41
832.48	1300.46
832.65	1263.60
832.82	1206.25
832.99	1294.32
833.17	1185.77
833.34	1327.08
833.51	1241.07
833.68	1255.40
833.85	1228.78
834.02	1292.27
834.19	1202.16
834.36	1339.37
834.53	1222.64
834.70	1294.32
834.87	1255.40
835.04	1189.87
835.22	1322.99
835.39	1202.16
835.56	1230.83
835.73	1312.75
835.90	1263.60
836.07	1224.69
836.24	1261.55
836.41	1282.03
836.58	1169.39
836.75	1232.88
836.92	1277.93
837.09	1255.40
837.26	1302.51
837.43	1232.88
837.60	1261.55
837.77	1294.32
837.94	1286.12
838.12	1275.88
838.29	1222.64
838.46	1214.45
838.63	1286.12
838.80	1282.03
838.97	1277.93
839.14	1304.56
839.31	1306.60
839.48	1286.12
839.65	1318.89
839.82	1322.99
839.99	1187.82
840.16	1296.36
840.33	1380.33
840.50	1257.45
840.67	1277.93
840.84	1300.46
841.01	1314.80
841.18	1249.26
841.35	1288.17
841.52	1198.06
841.69	1179.63
841.86	1275.88
842.03	1279.98
842.20	1288.17
842.37	1247.21
842.54	1249.26
842.71	1339.37
842.88	1277.93
843.05	1251.31
843.22	1304.56
843.39	1179.63
843.56	1202.16
843.73	1320.94
843.90	1296.36
844.07	1263.60
844.24	1261.55
844.41	1179.63
844.58	1263.60
844.75	1290.22
844.92	1259.50
845.09	1306.60
845.26	1282.03
845.43	1292.27
845.60	1243.12
845.77	1290.22
845.94	1185.77
846.10	1294.32
846.27	1335.28
846.44	1298.41
846.61	1261.55
846.78	1277.93
846.95	1339.37
847.12	1273.84
847.29	1239.02
847.46	1245.16
847.63	1218.54
847.80	1282.03
847.97	1124.33
848.14	1273.84
848.31	1173.49
848.48	1314.80
848.65	1284.08
848.82	1292.27
848.98	1255.40
849.15	1263.60
849.32	1271.79
849.49	1220.59
849.66	1247.21
849.83	1327.08
850.00	1320.94
850.17	1294.32
850.34	1226.73
850.51	1241.07
850.68	1226.73
850.85	1331.18
851.01	1296.36
851.18	1279.98
851.35	1314.80
851.52	1206.25
851.69	1185.77
851.86	1271.79
852.03	1267.69
852.20	1257.45
852.37	1316.84
852.53	1261.55
852.70	1339.37
852.87	1284.08
853.04	1212.40
853.21	1294.32
853.38	1265.64
853.55	1329.13
853.72	1312.75
853.89	1294.32
854.05	1226.73
854.22	1267.69
854.39	1255.40
854.56	1275.88
854.73	1271.79
854.90	1310.70
855.07	1286.12
855.23	1255.40
855.40	1277.93
855.57	1275.88
855.74	1226.73
855.91	1302.51
856.08	1249.26
856.25	1224.69
856.41	1236.97
856.58	1282.03
856.75	1320.94
856.92	1200.11
857.09	1331.18
857.26	1222.64
857.42	1310.70
857.59	1249.26
857.76	1331.18
857.93	1304.56
858.10	1228.78
858.27	1245.16
858.43	1187.82
858.60	1282.03
858.77	1255.40
858.94	1275.88
859.11	1230.83
859.27	1236.97
859.44	1228.78
859.61	1312.75
859.78	1232.88
859.95	1241.07
860.12	1290.22
860.28	1294.32
860.45	1308.65
860.62	1259.50
860.79	1251.31
860.95	1218.54
861.12	1269.74
861.29	1294.32
861.46	1251.31
861.63	1255.40
861.79	1261.55
861.96	1355.76
862.13	1191.92
862.30	1273.84
862.47	1218.54
862.63	1325.04
862.80	1245.16
862.97	1216.49
863.14	1384.43
863.30	1308.65
863.47	1208.30
863.64	1312.75
863.81	1265.64
863.97	1257.45
864.14	1294.32
864.31	1241.07
864.48	1245.16
864.65	1232.88
864.81	1263.60
864.98	1329.13
865.15	1257.45
865.32	1308.65
865.48	1245.16
865.65	1312.75
865.82	1275.88
865.98	1292.27
866.15	1294.32
866.32	1216.49
866.49	1243.12
866.65	1251.31
866.82	1232.88
866.99	1241.07
867.16	1275.88
867.32	1269.74
867.49	1255.40
867.66	1261.55
867.83	1275.88
867.99	1198.06
868.16	1263.60
868.33	1320.94
868.49	1284.08
868.66	1343.47
868.83	1304.56
868.99	1136.62
869.16	1310.70
869.33	1284.08
869.50	1300.46
869.66	1241.07
869.83	1282.03
870.00	1228.78
870.16	1261.55
870.33	1214.45
870.50	1275.88
870.66	1218.54
870.83	1343.47
871.00	1296.36
871.17	1230.83
871.33	1286.12
871.50	1167.34
871.67	1318.89
871.83	1196.01
872.00	1232.88
872.17	1292.27
872.33	1415.15
872.50	1150.96
872.67	1290.22
872.83	1271.79
873.00	1335.28
873.17	1259.50
873.33	1296.36
873.50	1181.68
873.67	1259.50
873.83	1251.31
874.00	1232.88
874.16	1265.64
874.33	1236.97
874.50	1298.41
874.66	1308.65
874.83	1292.27
875.00	1265.64
875.16	1228.78
875.33	1243.12
875.50	1265.64
875.66	1279.98
875.83	1269.74
875.99	1257.45
876.16	1290.22
876.33	1306.60
876.49	1277.93
876.66	1384.43
876.83	1247.21
876.99	1290.22
877.16	1230.83
877.32	1312.75
877.49	1341.42
877.66	1306.60
877.82	1292.27
877.99	1282.03
878.15	1259.50
878.32	1200.11
878.49	1335.28
878.65	1226.73
878.82	1349.61
878.98	1271.79
879.15	1306.60
879.32	1245.16
879.48	1269.74
879.65	1247.21
879.81	1275.88
879.98	1255.40
880.15	1288.17
880.31	1284.08
880.48	1282.03
880.64	1216.49
880.81	1275.88
880.97	1249.26
881.14	1284.08
881.31	1236.97
881.47	1234.93
881.64	1294.32
881.80	1304.56
881.97	1253.36
882.13	1218.54
882.30	1230.83
882.47	1261.55
882.63	1322.99
882.80	1239.02
882.96	1253.36
883.13	1318.89
883.29	1265.64
883.46	1290.22
883.62	1269.74
883.79	1333.23
883.95	1294.32
884.12	1267.69
884.29	1255.40
884.45	1298.41
884.62	1269.74
884.78	1218.54
884.95	1263.60
885.11	1259.50
885.28	1222.64
885.44	1236.97
885.61	1267.69
885.77	1302.51
885.94	1232.88
886.10	1169.39
886.27	1308.65
886.43	1249.26
886.60	1345.52
886.76	1220.59
886.93	1222.64
887.09	1296.36
887.26	1226.73
887.42	1265.64
887.59	1259.50
887.75	1312.75
887.92	1277.93
888.08	1267.69
888.25	1243.12
888.41	1247.21
888.58	1296.36
888.74	1226.73
888.91	1220.59
>>>>>End Processed Spectral Data<<<<<
