SpectraSuite Data File
++++++++++++++++++++++++++++++++++++
Date: Sun Apr 03 19:55:15 CEST 2016
User: root
Dark Spectrum Present: No
Reference Spectrum Present: No
Number of Sampled Component Spectra: 1
Spectrometers: USB4C02835
Integration Time (usec): 10000 (USB4C02835)
Spectra Averaged: 1 (USB4C02835)
Boxcar Smoothing: 0 (USB4C02835)
Correct for Electrical Dark: No (USB4C02835)
Strobe/Lamp Enabled: No (USB4C02835)
Correct for Detector Non-linearity: No (USB4C02835)
Correct for Stray Light: No (USB4C02835)
Number of Pixels in Processed Spectrum: 3648
>>>>>Begin Processed Spectral Data<<<<<
177.47	1306.60
177.69	1306.60
177.91	1306.60
178.13	1236.97
178.36	1275.88
178.58	1286.12
178.80	1253.36
179.02	1314.80
179.24	1206.25
179.46	1230.83
179.68	1277.93
179.90	1257.45
180.13	1261.55
180.35	1265.64
180.57	1361.90
180.79	1163.25
181.01	1273.84
181.23	1273.84
181.45	1312.75
181.67	1267.69
181.90	1290.22
182.12	1208.30
182.34	1380.33
182.56	1296.36
182.78	1253.36
183.00	1257.45
183.22	1259.50
183.44	1191.92
183.66	1265.64
183.89	1341.42
184.11	1275.88
184.33	1277.93
184.55	1247.21
184.77	1222.64
184.99	1226.73
185.21	1335.28
185.43	1300.46
185.65	1253.36
185.87	1269.74
186.10	1245.16
186.32	1282.03
186.54	1269.74
186.76	1320.94
186.98	1232.88
187.20	1208.30
187.42	1224.69
187.64	1255.40
187.86	1306.60
188.08	1265.64
188.30	1296.36
188.52	1271.79
188.75	1269.74
188.97	1220.59
189.19	1290.22
189.41	1275.88
189.63	1327.08
189.85	1257.45
190.07	1277.93
190.29	1327.08
190.51	1320.94
190.73	1218.54
190.95	1214.45
191.17	1245.16
191.39	1275.88
191.61	1257.45
191.84	1265.64
192.06	1288.17
192.28	1265.64
192.50	1257.45
192.72	1286.12
192.94	1288.17
193.16	1304.56
193.38	1218.54
193.60	1271.79
193.82	1243.12
194.04	1363.95
194.26	1286.12
194.48	1310.70
194.70	1341.42
194.92	1243.12
195.14	1288.17
195.36	1347.56
195.58	1259.50
195.80	1210.35
196.02	1345.52
196.24	1308.65
196.46	1347.56
196.69	1273.84
196.91	1325.04
197.13	1343.47
197.35	1263.60
197.57	1224.69
197.79	1239.02
198.01	1243.12
198.23	1226.73
198.45	1327.08
198.67	1255.40
198.89	1306.60
199.11	1265.64
199.33	1247.21
199.55	1312.75
199.77	1228.78
199.99	1298.41
200.21	1282.03
200.43	1337.32
200.65	1228.78
200.87	1271.79
201.09	1267.69
201.31	1230.83
201.53	1243.12
201.75	1294.32
201.97	1345.52
202.19	1216.49
202.41	1212.40
202.63	1214.45
202.85	1292.27
203.07	1189.87
203.29	1296.36
203.51	1232.88
203.73	1220.59
203.95	1249.26
204.17	1212.40
204.39	1265.64
204.61	1236.97
204.83	1196.01
205.05	1263.60
205.27	1269.74
205.49	1370.09
205.71	1275.88
205.93	1267.69
206.15	1290.22
206.37	1282.03
206.59	1322.99
206.81	1282.03
207.03	1269.74
207.25	1208.30
207.47	1300.46
207.69	1333.23
207.91	1294.32
208.13	1224.69
208.34	1239.02
208.56	1259.50
208.78	1265.64
209.00	1273.84
209.22	1251.31
209.44	1259.50
209.66	1218.54
209.88	1255.40
210.10	1282.03
210.32	1253.36
210.54	1243.12
210.76	1210.35
210.98	1320.94
211.20	1318.89
211.42	1302.51
211.64	1290.22
211.86	1251.31
212.08	1236.97
212.30	1322.99
212.52	1259.50
212.74	1265.64
212.96	1185.77
213.17	1357.80
213.39	1282.03
213.61	1255.40
213.83	1236.97
214.05	1304.56
214.27	1316.84
214.49	1208.30
214.71	1282.03
214.93	1312.75
215.15	1273.84
215.37	1296.36
215.59	1236.97
215.81	1310.70
216.03	1296.36
216.24	1279.98
216.46	1200.11
216.68	1236.97
216.90	1265.64
217.12	1255.40
217.34	1257.45
217.56	1255.40
217.78	1245.16
218.00	1267.69
218.22	1286.12
218.44	1277.93
218.66	1318.89
218.87	1320.94
219.09	1271.79
219.31	1273.84
219.53	1206.25
219.75	1294.32
219.97	1253.36
220.19	1337.32
220.41	1206.25
220.63	1253.36
220.85	1265.64
221.06	1304.56
221.28	1245.16
221.50	1245.16
221.72	1206.25
221.94	1255.40
222.16	1368.04
222.38	1214.45
222.60	1261.55
222.82	1292.27
223.03	1200.11
223.25	1253.36
223.47	1263.60
223.69	1214.45
223.91	1296.36
224.13	1284.08
224.35	1294.32
224.57	1349.61
224.78	1290.22
225.00	1339.37
225.22	1243.12
225.44	1220.59
225.66	1282.03
225.88	1208.30
226.10	1355.76
226.32	1204.21
226.53	1318.89
226.75	1214.45
226.97	1212.40
227.19	1224.69
227.41	1208.30
227.63	1277.93
227.85	1220.59
228.06	1333.23
228.28	1169.39
228.50	1191.92
228.72	1331.18
228.94	1288.17
229.16	1349.61
229.37	1277.93
229.59	1292.27
229.81	1263.60
230.03	1284.08
230.25	1275.88
230.47	1265.64
230.69	1236.97
230.90	1294.32
231.12	1245.16
231.34	1275.88
231.56	1341.42
231.78	1290.22
232.00	1273.84
232.21	1241.07
232.43	1282.03
232.65	1257.45
232.87	1290.22
233.09	1206.25
233.30	1320.94
233.52	1286.12
233.74	1314.80
233.96	1304.56
234.18	1273.84
234.40	1298.41
234.61	1222.64
234.83	1249.26
235.05	1208.30
235.27	1255.40
235.49	1329.13
235.70	1292.27
235.92	1259.50
236.14	1265.64
236.36	1202.16
236.58	1269.74
236.79	1277.93
237.01	1306.60
237.23	1263.60
237.45	1290.22
237.67	1329.13
237.88	1269.74
238.10	1247.21
238.32	1245.16
238.54	1269.74
238.76	1302.51
238.97	1243.12
239.19	1239.02
239.41	1302.51
239.63	1247.21
239.85	1241.07
240.06	1308.65
240.28	1247.21
240.50	1290.22
240.72	1269.74
240.93	1257.45
241.15	1284.08
241.37	1292.27
241.59	1236.97
241.81	1284.08
242.02	1259.50
242.24	1249.26
242.46	1296.36
242.68	1232.88
242.89	1282.03
243.11	1263.60
243.33	1282.03
243.55	1232.88
243.76	1263.60
243.98	1290.22
244.20	1345.52
244.42	1277.93
244.64	1259.50
244.85	1277.93
245.07	1257.45
245.29	1214.45
245.51	1202.16
245.72	1322.99
245.94	1298.41
246.16	1320.94
246.38	1263.60
246.59	1191.92
246.81	1224.69
247.03	1208.30
247.24	1255.40
247.46	1249.26
247.68	1179.63
247.90	1232.88
248.11	1288.17
248.33	1202.16
248.55	1259.50
248.77	1288.17
248.98	1282.03
249.20	1275.88
249.42	1286.12
249.64	1243.12
249.85	1259.50
250.07	1169.39
250.29	1216.49
250.50	1322.99
250.72	1302.51
250.94	1232.88
251.16	1282.03
251.37	1239.02
251.59	1310.70
251.81	1306.60
252.02	1318.89
252.24	1320.94
252.46	1265.64
252.68	1228.78
252.89	1279.98
253.11	1218.54
253.33	1282.03
253.54	1355.76
253.76	1249.26
253.98	1255.40
254.20	1288.17
254.41	1286.12
254.63	1333.23
254.85	1298.41
255.06	1300.46
255.28	1249.26
255.50	1308.65
255.71	1279.98
255.93	1241.07
256.15	1318.89
256.36	1259.50
256.58	1277.93
256.80	1298.41
257.02	1284.08
257.23	1239.02
257.45	1292.27
257.67	1304.56
257.88	1259.50
258.10	1224.69
258.32	1273.84
258.53	1261.55
258.75	1325.04
258.97	1239.02
259.18	1220.59
259.40	1341.42
259.62	1310.70
259.83	1261.55
260.05	1277.93
260.27	1296.36
260.48	1284.08
260.70	1312.75
260.92	1230.83
261.13	1327.08
261.35	1302.51
261.57	1320.94
261.78	1232.88
262.00	1261.55
262.22	1273.84
262.43	1183.73
262.65	1228.78
262.86	1224.69
263.08	1202.16
263.30	1265.64
263.51	1247.21
263.73	1335.28
263.95	1277.93
264.16	1273.84
264.38	1212.40
264.60	1314.80
264.81	1251.31
265.03	1236.97
265.25	1282.03
265.46	1314.80
265.68	1318.89
265.89	1267.69
266.11	1304.56
266.33	1253.36
266.54	1282.03
266.76	1245.16
266.98	1298.41
267.19	1222.64
267.41	1218.54
267.62	1222.64
267.84	1239.02
268.06	1296.36
268.27	1298.41
268.49	1273.84
268.70	1247.21
268.92	1298.41
269.14	1257.45
269.35	1277.93
269.57	1224.69
269.79	1318.89
270.00	1261.55
270.22	1263.60
270.43	1345.52
270.65	1206.25
270.87	1210.35
271.08	1212.40
271.30	1302.51
271.51	1310.70
271.73	1257.45
271.95	1257.45
272.16	1218.54
272.38	1263.60
272.59	1320.94
272.81	1277.93
273.02	1208.30
273.24	1216.49
273.46	1298.41
273.67	1271.79
273.89	1228.78
274.10	1267.69
274.32	1257.45
274.54	1253.36
274.75	1286.12
274.97	1236.97
275.18	1243.12
275.40	1275.88
275.61	1296.36
275.83	1259.50
276.05	1193.97
276.26	1273.84
276.48	1247.21
276.69	1267.69
276.91	1288.17
277.12	1226.73
277.34	1345.52
277.55	1304.56
277.77	1253.36
277.99	1325.04
278.20	1249.26
278.42	1298.41
278.63	1259.50
278.85	1255.40
279.06	1232.88
279.28	1275.88
279.49	1302.51
279.71	1279.98
279.93	1292.27
280.14	1251.31
280.36	1230.83
280.57	1208.30
280.79	1220.59
281.00	1249.26
281.22	1218.54
281.43	1198.06
281.65	1288.17
281.86	1263.60
282.08	1267.69
282.29	1361.90
282.51	1271.79
282.73	1214.45
282.94	1222.64
283.16	1234.93
283.37	1329.13
283.59	1247.21
283.80	1269.74
284.02	1232.88
284.23	1282.03
284.45	1273.84
284.66	1329.13
284.88	1273.84
285.09	1316.84
285.31	1249.26
285.52	1206.25
285.74	1269.74
285.95	1279.98
286.17	1286.12
286.38	1296.36
286.60	1259.50
286.81	1292.27
287.03	1304.56
287.24	1306.60
287.46	1234.93
287.67	1322.99
287.89	1265.64
288.10	1271.79
288.32	1271.79
288.53	1320.94
288.75	1273.84
288.96	1253.36
289.18	1259.50
289.39	1294.32
289.61	1308.65
289.82	1222.64
290.04	1249.26
290.25	1345.52
290.47	1273.84
290.68	1257.45
290.90	1222.64
291.11	1257.45
291.33	1314.80
291.54	1228.78
291.76	1282.03
291.97	1282.03
292.18	1273.84
292.40	1267.69
292.61	1300.46
292.83	1306.60
293.04	1300.46
293.26	1241.07
293.47	1298.41
293.69	1185.77
293.90	1306.60
294.12	1275.88
294.33	1261.55
294.55	1198.06
294.76	1351.66
294.97	1251.31
295.19	1257.45
295.40	1341.42
295.62	1282.03
295.83	1308.65
296.05	1316.84
296.26	1257.45
296.48	1284.08
296.69	1255.40
296.90	1271.79
297.12	1277.93
297.33	1288.17
297.55	1245.16
297.76	1247.21
297.98	1288.17
298.19	1239.02
298.41	1206.25
298.62	1265.64
298.83	1191.92
299.05	1241.07
299.26	1263.60
299.48	1261.55
299.69	1327.08
299.90	1304.56
300.12	1273.84
300.33	1251.31
300.55	1257.45
300.76	1271.79
300.98	1298.41
301.19	1310.70
301.40	1296.36
301.62	1241.07
301.83	1322.99
302.05	1243.12
302.26	1232.88
302.47	1146.86
302.69	1206.25
302.90	1253.36
303.12	1253.36
303.33	1259.50
303.54	1185.77
303.76	1347.56
303.97	1273.84
304.19	1294.32
304.40	1298.41
304.61	1306.60
304.83	1230.83
305.04	1298.41
305.26	1282.03
305.47	1304.56
305.68	1302.51
305.90	1224.69
306.11	1232.88
306.33	1329.13
306.54	1277.93
306.75	1228.78
306.97	1226.73
307.18	1200.11
307.39	1277.93
307.61	1347.56
307.82	1288.17
308.04	1247.21
308.25	1265.64
308.46	1312.75
308.68	1218.54
308.89	1204.21
309.10	1198.06
309.32	1312.75
309.53	1263.60
309.74	1282.03
309.96	1259.50
310.17	1286.12
310.39	1296.36
310.60	1296.36
310.81	1249.26
311.03	1239.02
311.24	1257.45
311.45	1261.55
311.67	1234.93
311.88	1337.32
312.09	1314.80
312.31	1224.69
312.52	1241.07
312.73	1249.26
312.95	1261.55
313.16	1241.07
313.37	1345.52
313.59	1349.61
313.80	1288.17
314.01	1263.60
314.23	1202.16
314.44	1273.84
314.65	1200.11
314.87	1249.26
315.08	1198.06
315.29	1275.88
315.51	1230.83
315.72	1245.16
315.93	1228.78
316.15	1279.98
316.36	1355.76
316.57	1273.84
316.79	1208.30
317.00	1253.36
317.21	1259.50
317.43	1284.08
317.64	1230.83
317.85	1271.79
318.07	1220.59
318.28	1277.93
318.49	1245.16
318.70	1345.52
318.92	1322.99
319.13	1204.21
319.34	1224.69
319.56	1259.50
319.77	1335.28
319.98	1216.49
320.20	1304.56
320.41	1249.26
320.62	1222.64
320.83	1304.56
321.05	1353.71
321.26	1226.73
321.47	1322.99
321.69	1259.50
321.90	1204.21
322.11	1263.60
322.32	1185.77
322.54	1302.51
322.75	1286.12
322.96	1247.21
323.18	1279.98
323.39	1241.07
323.60	1226.73
323.81	1224.69
324.03	1220.59
324.24	1335.28
324.45	1224.69
324.66	1290.22
324.88	1230.83
325.09	1335.28
325.30	1226.73
325.52	1234.93
325.73	1286.12
325.94	1275.88
326.15	1271.79
326.37	1265.64
326.58	1236.97
326.79	1290.22
327.00	1363.95
327.22	1298.41
327.43	1265.64
327.64	1265.64
327.85	1249.26
328.07	1302.51
328.28	1271.79
328.49	1253.36
328.70	1331.18
328.92	1206.25
329.13	1251.31
329.34	1294.32
329.55	1333.23
329.76	1302.51
329.98	1249.26
330.19	1253.36
330.40	1277.93
330.61	1249.26
330.83	1245.16
331.04	1241.07
331.25	1247.21
331.46	1351.66
331.68	1198.06
331.89	1271.79
332.10	1298.41
332.31	1271.79
332.52	1279.98
332.74	1261.55
332.95	1314.80
333.16	1228.78
333.37	1222.64
333.58	1288.17
333.80	1263.60
334.01	1286.12
334.22	1335.28
334.43	1239.02
334.64	1302.51
334.86	1243.12
335.07	1292.27
335.28	1310.70
335.49	1294.32
335.70	1312.75
335.92	1275.88
336.13	1345.52
336.34	1245.16
336.55	1232.88
336.76	1253.36
336.98	1261.55
337.19	1212.40
337.40	1314.80
337.61	1263.60
337.82	1279.98
338.04	1337.32
338.25	1253.36
338.46	1191.92
338.67	1304.56
338.88	1349.61
339.09	1189.87
339.31	1245.16
339.52	1275.88
339.73	1294.32
339.94	1255.40
340.15	1316.84
340.36	1288.17
340.58	1286.12
340.79	1148.91
341.00	1226.73
341.21	1282.03
341.42	1249.26
341.63	1247.21
341.85	1265.64
342.06	1302.51
342.27	1355.76
342.48	1216.49
342.69	1339.37
342.90	1277.93
343.12	1271.79
343.33	1298.41
343.54	1204.21
343.75	1277.93
343.96	1241.07
344.17	1318.89
344.38	1327.08
344.60	1298.41
344.81	1257.45
345.02	1259.50
345.23	1255.40
345.44	1290.22
345.65	1335.28
345.86	1351.66
346.07	1257.45
346.29	1296.36
346.50	1185.77
346.71	1275.88
346.92	1191.92
347.13	1269.74
347.34	1247.21
347.55	1251.31
347.76	1284.08
347.98	1202.16
348.19	1296.36
348.40	1339.37
348.61	1306.60
348.82	1310.70
349.03	1282.03
349.24	1327.08
349.45	1251.31
349.66	1255.40
349.88	1290.22
350.09	1226.73
350.30	1351.66
350.51	1236.97
350.72	1220.59
350.93	1284.08
351.14	1296.36
351.35	1322.99
351.56	1265.64
351.77	1282.03
351.99	1284.08
352.20	1267.69
352.41	1271.79
352.62	1239.02
352.83	1277.93
353.04	1216.49
353.25	1269.74
353.46	1325.04
353.67	1312.75
353.88	1230.83
354.09	1261.55
354.30	1263.60
354.52	1327.08
354.73	1245.16
354.94	1263.60
355.15	1310.70
355.36	1304.56
355.57	1273.84
355.78	1257.45
355.99	1310.70
356.20	1302.51
356.41	1202.16
356.62	1302.51
356.83	1234.93
357.04	1279.98
357.25	1282.03
357.46	1265.64
357.68	1267.69
357.89	1275.88
358.10	1267.69
358.31	1286.12
358.52	1263.60
358.73	1185.77
358.94	1236.97
359.15	1286.12
359.36	1290.22
359.57	1277.93
359.78	1282.03
359.99	1273.84
360.20	1310.70
360.41	1261.55
360.62	1302.51
360.83	1189.87
361.04	1267.69
361.25	1239.02
361.46	1263.60
361.67	1288.17
361.88	1306.60
362.09	1322.99
362.30	1322.99
362.51	1234.93
362.72	1193.97
362.93	1236.97
363.14	1226.73
363.35	1290.22
363.56	1236.97
363.78	1245.16
363.99	1304.56
364.20	1275.88
364.41	1290.22
364.62	1214.45
364.83	1304.56
365.04	1226.73
365.25	1249.26
365.46	1286.12
365.67	1294.32
365.88	1257.45
366.09	1294.32
366.30	1241.07
366.51	1310.70
366.72	1265.64
366.93	1216.49
367.14	1241.07
367.35	1247.21
367.56	1296.36
367.77	1288.17
367.98	1269.74
368.18	1271.79
368.39	1200.11
368.60	1241.07
368.81	1228.78
369.02	1191.92
369.23	1236.97
369.44	1243.12
369.65	1292.27
369.86	1296.36
370.07	1263.60
370.28	1300.46
370.49	1269.74
370.70	1247.21
370.91	1298.41
371.12	1224.69
371.33	1286.12
371.54	1279.98
371.75	1257.45
371.96	1247.21
372.17	1241.07
372.38	1265.64
372.59	1224.69
372.80	1271.79
373.01	1308.65
373.22	1267.69
373.43	1279.98
373.64	1298.41
373.85	1255.40
374.06	1312.75
374.26	1226.73
374.47	1312.75
374.68	1247.21
374.89	1284.08
375.10	1279.98
375.31	1196.01
375.52	1366.00
375.73	1247.21
375.94	1275.88
376.15	1263.60
376.36	1241.07
376.57	1300.46
376.78	1210.35
376.99	1232.88
377.20	1304.56
377.40	1206.25
377.61	1257.45
377.82	1269.74
378.03	1282.03
378.24	1310.70
378.45	1247.21
378.66	1279.98
378.87	1228.78
379.08	1228.78
379.29	1255.40
379.50	1206.25
379.71	1275.88
379.91	1300.46
380.12	1265.64
380.33	1292.27
380.54	1230.83
380.75	1265.64
380.96	1329.13
381.17	1279.98
381.38	1226.73
381.59	1265.64
381.80	1273.84
382.00	1265.64
382.21	1247.21
382.42	1290.22
382.63	1232.88
382.84	1230.83
383.05	1175.53
383.26	1249.26
383.47	1284.08
383.68	1249.26
383.88	1263.60
384.09	1275.88
384.30	1196.01
384.51	1277.93
384.72	1265.64
384.93	1288.17
385.14	1255.40
385.35	1253.36
385.55	1304.56
385.76	1290.22
385.97	1351.66
386.18	1236.97
386.39	1263.60
386.60	1288.17
386.81	1284.08
387.02	1279.98
387.22	1230.83
387.43	1230.83
387.64	1261.55
387.85	1206.25
388.06	1236.97
388.27	1290.22
388.48	1247.21
388.68	1255.40
388.89	1347.56
389.10	1243.12
389.31	1232.88
389.52	1245.16
389.73	1296.36
389.93	1298.41
390.14	1230.83
390.35	1263.60
390.56	1286.12
390.77	1259.50
390.98	1271.79
391.18	1247.21
391.39	1261.55
391.60	1245.16
391.81	1396.71
392.02	1226.73
392.23	1261.55
392.43	1331.18
392.64	1312.75
392.85	1208.30
393.06	1236.97
393.27	1241.07
393.47	1157.10
393.68	1306.60
393.89	1251.31
394.10	1236.97
394.31	1189.87
394.52	1251.31
394.72	1257.45
394.93	1290.22
395.14	1271.79
395.35	1241.07
395.56	1275.88
395.76	1322.99
395.97	1263.60
396.18	1316.84
396.39	1245.16
396.60	1259.50
396.80	1251.31
397.01	1230.83
397.22	1296.36
397.43	1271.79
397.64	1243.12
397.84	1269.74
398.05	1275.88
398.26	1271.79
398.47	1273.84
398.67	1318.89
398.88	1214.45
399.09	1351.66
399.30	1316.84
399.51	1286.12
399.71	1257.45
399.92	1337.32
400.13	1220.59
400.34	1234.93
400.54	1292.27
400.75	1220.59
400.96	1263.60
401.17	1253.36
401.37	1257.45
401.58	1322.99
401.79	1208.30
402.00	1265.64
402.21	1392.62
402.41	1306.60
402.62	1228.78
402.83	1228.78
403.04	1239.02
403.24	1316.84
403.45	1216.49
403.66	1261.55
403.87	1232.88
404.07	1310.70
404.28	1261.55
404.49	1300.46
404.70	1290.22
404.90	1220.59
405.11	1220.59
405.32	1265.64
405.52	1298.41
405.73	1269.74
405.94	1259.50
406.15	1273.84
406.35	1372.14
406.56	1228.78
406.77	1251.31
406.98	1279.98
407.18	1282.03
407.39	1212.40
407.60	1263.60
407.80	1245.16
408.01	1200.11
408.22	1263.60
408.43	1282.03
408.63	1341.42
408.84	1300.46
409.05	1343.47
409.25	1316.84
409.46	1241.07
409.67	1232.88
409.88	1312.75
410.08	1331.18
410.29	1271.79
410.50	1249.26
410.70	1245.16
410.91	1189.87
411.12	1269.74
411.32	1265.64
411.53	1271.79
411.74	1241.07
411.95	1191.92
412.15	1320.94
412.36	1255.40
412.57	1282.03
412.77	1267.69
412.98	1277.93
413.19	1302.51
413.39	1257.45
413.60	1261.55
413.81	1322.99
414.01	1296.36
414.22	1296.36
414.43	1316.84
414.63	1228.78
414.84	1228.78
415.05	1316.84
415.25	1183.73
415.46	1210.35
415.67	1288.17
415.87	1290.22
416.08	1284.08
416.29	1279.98
416.49	1322.99
416.70	1316.84
416.91	1269.74
417.11	1310.70
417.32	1308.65
417.53	1302.51
417.73	1298.41
417.94	1243.12
418.15	1253.36
418.35	1232.88
418.56	1243.12
418.77	1232.88
418.97	1294.32
419.18	1251.31
419.38	1163.25
419.59	1236.97
419.80	1251.31
420.00	1277.93
420.21	1286.12
420.42	1222.64
420.62	1220.59
420.83	1232.88
421.04	1257.45
421.24	1198.06
421.45	1243.12
421.65	1273.84
421.86	1224.69
422.07	1312.75
422.27	1265.64
422.48	1329.13
422.69	1183.73
422.89	1253.36
423.10	1267.69
423.30	1263.60
423.51	1241.07
423.72	1236.97
423.92	1400.81
424.13	1257.45
424.33	1271.79
424.54	1267.69
424.75	1294.32
424.95	1263.60
425.16	1325.04
425.36	1286.12
425.57	1230.83
425.78	1302.51
425.98	1261.55
426.19	1292.27
426.39	1249.26
426.60	1298.41
426.81	1304.56
427.01	1322.99
427.22	1390.57
427.42	1333.23
427.63	1290.22
427.83	1253.36
428.04	1265.64
428.25	1273.84
428.45	1337.32
428.66	1318.89
428.86	1271.79
429.07	1288.17
429.28	1296.36
429.48	1257.45
429.69	1185.77
429.89	1284.08
430.10	1273.84
430.30	1284.08
430.51	1292.27
430.71	1173.49
430.92	1302.51
431.13	1228.78
431.33	1286.12
431.54	1214.45
431.74	1218.54
431.95	1269.74
432.15	1388.52
432.36	1284.08
432.56	1234.93
432.77	1200.11
432.98	1224.69
433.18	1261.55
433.39	1255.40
433.59	1261.55
433.80	1298.41
434.00	1290.22
434.21	1255.40
434.41	1224.69
434.62	1214.45
434.82	1279.98
435.03	1306.60
435.23	1177.58
435.44	1271.79
435.64	1267.69
435.85	1263.60
436.06	1294.32
436.26	1275.88
436.47	1193.97
436.67	1269.74
436.88	1318.89
437.08	1304.56
437.29	1263.60
437.49	1257.45
437.70	1282.03
437.90	1290.22
438.11	1306.60
438.31	1239.02
438.52	1284.08
438.72	1200.11
438.93	1314.80
439.13	1275.88
439.34	1251.31
439.54	1251.31
439.75	1306.60
439.95	1247.21
440.16	1230.83
440.36	1208.30
440.57	1228.78
440.77	1284.08
440.98	1263.60
441.18	1312.75
441.39	1320.94
441.59	1273.84
441.80	1298.41
442.00	1202.16
442.21	1261.55
442.41	1269.74
442.62	1343.47
442.82	1296.36
443.02	1304.56
443.23	1267.69
443.43	1210.35
443.64	1282.03
443.84	1282.03
444.05	1269.74
444.25	1267.69
444.46	1294.32
444.66	1337.32
444.87	1263.60
445.07	1245.16
445.28	1318.89
445.48	1370.09
445.69	1249.26
445.89	1294.32
446.09	1177.58
446.30	1290.22
446.50	1279.98
446.71	1286.12
446.91	1239.02
447.12	1247.21
447.32	1308.65
447.53	1370.09
447.73	1206.25
447.93	1230.83
448.14	1306.60
448.34	1363.95
448.55	1296.36
448.75	1234.93
448.96	1241.07
449.16	1300.46
449.36	1282.03
449.57	1284.08
449.77	1296.36
449.98	1296.36
450.18	1269.74
450.39	1318.89
450.59	1241.07
450.79	1284.08
451.00	1257.45
451.20	1333.23
451.41	1286.12
451.61	1277.93
451.81	1322.99
452.02	1296.36
452.22	1345.52
452.43	1308.65
452.63	1325.04
452.84	1310.70
453.04	1257.45
453.24	1226.73
453.45	1304.56
453.65	1290.22
453.86	1241.07
454.06	1271.79
454.26	1275.88
454.47	1310.70
454.67	1339.37
454.87	1290.22
455.08	1265.64
455.28	1271.79
455.49	1243.12
455.69	1306.60
455.89	1318.89
456.10	1232.88
456.30	1216.49
456.51	1284.08
456.71	1245.16
456.91	1298.41
457.12	1314.80
457.32	1279.98
457.52	1304.56
457.73	1298.41
457.93	1279.98
458.14	1306.60
458.34	1198.06
458.54	1322.99
458.75	1259.50
458.95	1263.60
459.15	1284.08
459.36	1222.64
459.56	1290.22
459.76	1306.60
459.97	1269.74
460.17	1257.45
460.37	1306.60
460.58	1243.12
460.78	1224.69
460.99	1339.37
461.19	1214.45
461.39	1318.89
461.60	1282.03
461.80	1318.89
462.00	1320.94
462.21	1282.03
462.41	1249.26
462.61	1286.12
462.82	1292.27
463.02	1308.65
463.22	1296.36
463.43	1271.79
463.63	1296.36
463.83	1306.60
464.04	1208.30
464.24	1386.47
464.44	1290.22
464.64	1200.11
464.85	1290.22
465.05	1243.12
465.25	1232.88
465.46	1329.13
465.66	1245.16
465.86	1296.36
466.07	1271.79
466.27	1320.94
466.47	1243.12
466.68	1216.49
466.88	1232.88
467.08	1298.41
467.29	1288.17
467.49	1275.88
467.69	1320.94
467.89	1249.26
468.10	1306.60
468.30	1167.34
468.50	1271.79
468.71	1349.61
468.91	1290.22
469.11	1329.13
469.31	1286.12
469.52	1343.47
469.72	1308.65
469.92	1279.98
470.13	1290.22
470.33	1253.36
470.53	1241.07
470.73	1273.84
470.94	1189.87
471.14	1312.75
471.34	1243.12
471.54	1275.88
471.75	1265.64
471.95	1224.69
472.15	1255.40
472.36	1257.45
472.56	1288.17
472.76	1292.27
472.96	1269.74
473.17	1220.59
473.37	1167.34
473.57	1222.64
473.77	1282.03
473.98	1277.93
474.18	1290.22
474.38	1230.83
474.58	1259.50
474.79	1228.78
474.99	1220.59
475.19	1257.45
475.39	1247.21
475.60	1265.64
475.80	1298.41
476.00	1232.88
476.20	1263.60
476.41	1279.98
476.61	1249.26
476.81	1253.36
477.01	1306.60
477.21	1333.23
477.42	1290.22
477.62	1269.74
477.82	1245.16
478.02	1320.94
478.23	1298.41
478.43	1214.45
478.63	1320.94
478.83	1302.51
479.03	1193.97
479.24	1255.40
479.44	1273.84
479.64	1232.88
479.84	1198.06
480.04	1243.12
480.25	1329.13
480.45	1251.31
480.65	1304.56
480.85	1239.02
481.06	1230.83
481.26	1298.41
481.46	1288.17
481.66	1275.88
481.86	1290.22
482.06	1304.56
482.27	1243.12
482.47	1257.45
482.67	1253.36
482.87	1310.70
483.07	1306.60
483.28	1196.01
483.48	1269.74
483.68	1222.64
483.88	1296.36
484.08	1335.28
484.29	1265.64
484.49	1234.93
484.69	1232.88
484.89	1214.45
485.09	1339.37
485.29	1294.32
485.50	1361.90
485.70	1271.79
485.90	1230.83
486.10	1257.45
486.30	1241.07
486.50	1286.12
486.71	1208.30
486.91	1257.45
487.11	1243.12
487.31	1275.88
487.51	1306.60
487.71	1218.54
487.91	1249.26
488.12	1273.84
488.32	1247.21
488.52	1304.56
488.72	1279.98
488.92	1298.41
489.12	1306.60
489.32	1304.56
489.53	1265.64
489.73	1253.36
489.93	1349.61
490.13	1302.51
490.33	1325.04
490.53	1265.64
490.73	1308.65
490.94	1249.26
491.14	1271.79
491.34	1273.84
491.54	1306.60
491.74	1288.17
491.94	1261.55
492.14	1318.89
492.34	1259.50
492.54	1243.12
492.75	1228.78
492.95	1257.45
493.15	1314.80
493.35	1282.03
493.55	1310.70
493.75	1267.69
493.95	1220.59
494.15	1224.69
494.35	1290.22
494.56	1236.97
494.76	1273.84
494.96	1308.65
495.16	1312.75
495.36	1290.22
495.56	1241.07
495.76	1288.17
495.96	1310.70
496.16	1318.89
496.36	1234.93
496.56	1310.70
496.77	1376.24
496.97	1279.98
497.17	1273.84
497.37	1222.64
497.57	1230.83
497.77	1273.84
497.97	1257.45
498.17	1263.60
498.37	1284.08
498.57	1267.69
498.77	1353.71
498.97	1341.42
499.17	1290.22
499.38	1290.22
499.58	1409.00
499.78	1306.60
499.98	1273.84
500.18	1214.45
500.38	1314.80
500.58	1193.97
500.78	1294.32
500.98	1220.59
501.18	1275.88
501.38	1296.36
501.58	1294.32
501.78	1253.36
501.98	1302.51
502.18	1259.50
502.38	1310.70
502.58	1239.02
502.78	1357.80
502.98	1247.21
503.18	1349.61
503.38	1247.21
503.59	1173.49
503.79	1263.60
503.99	1212.40
504.19	1298.41
504.39	1271.79
504.59	1216.49
504.79	1304.56
504.99	1275.88
505.19	1239.02
505.39	1271.79
505.59	1368.04
505.79	1226.73
505.99	1322.99
506.19	1263.60
506.39	1296.36
506.59	1259.50
506.79	1306.60
506.99	1202.16
507.19	1361.90
507.39	1236.97
507.59	1277.93
507.79	1290.22
507.99	1257.45
508.19	1224.69
508.39	1232.88
508.59	1300.46
508.79	1249.26
508.99	1310.70
509.19	1310.70
509.39	1312.75
509.59	1353.71
509.79	1267.69
509.99	1300.46
510.19	1277.93
510.39	1277.93
510.59	1288.17
510.79	1267.69
510.99	1282.03
511.19	1273.84
511.39	1198.06
511.59	1279.98
511.79	1308.65
511.99	1298.41
512.19	1271.79
512.38	1282.03
512.58	1308.65
512.78	1320.94
512.98	1232.88
513.18	1257.45
513.38	1304.56
513.58	1251.31
513.78	1269.74
513.98	1247.21
514.18	1236.97
514.38	1245.16
514.58	1312.75
514.78	1257.45
514.98	1245.16
515.18	1257.45
515.38	1322.99
515.58	1329.13
515.78	1310.70
515.98	1245.16
516.18	1193.97
516.38	1196.01
516.57	1314.80
516.77	1218.54
516.97	1245.16
517.17	1247.21
517.37	1279.98
517.57	1331.18
517.77	1320.94
517.97	1269.74
518.17	1347.56
518.37	1245.16
518.57	1230.83
518.77	1271.79
518.97	1288.17
519.16	1296.36
519.36	1275.88
519.56	1269.74
519.76	1341.42
519.96	1347.56
520.16	1253.36
520.36	1239.02
520.56	1232.88
520.76	1251.31
520.96	1251.31
521.16	1304.56
521.35	1273.84
521.55	1236.97
521.75	1279.98
521.95	1310.70
522.15	1286.12
522.35	1302.51
522.55	1273.84
522.75	1232.88
522.95	1333.23
523.14	1245.16
523.34	1312.75
523.54	1298.41
523.74	1224.69
523.94	1269.74
524.14	1304.56
524.34	1355.76
524.54	1204.21
524.73	1208.30
524.93	1296.36
525.13	1359.85
525.33	1286.12
525.53	1269.74
525.73	1273.84
525.93	1277.93
526.13	1222.64
526.32	1286.12
526.52	1263.60
526.72	1292.27
526.92	1318.89
527.12	1241.07
527.32	1290.22
527.52	1325.04
527.71	1255.40
527.91	1302.51
528.11	1300.46
528.31	1279.98
528.51	1331.18
528.71	1325.04
528.90	1279.98
529.10	1366.00
529.30	1282.03
529.50	1261.55
529.70	1300.46
529.90	1318.89
530.09	1329.13
530.29	1222.64
530.49	1304.56
530.69	1322.99
530.89	1302.51
531.09	1257.45
531.28	1255.40
531.48	1277.93
531.68	1228.78
531.88	1300.46
532.08	1261.55
532.28	1228.78
532.47	1320.94
532.67	1298.41
532.87	1261.55
533.07	1263.60
533.27	1257.45
533.46	1279.98
533.66	1261.55
533.86	1302.51
534.06	1341.42
534.26	1210.35
534.45	1296.36
534.65	1202.16
534.85	1253.36
535.05	1239.02
535.25	1269.74
535.44	1314.80
535.64	1191.92
535.84	1234.93
536.04	1314.80
536.24	1263.60
536.43	1277.93
536.63	1269.74
536.83	1282.03
537.03	1275.88
537.22	1269.74
537.42	1202.16
537.62	1271.79
537.82	1335.28
538.02	1308.65
538.21	1378.28
538.41	1275.88
538.61	1241.07
538.81	1247.21
539.00	1298.41
539.20	1263.60
539.40	1339.37
539.60	1243.12
539.79	1275.88
539.99	1286.12
540.19	1249.26
540.39	1298.41
540.58	1318.89
540.78	1322.99
540.98	1290.22
541.18	1224.69
541.37	1290.22
541.57	1275.88
541.77	1200.11
541.97	1273.84
542.16	1294.32
542.36	1271.79
542.56	1294.32
542.76	1294.32
542.95	1200.11
543.15	1261.55
543.35	1314.80
543.54	1312.75
543.74	1214.45
543.94	1241.07
544.14	1206.25
544.33	1322.99
544.53	1304.56
544.73	1306.60
544.93	1236.97
545.12	1279.98
545.32	1210.35
545.52	1302.51
545.71	1296.36
545.91	1327.08
546.11	1273.84
546.30	1290.22
546.50	1279.98
546.70	1306.60
546.90	1325.04
547.09	1226.73
547.29	1363.95
547.49	1310.70
547.68	1236.97
547.88	1304.56
548.08	1304.56
548.27	1282.03
548.47	1286.12
548.67	1333.23
548.87	1292.27
549.06	1243.12
549.26	1337.32
549.46	1345.52
549.65	1236.97
549.85	1292.27
550.05	1282.03
550.24	1263.60
550.44	1282.03
550.64	1263.60
550.83	1310.70
551.03	1296.36
551.23	1368.04
551.42	1271.79
551.62	1298.41
551.82	1333.23
552.01	1255.40
552.21	1304.56
552.41	1376.24
552.60	1312.75
552.80	1327.08
553.00	1277.93
553.19	1302.51
553.39	1308.65
553.59	1314.80
553.78	1327.08
553.98	1302.51
554.17	1312.75
554.37	1298.41
554.57	1290.22
554.76	1335.28
554.96	1368.04
555.16	1241.07
555.35	1271.79
555.55	1263.60
555.75	1310.70
555.94	1298.41
556.14	1255.40
556.33	1308.65
556.53	1275.88
556.73	1331.18
556.92	1300.46
557.12	1304.56
557.32	1239.02
557.51	1279.98
557.71	1304.56
557.90	1335.28
558.10	1232.88
558.30	1288.17
558.49	1355.76
558.69	1243.12
558.88	1314.80
559.08	1218.54
559.28	1320.94
559.47	1361.90
559.67	1347.56
559.86	1257.45
560.06	1282.03
560.26	1241.07
560.45	1265.64
560.65	1308.65
560.84	1304.56
561.04	1282.03
561.24	1333.23
561.43	1251.31
561.63	1325.04
561.82	1249.26
562.02	1261.55
562.22	1226.73
562.41	1296.36
562.61	1306.60
562.80	1335.28
563.00	1312.75
563.19	1306.60
563.39	1288.17
563.59	1331.18
563.78	1273.84
563.98	1275.88
564.17	1351.66
564.37	1339.37
564.56	1224.69
564.76	1275.88
564.96	1239.02
565.15	1290.22
565.35	1282.03
565.54	1310.70
565.74	1337.32
565.93	1357.80
566.13	1296.36
566.32	1349.61
566.52	1255.40
566.71	1282.03
566.91	1271.79
567.11	1300.46
567.30	1296.36
567.50	1263.60
567.69	1275.88
567.89	1282.03
568.08	1310.70
568.28	1253.36
568.47	1282.03
568.67	1261.55
568.86	1247.21
569.06	1320.94
569.25	1312.75
569.45	1218.54
569.64	1294.32
569.84	1261.55
570.04	1253.36
570.23	1273.84
570.43	1275.88
570.62	1288.17
570.82	1265.64
571.01	1222.64
571.21	1298.41
571.40	1234.93
571.60	1325.04
571.79	1255.40
571.99	1249.26
572.18	1288.17
572.38	1294.32
572.57	1286.12
572.77	1322.99
572.96	1275.88
573.16	1345.52
573.35	1310.70
573.55	1239.02
573.74	1331.18
573.94	1230.83
574.13	1253.36
574.33	1322.99
574.52	1255.40
574.71	1306.60
574.91	1302.51
575.10	1282.03
575.30	1257.45
575.49	1220.59
575.69	1318.89
575.88	1241.07
576.08	1212.40
576.27	1245.16
576.47	1288.17
576.66	1298.41
576.86	1224.69
577.05	1314.80
577.25	1273.84
577.44	1288.17
577.64	1243.12
577.83	1241.07
578.02	1245.16
578.22	1351.66
578.41	1314.80
578.61	1288.17
578.80	1198.06
579.00	1333.23
579.19	1239.02
579.39	1329.13
579.58	1210.35
579.77	1318.89
579.97	1290.22
580.16	1216.49
580.36	1296.36
580.55	1312.75
580.75	1345.52
580.94	1249.26
581.13	1279.98
581.33	1259.50
581.52	1331.18
581.72	1206.25
581.91	1275.88
582.11	1275.88
582.30	1312.75
582.49	1269.74
582.69	1331.18
582.88	1257.45
583.08	1241.07
583.27	1255.40
583.47	1275.88
583.66	1316.84
583.85	1200.11
584.05	1214.45
584.24	1245.16
584.44	1206.25
584.63	1327.08
584.82	1290.22
585.02	1298.41
585.21	1275.88
585.41	1275.88
585.60	1247.21
585.79	1239.02
585.99	1282.03
586.18	1267.69
586.37	1339.37
586.57	1327.08
586.76	1279.98
586.96	1320.94
587.15	1288.17
587.34	1286.12
587.54	1226.73
587.73	1265.64
587.93	1306.60
588.12	1314.80
588.31	1263.60
588.51	1302.51
588.70	1263.60
588.89	1298.41
589.09	1331.18
589.28	1314.80
589.47	1282.03
589.67	1277.93
589.86	1292.27
590.06	1288.17
590.25	1331.18
590.44	1218.54
590.64	1322.99
590.83	1259.50
591.02	1239.02
591.22	1271.79
591.41	1304.56
591.60	1279.98
591.80	1290.22
591.99	1263.60
592.18	1204.21
592.38	1212.40
592.57	1265.64
592.76	1302.51
592.96	1277.93
593.15	1296.36
593.34	1273.84
593.54	1253.36
593.73	1282.03
593.92	1177.58
594.12	1279.98
594.31	1370.09
594.50	1269.74
594.70	1304.56
594.89	1329.13
595.08	1296.36
595.28	1306.60
595.47	1249.26
595.66	1265.64
595.86	1210.35
596.05	1308.65
596.24	1308.65
596.43	1339.37
596.63	1337.32
596.82	1294.32
597.01	1296.36
597.21	1288.17
597.40	1253.36
597.59	1232.88
597.79	1343.47
597.98	1239.02
598.17	1318.89
598.36	1284.08
598.56	1288.17
598.75	1343.47
598.94	1245.16
599.14	1349.61
599.33	1296.36
599.52	1320.94
599.71	1265.64
599.91	1331.18
600.10	1271.79
600.29	1290.22
600.48	1232.88
600.68	1290.22
600.87	1251.31
601.06	1331.18
601.26	1236.97
601.45	1320.94
601.64	1353.71
601.83	1259.50
602.03	1300.46
602.22	1265.64
602.41	1267.69
602.60	1277.93
602.80	1314.80
602.99	1259.50
603.18	1214.45
603.37	1265.64
603.57	1351.66
603.76	1265.64
603.95	1259.50
604.14	1255.40
604.34	1196.01
604.53	1294.32
604.72	1177.58
604.91	1329.13
605.10	1261.55
605.30	1263.60
605.49	1306.60
605.68	1286.12
605.87	1261.55
606.07	1335.28
606.26	1273.84
606.45	1306.60
606.64	1239.02
606.84	1290.22
607.03	1220.59
607.22	1265.64
607.41	1277.93
607.60	1304.56
607.80	1316.84
607.99	1245.16
608.18	1288.17
608.37	1214.45
608.56	1214.45
608.76	1368.04
608.95	1288.17
609.14	1253.36
609.33	1292.27
609.52	1318.89
609.72	1279.98
609.91	1267.69
610.10	1261.55
610.29	1277.93
610.48	1296.36
610.68	1257.45
610.87	1306.60
611.06	1277.93
611.25	1292.27
611.44	1247.21
611.63	1259.50
611.83	1277.93
612.02	1263.60
612.21	1359.85
612.40	1267.69
612.59	1306.60
612.79	1271.79
612.98	1325.04
613.17	1331.18
613.36	1304.56
613.55	1388.52
613.74	1335.28
613.93	1329.13
614.13	1259.50
614.32	1263.60
614.51	1298.41
614.70	1304.56
614.89	1306.60
615.08	1239.02
615.28	1314.80
615.47	1263.60
615.66	1265.64
615.85	1347.56
616.04	1273.84
616.23	1304.56
616.42	1320.94
616.62	1253.36
616.81	1193.97
617.00	1277.93
617.19	1312.75
617.38	1259.50
617.57	1257.45
617.76	1302.51
617.95	1288.17
618.15	1282.03
618.34	1345.52
618.53	1357.80
618.72	1286.12
618.91	1337.32
619.10	1329.13
619.29	1249.26
619.48	1282.03
619.68	1318.89
619.87	1247.21
620.06	1259.50
620.25	1353.71
620.44	1279.98
620.63	1273.84
620.82	1273.84
621.01	1306.60
621.20	1298.41
621.39	1263.60
621.59	1288.17
621.78	1261.55
621.97	1318.89
622.16	1247.21
622.35	1327.08
622.54	1296.36
622.73	1220.59
622.92	1261.55
623.11	1318.89
623.30	1290.22
623.49	1228.78
623.68	1275.88
623.88	1269.74
624.07	1322.99
624.26	1290.22
624.45	1306.60
624.64	1294.32
624.83	1314.80
625.02	1300.46
625.21	1335.28
625.40	1220.59
625.59	1232.88
625.78	1232.88
625.97	1292.27
626.16	1249.26
626.35	1368.04
626.54	1388.52
626.74	1251.31
626.93	1298.41
627.12	1265.64
627.31	1275.88
627.50	1208.30
627.69	1327.08
627.88	1308.65
628.07	1302.51
628.26	1288.17
628.45	1263.60
628.64	1322.99
628.83	1361.90
629.02	1275.88
629.21	1279.98
629.40	1249.26
629.59	1241.07
629.78	1314.80
629.97	1298.41
630.16	1296.36
630.35	1370.09
630.54	1370.09
630.73	1304.56
630.92	1286.12
631.11	1253.36
631.30	1310.70
631.49	1351.66
631.68	1396.71
631.87	1435.63
632.06	1482.73
632.25	1429.48
632.44	1431.53
632.63	1355.76
632.82	1462.25
633.01	1470.44
633.20	1466.35
633.39	1402.86
633.58	1486.83
633.77	1366.00
633.96	1482.73
634.15	1433.58
634.34	1495.02
634.53	1409.00
634.72	1458.15
634.91	1435.63
635.10	1388.52
635.29	1404.91
635.48	1452.01
635.67	1460.20
635.86	1452.01
636.05	1435.63
636.24	1294.32
636.43	1419.24
636.62	1411.05
636.81	1386.47
637.00	1343.47
637.19	1316.84
637.38	1363.95
637.57	1275.88
637.76	1370.09
637.95	1232.88
638.14	1310.70
638.33	1333.23
638.52	1333.23
638.71	1259.50
638.89	1331.18
639.08	1282.03
639.27	1398.76
639.46	1325.04
639.65	1304.56
639.84	1302.51
640.03	1292.27
640.22	1288.17
640.41	1337.32
640.60	1269.74
640.79	1232.88
640.98	1224.69
641.17	1216.49
641.36	1253.36
641.55	1204.21
641.74	1259.50
641.92	1265.64
642.11	1357.80
642.30	1243.12
642.49	1294.32
642.68	1241.07
642.87	1267.69
643.06	1312.75
643.25	1279.98
643.44	1322.99
643.63	1265.64
643.82	1327.08
644.00	1253.36
644.19	1290.22
644.38	1247.21
644.57	1286.12
644.76	1249.26
644.95	1314.80
645.14	1286.12
645.33	1189.87
645.52	1224.69
645.71	1255.40
645.89	1257.45
646.08	1290.22
646.27	1224.69
646.46	1298.41
646.65	1353.71
646.84	1273.84
647.03	1255.40
647.22	1249.26
647.40	1361.90
647.59	1241.07
647.78	1290.22
647.97	1312.75
648.16	1241.07
648.35	1335.28
648.54	1236.97
648.73	1273.84
648.91	1263.60
649.10	1322.99
649.29	1261.55
649.48	1300.46
649.67	1269.74
649.86	1249.26
650.05	1277.93
650.23	1259.50
650.42	1236.97
650.61	1224.69
650.80	1253.36
650.99	1284.08
651.18	1253.36
651.36	1259.50
651.55	1306.60
651.74	1271.79
651.93	1218.54
652.12	1337.32
652.31	1202.16
652.49	1257.45
652.68	1236.97
652.87	1196.01
653.06	1232.88
653.25	1253.36
653.44	1181.68
653.62	1306.60
653.81	1290.22
654.00	1245.16
654.19	1208.30
654.38	1329.13
654.56	1253.36
654.75	1224.69
654.94	1314.80
655.13	1300.46
655.32	1261.55
655.51	1279.98
655.69	1245.16
655.88	1255.40
656.07	1210.35
656.26	1226.73
656.45	1241.07
656.63	1312.75
656.82	1216.49
657.01	1241.07
657.20	1222.64
657.38	1277.93
657.57	1308.65
657.76	1288.17
657.95	1290.22
658.14	1265.64
658.32	1191.92
658.51	1331.18
658.70	1294.32
658.89	1298.41
659.08	1245.16
659.26	1310.70
659.45	1343.47
659.64	1275.88
659.83	1290.22
660.01	1208.30
660.20	1304.56
660.39	1185.77
660.58	1310.70
660.76	1294.32
660.95	1253.36
661.14	1273.84
661.33	1273.84
661.51	1255.40
661.70	1261.55
661.89	1320.94
662.08	1327.08
662.26	1288.17
662.45	1259.50
662.64	1351.66
662.83	1222.64
663.01	1234.93
663.20	1306.60
663.39	1265.64
663.58	1288.17
663.76	1300.46
663.95	1234.93
664.14	1232.88
664.32	1269.74
664.51	1257.45
664.70	1267.69
664.89	1312.75
665.07	1224.69
665.26	1257.45
665.45	1202.16
665.64	1249.26
665.82	1343.47
666.01	1263.60
666.20	1275.88
666.38	1216.49
666.57	1200.11
666.76	1282.03
666.95	1249.26
667.13	1308.65
667.32	1284.08
667.51	1259.50
667.69	1312.75
667.88	1214.45
668.07	1247.21
668.25	1243.12
668.44	1249.26
668.63	1253.36
668.81	1253.36
669.00	1320.94
669.19	1282.03
669.38	1253.36
669.56	1228.78
669.75	1230.83
669.94	1232.88
670.12	1232.88
670.31	1275.88
670.50	1304.56
670.68	1312.75
670.87	1314.80
671.06	1239.02
671.24	1239.02
671.43	1222.64
671.62	1241.07
671.80	1247.21
671.99	1271.79
672.18	1279.98
672.36	1292.27
672.55	1245.16
672.74	1236.97
672.92	1269.74
673.11	1253.36
673.29	1308.65
673.48	1282.03
673.67	1234.93
673.85	1191.92
674.04	1247.21
674.23	1300.46
674.41	1294.32
674.60	1224.69
674.79	1265.64
674.97	1288.17
675.16	1288.17
675.34	1333.23
675.53	1189.87
675.72	1255.40
675.90	1224.69
676.09	1314.80
676.28	1345.52
676.46	1253.36
676.65	1206.25
676.83	1257.45
677.02	1333.23
677.21	1312.75
677.39	1314.80
677.58	1230.83
677.77	1269.74
677.95	1370.09
678.14	1200.11
678.32	1298.41
678.51	1249.26
678.70	1353.71
678.88	1284.08
679.07	1228.78
679.25	1253.36
679.44	1273.84
679.63	1273.84
679.81	1255.40
680.00	1265.64
680.18	1224.69
680.37	1275.88
680.55	1318.89
680.74	1318.89
680.93	1249.26
681.11	1267.69
681.30	1359.85
681.48	1290.22
681.67	1236.97
681.85	1245.16
682.04	1286.12
682.23	1275.88
682.41	1204.21
682.60	1345.52
682.78	1265.64
682.97	1228.78
683.15	1286.12
683.34	1259.50
683.53	1355.76
683.71	1300.46
683.90	1269.74
684.08	1282.03
684.27	1243.12
684.45	1218.54
684.64	1257.45
684.82	1302.51
685.01	1292.27
685.19	1267.69
685.38	1253.36
685.57	1310.70
685.75	1196.01
685.94	1232.88
686.12	1284.08
686.31	1273.84
686.49	1245.16
686.68	1322.99
686.86	1355.76
687.05	1249.26
687.23	1282.03
687.42	1239.02
687.60	1261.55
687.79	1269.74
687.97	1208.30
688.16	1335.28
688.34	1200.11
688.53	1304.56
688.71	1222.64
688.90	1322.99
689.08	1282.03
689.27	1302.51
689.45	1275.88
689.64	1216.49
689.82	1259.50
690.01	1290.22
690.19	1329.13
690.38	1228.78
690.56	1335.28
690.75	1261.55
690.93	1380.33
691.12	1245.16
691.30	1269.74
691.49	1257.45
691.67	1245.16
691.86	1245.16
692.04	1273.84
692.23	1253.36
692.41	1335.28
692.60	1331.18
692.78	1282.03
692.97	1144.81
693.15	1265.64
693.34	1265.64
693.52	1226.73
693.71	1308.65
693.89	1310.70
694.08	1208.30
694.26	1259.50
694.44	1259.50
694.63	1206.25
694.81	1232.88
695.00	1310.70
695.18	1327.08
695.37	1269.74
695.55	1171.44
695.74	1232.88
695.92	1247.21
696.10	1306.60
696.29	1286.12
696.47	1284.08
696.66	1271.79
696.84	1300.46
697.03	1224.69
697.21	1245.16
697.40	1318.89
697.58	1255.40
697.76	1243.12
697.95	1300.46
698.13	1265.64
698.32	1277.93
698.50	1329.13
698.68	1310.70
698.87	1302.51
699.05	1304.56
699.24	1241.07
699.42	1275.88
699.61	1286.12
699.79	1353.71
699.97	1206.25
700.16	1261.55
700.34	1222.64
700.53	1308.65
700.71	1265.64
700.89	1216.49
701.08	1245.16
701.26	1249.26
701.45	1318.89
701.63	1224.69
701.81	1290.22
702.00	1177.58
702.18	1220.59
702.37	1228.78
702.55	1232.88
702.73	1243.12
702.92	1275.88
703.10	1245.16
703.28	1253.36
703.47	1298.41
703.65	1257.45
703.84	1335.28
704.02	1341.42
704.20	1226.73
704.39	1265.64
704.57	1247.21
704.75	1216.49
704.94	1306.60
705.12	1316.84
705.30	1335.28
705.49	1228.78
705.67	1337.32
705.86	1236.97
706.04	1247.21
706.22	1273.84
706.41	1273.84
706.59	1298.41
706.77	1271.79
706.96	1218.54
707.14	1302.51
707.32	1290.22
707.51	1300.46
707.69	1273.84
707.87	1241.07
708.06	1312.75
708.24	1282.03
708.42	1339.37
708.61	1282.03
708.79	1353.71
708.97	1294.32
709.16	1296.36
709.34	1239.02
709.52	1288.17
709.71	1189.87
709.89	1290.22
710.07	1273.84
710.26	1210.35
710.44	1259.50
710.62	1234.93
710.80	1271.79
710.99	1263.60
711.17	1306.60
711.35	1294.32
711.54	1236.97
711.72	1249.26
711.90	1300.46
712.09	1273.84
712.27	1320.94
712.45	1226.73
712.63	1259.50
712.82	1255.40
713.00	1341.42
713.18	1202.16
713.37	1257.45
713.55	1310.70
713.73	1290.22
713.91	1269.74
714.10	1261.55
714.28	1282.03
714.46	1251.31
714.65	1279.98
714.83	1247.21
715.01	1196.01
715.19	1236.97
715.38	1222.64
715.56	1294.32
715.74	1234.93
715.92	1255.40
716.11	1343.47
716.29	1247.21
716.47	1247.21
716.65	1288.17
716.84	1245.16
717.02	1306.60
717.20	1257.45
717.38	1298.41
717.57	1288.17
717.75	1241.07
717.93	1302.51
718.11	1271.79
718.30	1236.97
718.48	1294.32
718.66	1282.03
718.84	1263.60
719.03	1232.88
719.21	1279.98
719.39	1292.27
719.57	1282.03
719.75	1300.46
719.94	1325.04
720.12	1265.64
720.30	1294.32
720.48	1271.79
720.67	1329.13
720.85	1331.18
721.03	1290.22
721.21	1228.78
721.39	1355.76
721.58	1263.60
721.76	1294.32
721.94	1261.55
722.12	1265.64
722.30	1206.25
722.49	1241.07
722.67	1255.40
722.85	1290.22
723.03	1284.08
723.21	1269.74
723.40	1339.37
723.58	1261.55
723.76	1292.27
723.94	1290.22
724.12	1255.40
724.30	1275.88
724.49	1228.78
724.67	1263.60
724.85	1257.45
725.03	1347.56
725.21	1325.04
725.40	1288.17
725.58	1316.84
725.76	1216.49
725.94	1241.07
726.12	1202.16
726.30	1308.65
726.49	1204.21
726.67	1351.66
726.85	1294.32
727.03	1298.41
727.21	1257.45
727.39	1275.88
727.57	1290.22
727.76	1241.07
727.94	1296.36
728.12	1284.08
728.30	1306.60
728.48	1255.40
728.66	1318.89
728.84	1304.56
729.03	1212.40
729.21	1251.31
729.39	1310.70
729.57	1325.04
729.75	1230.83
729.93	1253.36
730.11	1277.93
730.30	1247.21
730.48	1200.11
730.66	1279.98
730.84	1298.41
731.02	1245.16
731.20	1208.30
731.38	1249.26
731.56	1239.02
731.74	1239.02
731.93	1314.80
732.11	1200.11
732.29	1236.97
732.47	1298.41
732.65	1269.74
732.83	1253.36
733.01	1308.65
733.19	1249.26
733.37	1312.75
733.56	1191.92
733.74	1239.02
733.92	1337.32
734.10	1314.80
734.28	1255.40
734.46	1329.13
734.64	1322.99
734.82	1220.59
735.00	1261.55
735.18	1282.03
735.36	1290.22
735.54	1222.64
735.73	1210.35
735.91	1314.80
736.09	1288.17
736.27	1271.79
736.45	1277.93
736.63	1200.11
736.81	1253.36
736.99	1261.55
737.17	1296.36
737.35	1282.03
737.53	1200.11
737.71	1236.97
737.89	1290.22
738.07	1312.75
738.25	1212.40
738.43	1249.26
738.61	1208.30
738.80	1257.45
738.98	1269.74
739.16	1284.08
739.34	1312.75
739.52	1298.41
739.70	1322.99
739.88	1286.12
740.06	1288.17
740.24	1279.98
740.42	1222.64
740.60	1279.98
740.78	1243.12
740.96	1277.93
741.14	1259.50
741.32	1310.70
741.50	1236.97
741.68	1253.36
741.86	1261.55
742.04	1171.44
742.22	1259.50
742.40	1257.45
742.58	1224.69
742.76	1232.88
742.94	1220.59
743.12	1318.89
743.30	1314.80
743.48	1265.64
743.66	1245.16
743.84	1224.69
744.02	1243.12
744.20	1290.22
744.38	1261.55
744.56	1232.88
744.74	1265.64
744.92	1292.27
745.10	1314.80
745.28	1259.50
745.46	1269.74
745.64	1304.56
745.82	1275.88
746.00	1200.11
746.18	1243.12
746.36	1329.13
746.54	1273.84
746.72	1296.36
746.90	1255.40
747.08	1304.56
747.26	1210.35
747.44	1230.83
747.62	1198.06
747.80	1255.40
747.98	1288.17
748.15	1253.36
748.33	1310.70
748.51	1271.79
748.69	1279.98
748.87	1247.21
749.05	1273.84
749.23	1202.16
749.41	1273.84
749.59	1316.84
749.77	1224.69
749.95	1222.64
750.13	1200.11
750.31	1290.22
750.49	1302.51
750.67	1224.69
750.85	1294.32
751.03	1292.27
751.20	1318.89
751.38	1288.17
751.56	1204.21
751.74	1286.12
751.92	1214.45
752.10	1241.07
752.28	1208.30
752.46	1318.89
752.64	1322.99
752.82	1267.69
753.00	1226.73
753.18	1234.93
753.35	1273.84
753.53	1320.94
753.71	1241.07
753.89	1292.27
754.07	1236.97
754.25	1339.37
754.43	1314.80
754.61	1300.46
754.79	1325.04
754.97	1224.69
755.14	1314.80
755.32	1275.88
755.50	1290.22
755.68	1265.64
755.86	1298.41
756.04	1230.83
756.22	1247.21
756.40	1269.74
756.57	1302.51
756.75	1159.15
756.93	1273.84
757.11	1267.69
757.29	1228.78
757.47	1243.12
757.65	1261.55
757.82	1259.50
758.00	1222.64
758.18	1296.36
758.36	1300.46
758.54	1271.79
758.72	1282.03
758.90	1314.80
759.07	1308.65
759.25	1279.98
759.43	1261.55
759.61	1232.88
759.79	1253.36
759.97	1261.55
760.15	1269.74
760.32	1271.79
760.50	1271.79
760.68	1222.64
760.86	1245.16
761.04	1257.45
761.22	1271.79
761.39	1288.17
761.57	1200.11
761.75	1298.41
761.93	1286.12
762.11	1269.74
762.28	1282.03
762.46	1298.41
762.64	1273.84
762.82	1228.78
763.00	1255.40
763.18	1191.92
763.35	1298.41
763.53	1292.27
763.71	1236.97
763.89	1298.41
764.07	1253.36
764.24	1259.50
764.42	1282.03
764.60	1284.08
764.78	1320.94
764.96	1335.28
765.13	1239.02
765.31	1271.79
765.49	1251.31
765.67	1249.26
765.84	1224.69
766.02	1214.45
766.20	1339.37
766.38	1261.55
766.56	1245.16
766.73	1282.03
766.91	1202.16
767.09	1265.64
767.27	1232.88
767.44	1212.40
767.62	1251.31
767.80	1171.44
767.98	1267.69
768.15	1245.16
768.33	1310.70
768.51	1282.03
768.69	1269.74
768.87	1282.03
769.04	1273.84
769.22	1282.03
769.40	1251.31
769.58	1302.51
769.75	1275.88
769.93	1232.88
770.11	1298.41
770.28	1392.62
770.46	1290.22
770.64	1284.08
770.82	1271.79
770.99	1277.93
771.17	1294.32
771.35	1255.40
771.53	1269.74
771.70	1304.56
771.88	1343.47
772.06	1196.01
772.23	1296.36
772.41	1294.32
772.59	1234.93
772.77	1267.69
772.94	1214.45
773.12	1335.28
773.30	1327.08
773.47	1255.40
773.65	1234.93
773.83	1247.21
774.01	1243.12
774.18	1239.02
774.36	1310.70
774.54	1277.93
774.71	1300.46
774.89	1318.89
775.07	1255.40
775.24	1218.54
775.42	1236.97
775.60	1318.89
775.78	1212.40
775.95	1320.94
776.13	1249.26
776.31	1239.02
776.48	1216.49
776.66	1329.13
776.84	1292.27
777.01	1298.41
777.19	1300.46
777.37	1271.79
777.54	1253.36
777.72	1275.88
777.90	1204.21
778.07	1249.26
778.25	1357.80
778.43	1290.22
778.60	1284.08
778.78	1249.26
778.96	1325.04
779.13	1277.93
779.31	1318.89
779.49	1150.96
779.66	1202.16
779.84	1296.36
780.01	1275.88
780.19	1245.16
780.37	1284.08
780.54	1368.04
780.72	1208.30
780.90	1255.40
781.07	1304.56
781.25	1224.69
781.43	1279.98
781.60	1259.50
781.78	1273.84
781.95	1306.60
782.13	1214.45
782.31	1298.41
782.48	1247.21
782.66	1277.93
782.83	1296.36
783.01	1273.84
783.19	1234.93
783.36	1255.40
783.54	1259.50
783.72	1257.45
783.89	1226.73
784.07	1339.37
784.24	1296.36
784.42	1273.84
784.60	1267.69
784.77	1288.17
784.95	1284.08
785.12	1310.70
785.30	1232.88
785.47	1232.88
785.65	1298.41
785.83	1318.89
786.00	1175.53
786.18	1261.55
786.35	1273.84
786.53	1239.02
786.71	1255.40
786.88	1241.07
787.06	1257.45
787.23	1277.93
787.41	1267.69
787.58	1263.60
787.76	1296.36
787.94	1263.60
788.11	1296.36
788.29	1320.94
788.46	1255.40
788.64	1234.93
788.81	1204.21
788.99	1337.32
789.16	1257.45
789.34	1261.55
789.52	1226.73
789.69	1230.83
789.87	1208.30
790.04	1304.56
790.22	1222.64
790.39	1282.03
790.57	1277.93
790.74	1259.50
790.92	1257.45
791.09	1257.45
791.27	1327.08
791.44	1286.12
791.62	1259.50
791.79	1288.17
791.97	1263.60
792.15	1314.80
792.32	1279.98
792.50	1259.50
792.67	1259.50
792.85	1243.12
793.02	1269.74
793.20	1212.40
793.37	1275.88
793.55	1296.36
793.72	1239.02
793.90	1267.69
794.07	1255.40
794.25	1261.55
794.42	1329.13
794.60	1150.96
794.77	1208.30
794.95	1298.41
795.12	1310.70
795.30	1193.97
795.47	1234.93
795.65	1296.36
795.82	1222.64
796.00	1224.69
796.17	1220.59
796.34	1175.53
796.52	1298.41
796.69	1357.80
796.87	1189.87
797.04	1259.50
797.22	1243.12
797.39	1210.35
797.57	1296.36
797.74	1263.60
797.92	1284.08
798.09	1265.64
798.27	1273.84
798.44	1257.45
798.62	1220.59
798.79	1300.46
798.96	1206.25
799.14	1210.35
799.31	1257.45
799.49	1320.94
799.66	1284.08
799.84	1282.03
800.01	1191.92
800.19	1333.23
800.36	1286.12
800.53	1273.84
800.71	1224.69
800.88	1204.21
801.06	1228.78
801.23	1329.13
801.41	1261.55
801.58	1257.45
801.75	1247.21
801.93	1247.21
802.10	1277.93
802.28	1284.08
802.45	1284.08
802.63	1239.02
802.80	1212.40
802.97	1251.31
803.15	1239.02
803.32	1257.45
803.50	1224.69
803.67	1284.08
803.84	1236.97
804.02	1263.60
804.19	1271.79
804.37	1286.12
804.54	1198.06
804.71	1279.98
804.89	1284.08
805.06	1265.64
805.24	1259.50
805.41	1267.69
805.58	1284.08
805.76	1269.74
805.93	1261.55
806.10	1234.93
806.28	1261.55
806.45	1322.99
806.63	1286.12
806.80	1243.12
806.97	1226.73
807.15	1224.69
807.32	1302.51
807.49	1232.88
807.67	1271.79
807.84	1325.04
808.01	1294.32
808.19	1312.75
808.36	1318.89
808.54	1249.26
808.71	1290.22
808.88	1247.21
809.06	1277.93
809.23	1265.64
809.40	1386.47
809.58	1296.36
809.75	1230.83
809.92	1322.99
810.10	1308.65
810.27	1351.66
810.44	1273.84
810.62	1257.45
810.79	1322.99
810.96	1222.64
811.14	1288.17
811.31	1232.88
811.48	1378.28
811.66	1312.75
811.83	1206.25
812.00	1273.84
812.18	1286.12
812.35	1263.60
812.52	1282.03
812.69	1228.78
812.87	1290.22
813.04	1296.36
813.21	1224.69
813.39	1296.36
813.56	1269.74
813.73	1210.35
813.91	1302.51
814.08	1265.64
814.25	1245.16
814.42	1208.30
814.60	1265.64
814.77	1294.32
814.94	1288.17
815.12	1273.84
815.29	1271.79
815.46	1208.30
815.63	1265.64
815.81	1308.65
815.98	1243.12
816.15	1400.81
816.33	1241.07
816.50	1302.51
816.67	1308.65
816.84	1249.26
817.02	1214.45
817.19	1275.88
817.36	1234.93
817.53	1241.07
817.71	1263.60
817.88	1263.60
818.05	1284.08
818.22	1257.45
818.40	1218.54
818.57	1265.64
818.74	1247.21
818.91	1234.93
819.09	1232.88
819.26	1314.80
819.43	1183.73
819.60	1247.21
819.78	1226.73
819.95	1251.31
820.12	1257.45
820.29	1245.16
820.47	1253.36
820.64	1269.74
820.81	1279.98
820.98	1312.75
821.15	1294.32
821.33	1300.46
821.50	1239.02
821.67	1341.42
821.84	1253.36
822.02	1222.64
822.19	1198.06
822.36	1314.80
822.53	1282.03
822.70	1286.12
822.88	1286.12
823.05	1353.71
823.22	1187.82
823.39	1327.08
823.56	1269.74
823.74	1298.41
823.91	1343.47
824.08	1265.64
824.25	1255.40
824.42	1202.16
824.60	1236.97
824.77	1214.45
824.94	1146.86
825.11	1265.64
825.28	1230.83
825.45	1243.12
825.63	1327.08
825.80	1243.12
825.97	1335.28
826.14	1245.16
826.31	1292.27
826.48	1249.26
826.66	1251.31
826.83	1292.27
827.00	1292.27
827.17	1249.26
827.34	1263.60
827.51	1339.37
827.69	1226.73
827.86	1265.64
828.03	1277.93
828.20	1271.79
828.37	1282.03
828.54	1300.46
828.71	1296.36
828.89	1251.31
829.06	1327.08
829.23	1208.30
829.40	1288.17
829.57	1263.60
829.74	1210.35
829.91	1150.96
830.09	1267.69
830.26	1368.04
830.43	1253.36
830.60	1267.69
830.77	1294.32
830.94	1277.93
831.11	1292.27
831.28	1241.07
831.46	1232.88
831.63	1351.66
831.80	1232.88
831.97	1220.59
832.14	1286.12
832.31	1345.52
832.48	1198.06
832.65	1208.30
832.82	1234.93
832.99	1255.40
833.17	1253.36
833.34	1292.27
833.51	1294.32
833.68	1230.83
833.85	1271.79
834.02	1200.11
834.19	1251.31
834.36	1279.98
834.53	1304.56
834.70	1265.64
834.87	1243.12
835.04	1292.27
835.22	1271.79
835.39	1228.78
835.56	1200.11
835.73	1251.31
835.90	1267.69
836.07	1245.16
836.24	1263.60
836.41	1339.37
836.58	1255.40
836.75	1198.06
836.92	1333.23
837.09	1325.04
837.26	1318.89
837.43	1279.98
837.60	1288.17
837.77	1298.41
837.94	1325.04
838.12	1298.41
838.29	1277.93
838.46	1279.98
838.63	1249.26
838.80	1230.83
838.97	1275.88
839.14	1277.93
839.31	1273.84
839.48	1304.56
839.65	1306.60
839.82	1271.79
839.99	1320.94
840.16	1239.02
840.33	1284.08
840.50	1345.52
840.67	1290.22
840.84	1320.94
841.01	1267.69
841.18	1286.12
841.35	1296.36
841.52	1304.56
841.69	1267.69
841.86	1271.79
842.03	1310.70
842.20	1302.51
842.37	1232.88
842.54	1241.07
842.71	1312.75
842.88	1261.55
843.05	1308.65
843.22	1239.02
843.39	1310.70
843.56	1286.12
843.73	1249.26
843.90	1304.56
844.07	1271.79
844.24	1322.99
844.41	1300.46
844.58	1232.88
844.75	1249.26
844.92	1343.47
845.09	1228.78
845.26	1271.79
845.43	1191.92
845.60	1316.84
845.77	1312.75
845.94	1196.01
846.10	1343.47
846.27	1316.84
846.44	1288.17
846.61	1316.84
846.78	1255.40
846.95	1290.22
847.12	1198.06
847.29	1310.70
847.46	1306.60
847.63	1267.69
847.80	1247.21
847.97	1282.03
848.14	1286.12
848.31	1196.01
848.48	1284.08
848.65	1206.25
848.82	1261.55
848.98	1306.60
849.15	1265.64
849.32	1271.79
849.49	1345.52
849.66	1277.93
849.83	1279.98
850.00	1220.59
850.17	1210.35
850.34	1296.36
850.51	1312.75
850.68	1245.16
850.85	1282.03
851.01	1224.69
851.18	1253.36
851.35	1286.12
851.52	1255.40
851.69	1271.79
851.86	1302.51
852.03	1185.77
852.20	1257.45
852.37	1216.49
852.53	1239.02
852.70	1261.55
852.87	1288.17
853.04	1265.64
853.21	1243.12
853.38	1224.69
853.55	1318.89
853.72	1298.41
853.89	1290.22
854.05	1279.98
854.22	1183.73
854.39	1302.51
854.56	1366.00
854.73	1288.17
854.90	1216.49
855.07	1232.88
855.23	1302.51
855.40	1257.45
855.57	1282.03
855.74	1288.17
855.91	1230.83
856.08	1320.94
856.25	1302.51
856.41	1202.16
856.58	1286.12
856.75	1290.22
856.92	1253.36
857.09	1306.60
857.26	1251.31
857.42	1298.41
857.59	1161.20
857.76	1214.45
857.93	1247.21
858.10	1218.54
858.27	1288.17
858.43	1239.02
858.60	1210.35
858.77	1273.84
858.94	1271.79
859.11	1187.82
859.27	1314.80
859.44	1245.16
859.61	1249.26
859.78	1284.08
859.95	1277.93
860.12	1298.41
860.28	1286.12
860.45	1277.93
860.62	1306.60
860.79	1318.89
860.95	1222.64
861.12	1359.85
861.29	1261.55
861.46	1259.50
861.63	1290.22
861.79	1222.64
861.96	1322.99
862.13	1245.16
862.30	1331.18
862.47	1308.65
862.63	1318.89
862.80	1290.22
862.97	1228.78
863.14	1300.46
863.30	1296.36
863.47	1273.84
863.64	1312.75
863.81	1284.08
863.97	1298.41
864.14	1241.07
864.31	1251.31
864.48	1298.41
864.65	1290.22
864.81	1345.52
864.98	1212.40
865.15	1277.93
865.32	1224.69
865.48	1306.60
865.65	1269.74
865.82	1216.49
865.98	1269.74
866.15	1239.02
866.32	1275.88
866.49	1277.93
866.65	1286.12
866.82	1251.31
866.99	1279.98
867.16	1271.79
867.32	1243.12
867.49	1245.16
867.66	1202.16
867.83	1220.59
867.99	1208.30
868.16	1279.98
868.33	1216.49
868.49	1308.65
868.66	1327.08
868.83	1241.07
868.99	1200.11
869.16	1300.46
869.33	1325.04
869.50	1277.93
869.66	1277.93
869.83	1261.55
870.00	1279.98
870.16	1310.70
870.33	1298.41
870.50	1173.49
870.66	1263.60
870.83	1230.83
871.00	1310.70
871.17	1263.60
871.33	1265.64
871.50	1236.97
871.67	1189.87
871.83	1271.79
872.00	1234.93
872.17	1206.25
872.33	1308.65
872.50	1210.35
872.67	1243.12
872.83	1335.28
873.00	1214.45
873.17	1208.30
873.33	1263.60
873.50	1257.45
873.67	1316.84
873.83	1304.56
874.00	1290.22
874.16	1322.99
874.33	1298.41
874.50	1265.64
874.66	1298.41
874.83	1265.64
875.00	1230.83
875.16	1271.79
875.33	1265.64
875.50	1269.74
875.66	1224.69
875.83	1241.07
875.99	1286.12
876.16	1226.73
876.33	1335.28
876.49	1318.89
876.66	1273.84
876.83	1304.56
876.99	1257.45
877.16	1196.01
877.32	1230.83
877.49	1316.84
877.66	1318.89
877.82	1282.03
877.99	1284.08
878.15	1298.41
878.32	1277.93
878.49	1259.50
878.65	1255.40
878.82	1284.08
878.98	1208.30
879.15	1187.82
879.32	1187.82
879.48	1292.27
879.65	1273.84
879.81	1159.15
879.98	1230.83
880.15	1363.95
880.31	1253.36
880.48	1277.93
880.64	1259.50
880.81	1288.17
880.97	1277.93
881.14	1279.98
881.31	1179.63
881.47	1292.27
881.64	1239.02
881.80	1204.21
881.97	1277.93
882.13	1294.32
882.30	1249.26
882.47	1220.59
882.63	1275.88
882.80	1236.97
882.96	1267.69
883.13	1312.75
883.29	1282.03
883.46	1284.08
883.62	1306.60
883.79	1251.31
883.95	1310.70
884.12	1234.93
884.29	1288.17
884.45	1257.45
884.62	1230.83
884.78	1282.03
884.95	1302.51
885.11	1220.59
885.28	1275.88
885.44	1296.36
885.61	1282.03
885.77	1284.08
885.94	1304.56
886.10	1247.21
886.27	1216.49
886.43	1218.54
886.60	1294.32
886.76	1265.64
886.93	1232.88
887.09	1294.32
887.26	1263.60
887.42	1239.02
887.59	1218.54
887.75	1269.74
887.92	1257.45
888.08	1282.03
888.25	1216.49
888.41	1243.12
888.58	1292.27
888.74	1247.21
888.91	1325.04
>>>>>End Processed Spectral Data<<<<<
