SpectraSuite Data File
++++++++++++++++++++++++++++++++++++
Date: Sun Apr 03 19:55:22 CEST 2016
User: root
Dark Spectrum Present: No
Reference Spectrum Present: No
Number of Sampled Component Spectra: 1
Spectrometers: USB4C02835
Integration Time (usec): 10000 (USB4C02835)
Spectra Averaged: 1 (USB4C02835)
Boxcar Smoothing: 0 (USB4C02835)
Correct for Electrical Dark: No (USB4C02835)
Strobe/Lamp Enabled: No (USB4C02835)
Correct for Detector Non-linearity: No (USB4C02835)
Correct for Stray Light: No (USB4C02835)
Number of Pixels in Processed Spectrum: 3648
>>>>>Begin Processed Spectral Data<<<<<
177.47	1220.59
177.69	1220.59
177.91	1220.59
178.13	1208.30
178.36	1204.21
178.58	1224.69
178.80	1230.83
179.02	1347.56
179.24	1255.40
179.46	1267.69
179.68	1288.17
179.90	1282.03
180.13	1308.65
180.35	1191.92
180.57	1241.07
180.79	1269.74
181.01	1284.08
181.23	1179.63
181.45	1261.55
181.67	1314.80
181.90	1247.21
182.12	1249.26
182.34	1243.12
182.56	1245.16
182.78	1298.41
183.00	1259.50
183.22	1286.12
183.44	1257.45
183.66	1263.60
183.89	1275.88
184.11	1220.59
184.33	1273.84
184.55	1351.66
184.77	1257.45
184.99	1292.27
185.21	1282.03
185.43	1312.75
185.65	1247.21
185.87	1275.88
186.10	1245.16
186.32	1355.76
186.54	1263.60
186.76	1314.80
186.98	1253.36
187.20	1230.83
187.42	1236.97
187.64	1290.22
187.86	1296.36
188.08	1286.12
188.30	1257.45
188.52	1265.64
188.75	1273.84
188.97	1288.17
189.19	1210.35
189.41	1312.75
189.63	1275.88
189.85	1351.66
190.07	1271.79
190.29	1198.06
190.51	1259.50
190.73	1337.32
190.95	1185.77
191.17	1226.73
191.39	1261.55
191.61	1304.56
191.84	1273.84
192.06	1230.83
192.28	1290.22
192.50	1286.12
192.72	1284.08
192.94	1212.40
193.16	1241.07
193.38	1247.21
193.60	1255.40
193.82	1286.12
194.04	1236.97
194.26	1261.55
194.48	1232.88
194.70	1269.74
194.92	1294.32
195.14	1273.84
195.36	1247.21
195.58	1269.74
195.80	1198.06
196.02	1327.08
196.24	1230.83
196.46	1226.73
196.69	1243.12
196.91	1255.40
197.13	1277.93
197.35	1247.21
197.57	1263.60
197.79	1241.07
198.01	1273.84
198.23	1327.08
198.45	1177.58
198.67	1269.74
198.89	1279.98
199.11	1302.51
199.33	1212.40
199.55	1232.88
199.77	1275.88
199.99	1288.17
200.21	1243.12
200.43	1300.46
200.65	1279.98
200.87	1239.02
201.09	1255.40
201.31	1247.21
201.53	1271.79
201.75	1284.08
201.97	1333.23
202.19	1212.40
202.41	1247.21
202.63	1228.78
202.85	1292.27
203.07	1271.79
203.29	1298.41
203.51	1206.25
203.73	1241.07
203.95	1275.88
204.17	1202.16
204.39	1314.80
204.61	1275.88
204.83	1271.79
205.05	1234.93
205.27	1226.73
205.49	1312.75
205.71	1290.22
205.93	1226.73
206.15	1288.17
206.37	1253.36
206.59	1290.22
206.81	1292.27
207.03	1296.36
207.25	1261.55
207.47	1298.41
207.69	1273.84
207.91	1206.25
208.13	1300.46
208.34	1214.45
208.56	1245.16
208.78	1273.84
209.00	1230.83
209.22	1298.41
209.44	1222.64
209.66	1247.21
209.88	1269.74
210.10	1255.40
210.32	1249.26
210.54	1302.51
210.76	1200.11
210.98	1255.40
211.20	1292.27
211.42	1294.32
211.64	1296.36
211.86	1282.03
212.08	1261.55
212.30	1279.98
212.52	1263.60
212.74	1304.56
212.96	1316.84
213.17	1296.36
213.39	1177.58
213.61	1273.84
213.83	1282.03
214.05	1325.04
214.27	1302.51
214.49	1259.50
214.71	1212.40
214.93	1249.26
215.15	1300.46
215.37	1251.31
215.59	1241.07
215.81	1234.93
216.03	1296.36
216.24	1325.04
216.46	1251.31
216.68	1255.40
216.90	1247.21
217.12	1251.31
217.34	1183.73
217.56	1263.60
217.78	1249.26
218.00	1236.97
218.22	1214.45
218.44	1251.31
218.66	1288.17
218.87	1247.21
219.09	1277.93
219.31	1230.83
219.53	1316.84
219.75	1230.83
219.97	1224.69
220.19	1294.32
220.41	1282.03
220.63	1282.03
220.85	1249.26
221.06	1253.36
221.28	1236.97
221.50	1265.64
221.72	1308.65
221.94	1368.04
222.16	1279.98
222.38	1263.60
222.60	1202.16
222.82	1306.60
223.03	1204.21
223.25	1279.98
223.47	1294.32
223.69	1312.75
223.91	1257.45
224.13	1290.22
224.35	1290.22
224.57	1288.17
224.78	1288.17
225.00	1198.06
225.22	1216.49
225.44	1239.02
225.66	1200.11
225.88	1247.21
226.10	1275.88
226.32	1314.80
226.53	1341.42
226.75	1159.15
226.97	1271.79
227.19	1325.04
227.41	1288.17
227.63	1284.08
227.85	1263.60
228.06	1255.40
228.28	1294.32
228.50	1263.60
228.72	1282.03
228.94	1232.88
229.16	1202.16
229.37	1294.32
229.59	1339.37
229.81	1210.35
230.03	1316.84
230.25	1275.88
230.47	1257.45
230.69	1218.54
230.90	1241.07
231.12	1208.30
231.34	1312.75
231.56	1335.28
231.78	1273.84
232.00	1247.21
232.21	1210.35
232.43	1263.60
232.65	1294.32
232.87	1224.69
233.09	1253.36
233.30	1290.22
233.52	1249.26
233.74	1261.55
233.96	1286.12
234.18	1298.41
234.40	1298.41
234.61	1181.68
234.83	1220.59
235.05	1222.64
235.27	1310.70
235.49	1255.40
235.70	1239.02
235.92	1296.36
236.14	1322.99
236.36	1259.50
236.58	1288.17
236.79	1300.46
237.01	1206.25
237.23	1316.84
237.45	1232.88
237.67	1218.54
237.88	1282.03
238.10	1275.88
238.32	1284.08
238.54	1296.36
238.76	1265.64
238.97	1230.83
239.19	1282.03
239.41	1312.75
239.63	1271.79
239.85	1288.17
240.06	1212.40
240.28	1232.88
240.50	1329.13
240.72	1302.51
240.93	1294.32
241.15	1257.45
241.37	1290.22
241.59	1257.45
241.81	1312.75
242.02	1247.21
242.24	1228.78
242.46	1249.26
242.68	1253.36
242.89	1298.41
243.11	1216.49
243.33	1359.85
243.55	1249.26
243.76	1335.28
243.98	1236.97
244.20	1331.18
244.42	1253.36
244.64	1335.28
244.85	1247.21
245.07	1320.94
245.29	1236.97
245.51	1279.98
245.72	1265.64
245.94	1220.59
246.16	1279.98
246.38	1296.36
246.59	1247.21
246.81	1259.50
247.03	1232.88
247.24	1277.93
247.46	1290.22
247.68	1236.97
247.90	1279.98
248.11	1239.02
248.33	1310.70
248.55	1222.64
248.77	1191.92
248.98	1226.73
249.20	1312.75
249.42	1286.12
249.64	1234.93
249.85	1314.80
250.07	1409.00
250.29	1290.22
250.50	1302.51
250.72	1339.37
250.94	1247.21
251.16	1273.84
251.37	1236.97
251.59	1282.03
251.81	1241.07
252.02	1286.12
252.24	1300.46
252.46	1251.31
252.68	1298.41
252.89	1290.22
253.11	1198.06
253.33	1290.22
253.54	1234.93
253.76	1247.21
253.98	1208.30
254.20	1279.98
254.41	1269.74
254.63	1269.74
254.85	1363.95
255.06	1234.93
255.28	1261.55
255.50	1212.40
255.71	1322.99
255.93	1171.44
256.15	1261.55
256.36	1353.71
256.58	1259.50
256.80	1253.36
257.02	1224.69
257.23	1249.26
257.45	1286.12
257.67	1322.99
257.88	1208.30
258.10	1286.12
258.32	1247.21
258.53	1265.64
258.75	1277.93
258.97	1263.60
259.18	1210.35
259.40	1335.28
259.62	1325.04
259.83	1284.08
260.05	1243.12
260.27	1155.05
260.48	1245.16
260.70	1314.80
260.92	1298.41
261.13	1325.04
261.35	1247.21
261.57	1282.03
261.78	1249.26
262.00	1241.07
262.22	1343.47
262.43	1259.50
262.65	1208.30
262.86	1320.94
263.08	1304.56
263.30	1290.22
263.51	1255.40
263.73	1347.56
263.95	1204.21
264.16	1294.32
264.38	1216.49
264.60	1267.69
264.81	1212.40
265.03	1282.03
265.25	1228.78
265.46	1241.07
265.68	1251.31
265.89	1265.64
266.11	1239.02
266.33	1245.16
266.54	1214.45
266.76	1310.70
266.98	1222.64
267.19	1230.83
267.41	1259.50
267.62	1239.02
267.84	1306.60
268.06	1255.40
268.27	1279.98
268.49	1322.99
268.70	1214.45
268.92	1159.15
269.14	1257.45
269.35	1183.73
269.57	1296.36
269.79	1261.55
270.00	1224.69
270.22	1234.93
270.43	1208.30
270.65	1212.40
270.87	1234.93
271.08	1263.60
271.30	1279.98
271.51	1286.12
271.73	1288.17
271.95	1253.36
272.16	1226.73
272.38	1241.07
272.59	1271.79
272.81	1251.31
273.02	1249.26
273.24	1222.64
273.46	1294.32
273.67	1228.78
273.89	1255.40
274.10	1239.02
274.32	1179.63
274.54	1279.98
274.75	1277.93
274.97	1284.08
275.18	1265.64
275.40	1279.98
275.61	1284.08
275.83	1392.62
276.05	1243.12
276.26	1228.78
276.48	1236.97
276.69	1296.36
276.91	1271.79
277.12	1298.41
277.34	1267.69
277.55	1275.88
277.77	1187.82
277.99	1261.55
278.20	1167.34
278.42	1292.27
278.63	1271.79
278.85	1284.08
279.06	1263.60
279.28	1267.69
279.49	1273.84
279.71	1284.08
279.93	1251.31
280.14	1214.45
280.36	1187.82
280.57	1245.16
280.79	1286.12
281.00	1325.04
281.22	1232.88
281.43	1263.60
281.65	1259.50
281.86	1361.90
282.08	1206.25
282.29	1320.94
282.51	1333.23
282.73	1236.97
282.94	1275.88
283.16	1177.58
283.37	1302.51
283.59	1269.74
283.80	1282.03
284.02	1265.64
284.23	1236.97
284.45	1279.98
284.66	1146.86
284.88	1253.36
285.09	1239.02
285.31	1308.65
285.52	1288.17
285.74	1214.45
285.95	1351.66
286.17	1308.65
286.38	1253.36
286.60	1292.27
286.81	1265.64
287.03	1255.40
287.24	1222.64
287.46	1327.08
287.67	1249.26
287.89	1335.28
288.10	1275.88
288.32	1257.45
288.53	1255.40
288.75	1247.21
288.96	1325.04
289.18	1247.21
289.39	1249.26
289.61	1224.69
289.82	1251.31
290.04	1322.99
290.25	1314.80
290.47	1243.12
290.68	1267.69
290.90	1234.93
291.11	1261.55
291.33	1200.11
291.54	1212.40
291.76	1282.03
291.97	1296.36
292.18	1257.45
292.40	1294.32
292.61	1249.26
292.83	1292.27
293.04	1216.49
293.26	1261.55
293.47	1282.03
293.69	1249.26
293.90	1279.98
294.12	1284.08
294.33	1173.49
294.55	1257.45
294.76	1306.60
294.97	1204.21
295.19	1294.32
295.40	1271.79
295.62	1216.49
295.83	1292.27
296.05	1292.27
296.26	1263.60
296.48	1273.84
296.69	1314.80
296.90	1275.88
297.12	1277.93
297.33	1273.84
297.55	1314.80
297.76	1255.40
297.98	1212.40
298.19	1355.76
298.41	1206.25
298.62	1230.83
298.83	1261.55
299.05	1290.22
299.26	1314.80
299.48	1249.26
299.69	1251.31
299.90	1300.46
300.12	1290.22
300.33	1275.88
300.55	1267.69
300.76	1290.22
300.98	1189.87
301.19	1345.52
301.40	1261.55
301.62	1251.31
301.83	1306.60
302.05	1288.17
302.26	1228.78
302.47	1290.22
302.69	1255.40
302.90	1320.94
303.12	1263.60
303.33	1292.27
303.54	1222.64
303.76	1234.93
303.97	1267.69
304.19	1255.40
304.40	1302.51
304.61	1228.78
304.83	1255.40
305.04	1271.79
305.26	1273.84
305.47	1247.21
305.68	1200.11
305.90	1263.60
306.11	1183.73
306.33	1253.36
306.54	1269.74
306.75	1329.13
306.97	1167.34
307.18	1292.27
307.39	1312.75
307.61	1288.17
307.82	1265.64
308.04	1282.03
308.25	1275.88
308.46	1257.45
308.68	1271.79
308.89	1247.21
309.10	1222.64
309.32	1284.08
309.53	1206.25
309.74	1230.83
309.96	1239.02
310.17	1247.21
310.39	1212.40
310.60	1271.79
310.81	1228.78
311.03	1222.64
311.24	1269.74
311.45	1271.79
311.67	1210.35
311.88	1243.12
312.09	1220.59
312.31	1325.04
312.52	1284.08
312.73	1196.01
312.95	1228.78
313.16	1273.84
313.37	1296.36
313.59	1308.65
313.80	1226.73
314.01	1304.56
314.23	1284.08
314.44	1245.16
314.65	1302.51
314.87	1302.51
315.08	1312.75
315.29	1267.69
315.51	1275.88
315.72	1337.32
315.93	1251.31
316.15	1292.27
316.36	1292.27
316.57	1263.60
316.79	1257.45
317.00	1243.12
317.21	1261.55
317.43	1263.60
317.64	1239.02
317.85	1269.74
318.07	1232.88
318.28	1288.17
318.49	1249.26
318.70	1269.74
318.92	1230.83
319.13	1273.84
319.34	1169.39
319.56	1275.88
319.77	1290.22
319.98	1200.11
320.20	1232.88
320.41	1243.12
320.62	1286.12
320.83	1294.32
321.05	1282.03
321.26	1226.73
321.47	1138.67
321.69	1261.55
321.90	1249.26
322.11	1343.47
322.32	1251.31
322.54	1245.16
322.75	1345.52
322.96	1284.08
323.18	1230.83
323.39	1255.40
323.60	1312.75
323.81	1335.28
324.03	1279.98
324.24	1282.03
324.45	1253.36
324.66	1224.69
324.88	1292.27
325.09	1261.55
325.30	1218.54
325.52	1261.55
325.73	1294.32
325.94	1271.79
326.15	1204.21
326.37	1181.68
326.58	1241.07
326.79	1298.41
327.00	1282.03
327.22	1269.74
327.43	1269.74
327.64	1261.55
327.85	1337.32
328.07	1288.17
328.28	1224.69
328.49	1318.89
328.70	1230.83
328.92	1335.28
329.13	1265.64
329.34	1249.26
329.55	1243.12
329.76	1230.83
329.98	1290.22
330.19	1284.08
330.40	1269.74
330.61	1212.40
330.83	1261.55
331.04	1232.88
331.25	1212.40
331.46	1368.04
331.68	1249.26
331.89	1179.63
332.10	1277.93
332.31	1198.06
332.52	1300.46
332.74	1263.60
332.95	1243.12
333.16	1288.17
333.37	1189.87
333.58	1277.93
333.80	1363.95
334.01	1290.22
334.22	1263.60
334.43	1220.59
334.64	1243.12
334.86	1275.88
335.07	1333.23
335.28	1243.12
335.49	1245.16
335.70	1232.88
335.92	1353.71
336.13	1306.60
336.34	1275.88
336.55	1314.80
336.76	1273.84
336.98	1290.22
337.19	1234.93
337.40	1263.60
337.61	1253.36
337.82	1230.83
338.04	1243.12
338.25	1282.03
338.46	1257.45
338.67	1267.69
338.88	1308.65
339.09	1183.73
339.31	1269.74
339.52	1290.22
339.73	1257.45
339.94	1253.36
340.15	1245.16
340.36	1255.40
340.58	1269.74
340.79	1202.16
341.00	1294.32
341.21	1247.21
341.42	1247.21
341.63	1247.21
341.85	1249.26
342.06	1325.04
342.27	1261.55
342.48	1279.98
342.69	1243.12
342.90	1241.07
343.12	1314.80
343.33	1284.08
343.54	1273.84
343.75	1230.83
343.96	1251.31
344.17	1226.73
344.38	1257.45
344.60	1236.97
344.81	1320.94
345.02	1316.84
345.23	1308.65
345.44	1210.35
345.65	1329.13
345.86	1318.89
346.07	1263.60
346.29	1239.02
346.50	1302.51
346.71	1282.03
346.92	1288.17
347.13	1284.08
347.34	1298.41
347.55	1218.54
347.76	1247.21
347.98	1247.21
348.19	1271.79
348.40	1239.02
348.61	1300.46
348.82	1216.49
349.03	1325.04
349.24	1273.84
349.45	1234.93
349.66	1228.78
349.88	1239.02
350.09	1210.35
350.30	1269.74
350.51	1271.79
350.72	1331.18
350.93	1284.08
351.14	1259.50
351.35	1312.75
351.56	1243.12
351.77	1279.98
351.99	1282.03
352.20	1247.21
352.41	1302.51
352.62	1228.78
352.83	1251.31
353.04	1300.46
353.25	1282.03
353.46	1316.84
353.67	1265.64
353.88	1269.74
354.09	1230.83
354.30	1261.55
354.52	1220.59
354.73	1329.13
354.94	1247.21
355.15	1263.60
355.36	1279.98
355.57	1224.69
355.78	1302.51
355.99	1263.60
356.20	1224.69
356.41	1290.22
356.62	1261.55
356.83	1277.93
357.04	1247.21
357.25	1183.73
357.46	1282.03
357.68	1206.25
357.89	1284.08
358.10	1314.80
358.31	1243.12
358.52	1255.40
358.73	1343.47
358.94	1290.22
359.15	1282.03
359.36	1288.17
359.57	1331.18
359.78	1298.41
359.99	1275.88
360.20	1271.79
360.41	1308.65
360.62	1239.02
360.83	1249.26
361.04	1316.84
361.25	1267.69
361.46	1322.99
361.67	1304.56
361.88	1308.65
362.09	1218.54
362.30	1292.27
362.51	1228.78
362.72	1298.41
362.93	1257.45
363.14	1327.08
363.35	1296.36
363.56	1314.80
363.78	1300.46
363.99	1292.27
364.20	1226.73
364.41	1271.79
364.62	1267.69
364.83	1294.32
365.04	1286.12
365.25	1288.17
365.46	1230.83
365.67	1316.84
365.88	1302.51
366.09	1259.50
366.30	1236.97
366.51	1265.64
366.72	1275.88
366.93	1339.37
367.14	1243.12
367.35	1259.50
367.56	1218.54
367.77	1353.71
367.98	1241.07
368.18	1279.98
368.39	1308.65
368.60	1263.60
368.81	1282.03
369.02	1263.60
369.23	1243.12
369.44	1208.30
369.65	1239.02
369.86	1296.36
370.07	1204.21
370.28	1267.69
370.49	1214.45
370.70	1273.84
370.91	1339.37
371.12	1288.17
371.33	1333.23
371.54	1226.73
371.75	1343.47
371.96	1245.16
372.17	1245.16
372.38	1241.07
372.59	1279.98
372.80	1290.22
373.01	1261.55
373.22	1271.79
373.43	1273.84
373.64	1232.88
373.85	1345.52
374.06	1230.83
374.26	1294.32
374.47	1273.84
374.68	1290.22
374.89	1290.22
375.10	1277.93
375.31	1347.56
375.52	1298.41
375.73	1261.55
375.94	1294.32
376.15	1288.17
376.36	1304.56
376.57	1294.32
376.78	1251.31
376.99	1255.40
377.20	1257.45
377.40	1255.40
377.61	1263.60
377.82	1286.12
378.03	1228.78
378.24	1251.31
378.45	1239.02
378.66	1247.21
378.87	1245.16
379.08	1327.08
379.29	1241.07
379.50	1239.02
379.71	1253.36
379.91	1339.37
380.12	1314.80
380.33	1279.98
380.54	1257.45
380.75	1239.02
380.96	1161.20
381.17	1337.32
381.38	1269.74
381.59	1216.49
381.80	1241.07
382.00	1286.12
382.21	1239.02
382.42	1255.40
382.63	1288.17
382.84	1284.08
383.05	1265.64
383.26	1253.36
383.47	1249.26
383.68	1279.98
383.88	1271.79
384.09	1198.06
384.30	1298.41
384.51	1224.69
384.72	1243.12
384.93	1198.06
385.14	1296.36
385.35	1251.31
385.55	1239.02
385.76	1345.52
385.97	1306.60
386.18	1275.88
386.39	1261.55
386.60	1322.99
386.81	1288.17
387.02	1284.08
387.22	1265.64
387.43	1189.87
387.64	1308.65
387.85	1306.60
388.06	1282.03
388.27	1292.27
388.48	1325.04
388.68	1241.07
388.89	1318.89
389.10	1224.69
389.31	1196.01
389.52	1253.36
389.73	1286.12
389.93	1304.56
390.14	1353.71
390.35	1224.69
390.56	1279.98
390.77	1241.07
390.98	1261.55
391.18	1288.17
391.39	1271.79
391.60	1241.07
391.81	1308.65
392.02	1279.98
392.23	1335.28
392.43	1241.07
392.64	1265.64
392.85	1228.78
393.06	1273.84
393.27	1310.70
393.47	1208.30
393.68	1275.88
393.89	1220.59
394.10	1310.70
394.31	1216.49
394.52	1269.74
394.72	1251.31
394.93	1322.99
395.14	1284.08
395.35	1298.41
395.56	1292.27
395.76	1318.89
395.97	1296.36
396.18	1212.40
396.39	1241.07
396.60	1279.98
396.80	1251.31
397.01	1232.88
397.22	1212.40
397.43	1296.36
397.64	1241.07
397.84	1273.84
398.05	1241.07
398.26	1245.16
398.47	1279.98
398.67	1241.07
398.88	1241.07
399.09	1361.90
399.30	1296.36
399.51	1314.80
399.71	1232.88
399.92	1331.18
400.13	1255.40
400.34	1277.93
400.54	1255.40
400.75	1298.41
400.96	1267.69
401.17	1255.40
401.37	1222.64
401.58	1253.36
401.79	1275.88
402.00	1259.50
402.21	1202.16
402.41	1236.97
402.62	1271.79
402.83	1275.88
403.04	1265.64
403.24	1269.74
403.45	1196.01
403.66	1296.36
403.87	1263.60
404.07	1253.36
404.28	1302.51
404.49	1286.12
404.70	1320.94
404.90	1271.79
405.11	1302.51
405.32	1251.31
405.52	1212.40
405.73	1273.84
405.94	1189.87
406.15	1218.54
406.35	1325.04
406.56	1265.64
406.77	1251.31
406.98	1232.88
407.18	1294.32
407.39	1232.88
407.60	1171.44
407.80	1282.03
408.01	1271.79
408.22	1253.36
408.43	1220.59
408.63	1300.46
408.84	1288.17
409.05	1294.32
409.25	1239.02
409.46	1282.03
409.67	1275.88
409.88	1320.94
410.08	1224.69
410.29	1177.58
410.50	1251.31
410.70	1263.60
410.91	1257.45
411.12	1265.64
411.32	1284.08
411.53	1306.60
411.74	1298.41
411.95	1267.69
412.15	1230.83
412.36	1279.98
412.57	1173.49
412.77	1267.69
412.98	1214.45
413.19	1282.03
413.39	1253.36
413.60	1234.93
413.81	1296.36
414.01	1273.84
414.22	1284.08
414.43	1236.97
414.63	1224.69
414.84	1218.54
415.05	1220.59
415.25	1226.73
415.46	1300.46
415.67	1294.32
415.87	1269.74
416.08	1228.78
416.29	1239.02
416.49	1333.23
416.70	1308.65
416.91	1257.45
417.11	1263.60
417.32	1265.64
417.53	1210.35
417.73	1241.07
417.94	1269.74
418.15	1150.96
418.35	1306.60
418.56	1275.88
418.77	1288.17
418.97	1251.31
419.18	1185.77
419.38	1255.40
419.59	1284.08
419.80	1304.56
420.00	1210.35
420.21	1310.70
420.42	1241.07
420.62	1292.27
420.83	1286.12
421.04	1226.73
421.24	1265.64
421.45	1253.36
421.65	1265.64
421.86	1288.17
422.07	1333.23
422.27	1247.21
422.48	1228.78
422.69	1275.88
422.89	1288.17
423.10	1259.50
423.30	1333.23
423.51	1234.93
423.72	1273.84
423.92	1279.98
424.13	1241.07
424.33	1224.69
424.54	1318.89
424.75	1265.64
424.95	1224.69
425.16	1277.93
425.36	1282.03
425.57	1222.64
425.78	1200.11
425.98	1191.92
426.19	1288.17
426.39	1288.17
426.60	1288.17
426.81	1304.56
427.01	1183.73
427.22	1308.65
427.42	1236.97
427.63	1298.41
427.83	1191.92
428.04	1273.84
428.25	1255.40
428.45	1329.13
428.66	1255.40
428.86	1376.24
429.07	1273.84
429.28	1271.79
429.48	1234.93
429.69	1208.30
429.89	1288.17
430.10	1325.04
430.30	1257.45
430.51	1349.61
430.71	1271.79
430.92	1245.16
431.13	1259.50
431.33	1347.56
431.54	1267.69
431.74	1230.83
431.95	1271.79
432.15	1286.12
432.36	1259.50
432.56	1261.55
432.77	1228.78
432.98	1236.97
433.18	1257.45
433.39	1300.46
433.59	1220.59
433.80	1329.13
434.00	1325.04
434.21	1232.88
434.41	1308.65
434.62	1247.21
434.82	1296.36
435.03	1251.31
435.23	1327.08
435.44	1300.46
435.64	1241.07
435.85	1292.27
436.06	1298.41
436.26	1234.93
436.47	1304.56
436.67	1320.94
436.88	1267.69
437.08	1187.82
437.29	1279.98
437.49	1314.80
437.70	1232.88
437.90	1265.64
438.11	1271.79
438.31	1226.73
438.52	1232.88
438.72	1298.41
438.93	1249.26
439.13	1271.79
439.34	1259.50
439.54	1267.69
439.75	1302.51
439.95	1282.03
440.16	1288.17
440.36	1302.51
440.57	1212.40
440.77	1339.37
440.98	1314.80
441.18	1251.31
441.39	1232.88
441.59	1318.89
441.80	1263.60
442.00	1296.36
442.21	1327.08
442.41	1294.32
442.62	1232.88
442.82	1273.84
443.02	1314.80
443.23	1314.80
443.43	1308.65
443.64	1173.49
443.84	1269.74
444.05	1232.88
444.25	1265.64
444.46	1298.41
444.66	1257.45
444.87	1249.26
445.07	1310.70
445.28	1245.16
445.48	1232.88
445.69	1282.03
445.89	1259.50
446.09	1247.21
446.30	1232.88
446.50	1241.07
446.71	1292.27
446.91	1292.27
447.12	1245.16
447.32	1243.12
447.53	1232.88
447.73	1216.49
447.93	1200.11
448.14	1267.69
448.34	1298.41
448.55	1273.84
448.75	1349.61
448.96	1253.36
449.16	1224.69
449.36	1286.12
449.57	1245.16
449.77	1306.60
449.98	1241.07
450.18	1253.36
450.39	1282.03
450.59	1279.98
450.79	1224.69
451.00	1273.84
451.20	1325.04
451.41	1290.22
451.61	1265.64
451.81	1261.55
452.02	1329.13
452.22	1314.80
452.43	1282.03
452.63	1234.93
452.84	1290.22
453.04	1222.64
453.24	1265.64
453.45	1220.59
453.65	1292.27
453.86	1263.60
454.06	1294.32
454.26	1290.22
454.47	1318.89
454.67	1302.51
454.87	1232.88
455.08	1329.13
455.28	1300.46
455.49	1236.97
455.69	1269.74
455.89	1302.51
456.10	1296.36
456.30	1296.36
456.51	1298.41
456.71	1265.64
456.91	1343.47
457.12	1275.88
457.32	1187.82
457.52	1279.98
457.73	1232.88
457.93	1275.88
458.14	1288.17
458.34	1329.13
458.54	1320.94
458.75	1253.36
458.95	1208.30
459.15	1320.94
459.36	1314.80
459.56	1282.03
459.76	1325.04
459.97	1347.56
460.17	1298.41
460.37	1288.17
460.58	1279.98
460.78	1370.09
460.99	1269.74
461.19	1314.80
461.39	1331.18
461.60	1296.36
461.80	1179.63
462.00	1275.88
462.21	1255.40
462.41	1298.41
462.61	1279.98
462.82	1257.45
463.02	1234.93
463.22	1296.36
463.43	1304.56
463.63	1269.74
463.83	1226.73
464.04	1263.60
464.24	1267.69
464.44	1308.65
464.64	1263.60
464.85	1230.83
465.05	1339.37
465.25	1271.79
465.46	1265.64
465.66	1239.02
465.86	1310.70
466.07	1306.60
466.27	1279.98
466.47	1298.41
466.68	1210.35
466.88	1200.11
467.08	1275.88
467.29	1259.50
467.49	1300.46
467.69	1302.51
467.89	1290.22
468.10	1232.88
468.30	1318.89
468.50	1214.45
468.71	1320.94
468.91	1247.21
469.11	1316.84
469.31	1271.79
469.52	1351.66
469.72	1251.31
469.92	1279.98
470.13	1230.83
470.33	1273.84
470.53	1292.27
470.73	1218.54
470.94	1337.32
471.14	1339.37
471.34	1282.03
471.54	1228.78
471.75	1267.69
471.95	1329.13
472.15	1249.26
472.36	1267.69
472.56	1286.12
472.76	1318.89
472.96	1345.52
473.17	1265.64
473.37	1271.79
473.57	1314.80
473.77	1273.84
473.98	1277.93
474.18	1331.18
474.38	1265.64
474.58	1353.71
474.79	1224.69
474.99	1314.80
475.19	1314.80
475.39	1292.27
475.60	1337.32
475.80	1210.35
476.00	1304.56
476.20	1279.98
476.41	1298.41
476.61	1271.79
476.81	1239.02
477.01	1243.12
477.21	1251.31
477.42	1208.30
477.62	1255.40
477.82	1220.59
478.02	1273.84
478.23	1202.16
478.43	1345.52
478.63	1249.26
478.83	1286.12
479.03	1271.79
479.24	1275.88
479.44	1279.98
479.64	1241.07
479.84	1251.31
480.04	1253.36
480.25	1253.36
480.45	1277.93
480.65	1232.88
480.85	1261.55
481.06	1239.02
481.26	1247.21
481.46	1273.84
481.66	1292.27
481.86	1288.17
482.06	1230.83
482.27	1296.36
482.47	1339.37
482.67	1257.45
482.87	1273.84
483.07	1318.89
483.28	1255.40
483.48	1322.99
483.68	1273.84
483.88	1249.26
484.08	1322.99
484.29	1208.30
484.49	1226.73
484.69	1308.65
484.89	1255.40
485.09	1273.84
485.29	1251.31
485.50	1292.27
485.70	1279.98
485.90	1292.27
486.10	1228.78
486.30	1255.40
486.50	1318.89
486.71	1249.26
486.91	1261.55
487.11	1265.64
487.31	1282.03
487.51	1218.54
487.71	1245.16
487.91	1290.22
488.12	1189.87
488.32	1273.84
488.52	1200.11
488.72	1273.84
488.92	1290.22
489.12	1298.41
489.32	1339.37
489.53	1257.45
489.73	1253.36
489.93	1279.98
490.13	1275.88
490.33	1245.16
490.53	1214.45
490.73	1296.36
490.94	1204.21
491.14	1267.69
491.34	1306.60
491.54	1228.78
491.74	1261.55
491.94	1363.95
492.14	1310.70
492.34	1259.50
492.54	1232.88
492.75	1202.16
492.95	1243.12
493.15	1359.85
493.35	1304.56
493.55	1232.88
493.75	1333.23
493.95	1232.88
494.15	1322.99
494.35	1206.25
494.56	1275.88
494.76	1261.55
494.96	1267.69
495.16	1302.51
495.36	1310.70
495.56	1273.84
495.76	1298.41
495.96	1271.79
496.16	1220.59
496.36	1286.12
496.56	1288.17
496.77	1251.31
496.97	1261.55
497.17	1228.78
497.37	1296.36
497.57	1349.61
497.77	1298.41
497.97	1310.70
498.17	1294.32
498.37	1183.73
498.57	1261.55
498.77	1327.08
498.97	1183.73
499.17	1300.46
499.38	1275.88
499.58	1232.88
499.78	1286.12
499.98	1271.79
500.18	1339.37
500.38	1234.93
500.58	1294.32
500.78	1226.73
500.98	1310.70
501.18	1273.84
501.38	1320.94
501.58	1275.88
501.78	1230.83
501.98	1320.94
502.18	1257.45
502.38	1249.26
502.58	1210.35
502.78	1269.74
502.98	1236.97
503.18	1247.21
503.38	1245.16
503.59	1294.32
503.79	1331.18
503.99	1298.41
504.19	1200.11
504.39	1320.94
504.59	1273.84
504.79	1271.79
504.99	1265.64
505.19	1308.65
505.39	1259.50
505.59	1230.83
505.79	1273.84
505.99	1279.98
506.19	1271.79
506.39	1220.59
506.59	1275.88
506.79	1312.75
506.99	1288.17
507.19	1296.36
507.39	1259.50
507.59	1310.70
507.79	1275.88
507.99	1325.04
508.19	1310.70
508.39	1249.26
508.59	1243.12
508.79	1355.76
508.99	1263.60
509.19	1290.22
509.39	1267.69
509.59	1220.59
509.79	1251.31
509.99	1277.93
510.19	1316.84
510.39	1304.56
510.59	1245.16
510.79	1279.98
510.99	1267.69
511.19	1314.80
511.39	1284.08
511.59	1347.56
511.79	1290.22
511.99	1257.45
512.19	1226.73
512.38	1343.47
512.58	1300.46
512.78	1329.13
512.98	1320.94
513.18	1288.17
513.38	1277.93
513.58	1325.04
513.78	1288.17
513.98	1202.16
514.18	1251.31
514.38	1298.41
514.58	1275.88
514.78	1222.64
514.98	1232.88
515.18	1300.46
515.38	1355.76
515.58	1277.93
515.78	1294.32
515.98	1288.17
516.18	1269.74
516.38	1257.45
516.57	1277.93
516.77	1335.28
516.97	1325.04
517.17	1273.84
517.37	1202.16
517.57	1288.17
517.77	1337.32
517.97	1288.17
518.17	1302.51
518.37	1267.69
518.57	1234.93
518.77	1347.56
518.97	1249.26
519.16	1298.41
519.36	1331.18
519.56	1243.12
519.76	1236.97
519.96	1312.75
520.16	1312.75
520.36	1304.56
520.56	1314.80
520.76	1327.08
520.96	1286.12
521.16	1345.52
521.35	1232.88
521.55	1296.36
521.75	1351.66
521.95	1263.60
522.15	1202.16
522.35	1220.59
522.55	1286.12
522.75	1271.79
522.95	1257.45
523.14	1316.84
523.34	1265.64
523.54	1306.60
523.74	1339.37
523.94	1279.98
524.14	1304.56
524.34	1218.54
524.54	1236.97
524.73	1286.12
524.93	1271.79
525.13	1296.36
525.33	1306.60
525.53	1267.69
525.73	1333.23
525.93	1265.64
526.13	1294.32
526.32	1302.51
526.52	1259.50
526.72	1308.65
526.92	1271.79
527.12	1331.18
527.32	1253.36
527.52	1288.17
527.71	1271.79
527.91	1312.75
528.11	1265.64
528.31	1318.89
528.51	1263.60
528.71	1255.40
528.90	1249.26
529.10	1304.56
529.30	1300.46
529.50	1224.69
529.70	1239.02
529.90	1282.03
530.09	1310.70
530.29	1374.19
530.49	1288.17
530.69	1284.08
530.89	1290.22
531.09	1269.74
531.28	1226.73
531.48	1222.64
531.68	1325.04
531.88	1333.23
532.08	1251.31
532.28	1300.46
532.47	1339.37
532.67	1337.32
532.87	1312.75
533.07	1282.03
533.27	1312.75
533.46	1288.17
533.66	1241.07
533.86	1271.79
534.06	1312.75
534.26	1284.08
534.45	1282.03
534.65	1261.55
534.85	1241.07
535.05	1298.41
535.25	1265.64
535.44	1263.60
535.64	1343.47
535.84	1284.08
536.04	1275.88
536.24	1220.59
536.43	1284.08
536.63	1259.50
536.83	1265.64
537.03	1251.31
537.22	1318.89
537.42	1322.99
537.62	1273.84
537.82	1271.79
538.02	1271.79
538.21	1228.78
538.41	1314.80
538.61	1286.12
538.81	1300.46
539.00	1306.60
539.20	1304.56
539.40	1310.70
539.60	1253.36
539.79	1251.31
539.99	1298.41
540.19	1263.60
540.39	1286.12
540.58	1230.83
540.78	1222.64
540.98	1251.31
541.18	1249.26
541.37	1320.94
541.57	1249.26
541.77	1279.98
541.97	1298.41
542.16	1302.51
542.36	1343.47
542.56	1327.08
542.76	1236.97
542.95	1345.52
543.15	1327.08
543.35	1259.50
543.54	1279.98
543.74	1308.65
543.94	1284.08
544.14	1361.90
544.33	1284.08
544.53	1269.74
544.73	1306.60
544.93	1368.04
545.12	1261.55
545.32	1310.70
545.52	1320.94
545.71	1302.51
545.91	1228.78
546.11	1339.37
546.30	1314.80
546.50	1304.56
546.70	1298.41
546.90	1259.50
547.09	1265.64
547.29	1282.03
547.49	1210.35
547.68	1353.71
547.88	1277.93
548.08	1308.65
548.27	1335.28
548.47	1263.60
548.67	1261.55
548.87	1331.18
549.06	1251.31
549.26	1243.12
549.46	1247.21
549.65	1310.70
549.85	1286.12
550.05	1304.56
550.24	1296.36
550.44	1302.51
550.64	1316.84
550.83	1249.26
551.03	1279.98
551.23	1249.26
551.42	1259.50
551.62	1284.08
551.82	1314.80
552.01	1306.60
552.21	1277.93
552.41	1316.84
552.60	1292.27
552.80	1355.76
553.00	1327.08
553.19	1267.69
553.39	1294.32
553.59	1339.37
553.78	1269.74
553.98	1331.18
554.17	1275.88
554.37	1320.94
554.57	1234.93
554.76	1290.22
554.96	1298.41
555.16	1284.08
555.35	1314.80
555.55	1322.99
555.75	1325.04
555.94	1267.69
556.14	1300.46
556.33	1259.50
556.53	1245.16
556.73	1220.59
556.92	1312.75
557.12	1265.64
557.32	1282.03
557.51	1345.52
557.71	1271.79
557.90	1310.70
558.10	1193.97
558.30	1296.36
558.49	1320.94
558.69	1239.02
558.88	1298.41
559.08	1290.22
559.28	1320.94
559.47	1329.13
559.67	1304.56
559.86	1327.08
560.06	1290.22
560.26	1302.51
560.45	1286.12
560.65	1308.65
560.84	1251.31
561.04	1216.49
561.24	1263.60
561.43	1298.41
561.63	1275.88
561.82	1265.64
562.02	1257.45
562.22	1275.88
562.41	1292.27
562.61	1282.03
562.80	1300.46
563.00	1261.55
563.19	1298.41
563.39	1253.36
563.59	1239.02
563.78	1345.52
563.98	1263.60
564.17	1265.64
564.37	1236.97
564.56	1269.74
564.76	1261.55
564.96	1286.12
565.15	1212.40
565.35	1228.78
565.54	1234.93
565.74	1257.45
565.93	1204.21
566.13	1273.84
566.32	1296.36
566.52	1325.04
566.71	1294.32
566.91	1308.65
567.11	1220.59
567.30	1312.75
567.50	1298.41
567.69	1265.64
567.89	1361.90
568.08	1275.88
568.28	1241.07
568.47	1206.25
568.67	1259.50
568.86	1298.41
569.06	1273.84
569.25	1259.50
569.45	1335.28
569.64	1257.45
569.84	1267.69
570.04	1290.22
570.23	1243.12
570.43	1249.26
570.62	1296.36
570.82	1286.12
571.01	1316.84
571.21	1269.74
571.40	1243.12
571.60	1255.40
571.79	1306.60
571.99	1255.40
572.18	1343.47
572.38	1245.16
572.57	1355.76
572.77	1292.27
572.96	1316.84
573.16	1290.22
573.35	1234.93
573.55	1314.80
573.74	1298.41
573.94	1273.84
574.13	1298.41
574.33	1325.04
574.52	1265.64
574.71	1325.04
574.91	1273.84
575.10	1277.93
575.30	1331.18
575.49	1282.03
575.69	1269.74
575.88	1286.12
576.08	1306.60
576.27	1286.12
576.47	1279.98
576.66	1292.27
576.86	1359.85
577.05	1312.75
577.25	1286.12
577.44	1275.88
577.64	1249.26
577.83	1353.71
578.02	1269.74
578.22	1298.41
578.41	1273.84
578.61	1337.32
578.80	1277.93
579.00	1255.40
579.19	1261.55
579.39	1263.60
579.58	1327.08
579.77	1300.46
579.97	1310.70
580.16	1296.36
580.36	1222.64
580.55	1277.93
580.75	1243.12
580.94	1191.92
581.13	1339.37
581.33	1312.75
581.52	1333.23
581.72	1269.74
581.91	1333.23
582.11	1298.41
582.30	1277.93
582.49	1310.70
582.69	1294.32
582.88	1298.41
583.08	1286.12
583.27	1339.37
583.47	1286.12
583.66	1282.03
583.85	1286.12
584.05	1331.18
584.24	1265.64
584.44	1226.73
584.63	1347.56
584.82	1329.13
585.02	1261.55
585.21	1366.00
585.41	1257.45
585.60	1314.80
585.79	1273.84
585.99	1325.04
586.18	1284.08
586.37	1320.94
586.57	1292.27
586.76	1327.08
586.96	1253.36
587.15	1286.12
587.34	1228.78
587.54	1275.88
587.73	1249.26
587.93	1273.84
588.12	1308.65
588.31	1279.98
588.51	1300.46
588.70	1300.46
588.89	1275.88
589.09	1339.37
589.28	1294.32
589.47	1277.93
589.67	1320.94
589.86	1267.69
590.06	1298.41
590.25	1286.12
590.44	1277.93
590.64	1345.52
590.83	1288.17
591.02	1284.08
591.22	1359.85
591.41	1306.60
591.60	1341.42
591.80	1314.80
591.99	1271.79
592.18	1286.12
592.38	1279.98
592.57	1298.41
592.76	1259.50
592.96	1271.79
593.15	1296.36
593.34	1292.27
593.54	1263.60
593.73	1314.80
593.92	1277.93
594.12	1286.12
594.31	1308.65
594.50	1284.08
594.70	1271.79
594.89	1284.08
595.08	1222.64
595.28	1298.41
595.47	1279.98
595.66	1335.28
595.86	1318.89
596.05	1261.55
596.24	1261.55
596.43	1220.59
596.63	1298.41
596.82	1296.36
597.01	1300.46
597.21	1292.27
597.40	1214.45
597.59	1290.22
597.79	1329.13
597.98	1284.08
598.17	1304.56
598.36	1243.12
598.56	1241.07
598.75	1228.78
598.94	1292.27
599.14	1335.28
599.33	1302.51
599.52	1216.49
599.71	1208.30
599.91	1296.36
600.10	1241.07
600.29	1322.99
600.48	1372.14
600.68	1228.78
600.87	1273.84
601.06	1271.79
601.26	1247.21
601.45	1325.04
601.64	1277.93
601.83	1322.99
602.03	1245.16
602.22	1341.42
602.41	1335.28
602.60	1347.56
602.80	1282.03
602.99	1236.97
603.18	1249.26
603.37	1302.51
603.57	1196.01
603.76	1253.36
603.95	1331.18
604.14	1236.97
604.34	1284.08
604.53	1230.83
604.72	1210.35
604.91	1300.46
605.10	1298.41
605.30	1304.56
605.49	1302.51
605.68	1292.27
605.87	1366.00
606.07	1282.03
606.26	1298.41
606.45	1327.08
606.64	1304.56
606.84	1298.41
607.03	1269.74
607.22	1279.98
607.41	1292.27
607.60	1269.74
607.80	1224.69
607.99	1241.07
608.18	1220.59
608.37	1374.19
608.56	1261.55
608.76	1263.60
608.95	1212.40
609.14	1261.55
609.33	1288.17
609.52	1339.37
609.72	1292.27
609.91	1292.27
610.10	1193.97
610.29	1316.84
610.48	1277.93
610.68	1263.60
610.87	1232.88
611.06	1241.07
611.25	1241.07
611.44	1282.03
611.63	1282.03
611.83	1347.56
612.02	1206.25
612.21	1259.50
612.40	1245.16
612.59	1290.22
612.79	1247.21
612.98	1288.17
613.17	1247.21
613.36	1341.42
613.55	1255.40
613.74	1316.84
613.93	1275.88
614.13	1245.16
614.32	1269.74
614.51	1310.70
614.70	1286.12
614.89	1253.36
615.08	1284.08
615.28	1279.98
615.47	1275.88
615.66	1271.79
615.85	1318.89
616.04	1312.75
616.23	1255.40
616.42	1232.88
616.62	1312.75
616.81	1296.36
617.00	1279.98
617.19	1196.01
617.38	1288.17
617.57	1271.79
617.76	1236.97
617.95	1310.70
618.15	1288.17
618.34	1320.94
618.53	1316.84
618.72	1204.21
618.91	1310.70
619.10	1314.80
619.29	1253.36
619.48	1366.00
619.68	1279.98
619.87	1232.88
620.06	1279.98
620.25	1271.79
620.44	1255.40
620.63	1255.40
620.82	1222.64
621.01	1322.99
621.20	1277.93
621.39	1304.56
621.59	1249.26
621.78	1300.46
621.97	1296.36
622.16	1239.02
622.35	1228.78
622.54	1294.32
622.73	1325.04
622.92	1310.70
623.11	1296.36
623.30	1304.56
623.49	1284.08
623.68	1296.36
623.88	1224.69
624.07	1298.41
624.26	1312.75
624.45	1351.66
624.64	1247.21
624.83	1314.80
625.02	1218.54
625.21	1304.56
625.40	1302.51
625.59	1279.98
625.78	1253.36
625.97	1318.89
626.16	1273.84
626.35	1396.71
626.54	1304.56
626.74	1355.76
626.93	1294.32
627.12	1257.45
627.31	1261.55
627.50	1286.12
627.69	1353.71
627.88	1314.80
628.07	1257.45
628.26	1257.45
628.45	1320.94
628.64	1234.93
628.83	1241.07
629.02	1296.36
629.21	1294.32
629.40	1337.32
629.59	1273.84
629.78	1314.80
629.97	1320.94
630.16	1337.32
630.35	1282.03
630.54	1366.00
630.73	1304.56
630.92	1322.99
631.11	1288.17
631.30	1224.69
631.49	1275.88
631.68	1331.18
631.87	1443.82
632.06	1593.32
632.25	1374.19
632.44	1484.78
632.63	1351.66
632.82	1445.87
633.01	1478.63
633.20	1417.19
633.39	1624.04
633.58	1724.39
633.77	1484.78
633.96	1527.78
634.15	1886.18
634.34	3925.96
634.53	4126.66
634.72	2754.52
634.91	2928.60
635.10	5648.30
635.29	7944.07
635.48	8423.30
635.67	7391.12
635.86	5861.29
636.05	4409.28
636.24	3268.56
636.43	2303.96
636.62	1804.26
636.81	1572.84
637.00	1427.43
637.19	1388.52
637.38	1423.34
637.57	1439.72
637.76	1329.13
637.95	1331.18
638.14	1294.32
638.33	1290.22
638.52	1271.79
638.71	1222.64
638.89	1314.80
639.08	1316.84
639.27	1327.08
639.46	1234.93
639.65	1322.99
639.84	1286.12
640.03	1290.22
640.22	1282.03
640.41	1339.37
640.60	1273.84
640.79	1286.12
640.98	1282.03
641.17	1263.60
641.36	1286.12
641.55	1247.21
641.74	1259.50
641.92	1325.04
642.11	1234.93
642.30	1306.60
642.49	1298.41
642.68	1261.55
642.87	1349.61
643.06	1271.79
643.25	1257.45
643.44	1292.27
643.63	1220.59
643.82	1322.99
644.00	1316.84
644.19	1286.12
644.38	1339.37
644.57	1322.99
644.76	1247.21
644.95	1228.78
645.14	1306.60
645.33	1236.97
645.52	1171.44
645.71	1327.08
645.89	1314.80
646.08	1308.65
646.27	1302.51
646.46	1290.22
646.65	1286.12
646.84	1282.03
647.03	1277.93
647.22	1318.89
647.40	1263.60
647.59	1257.45
647.78	1265.64
647.97	1255.40
648.16	1359.85
648.35	1273.84
648.54	1286.12
648.73	1259.50
648.91	1251.31
649.10	1175.53
649.29	1282.03
649.48	1236.97
649.67	1271.79
649.86	1284.08
650.05	1300.46
650.23	1196.01
650.42	1273.84
650.61	1286.12
650.80	1279.98
650.99	1372.14
651.18	1265.64
651.36	1241.07
651.55	1341.42
651.74	1261.55
651.93	1259.50
652.12	1273.84
652.31	1247.21
652.49	1236.97
652.68	1275.88
652.87	1257.45
653.06	1271.79
653.25	1290.22
653.44	1337.32
653.62	1333.23
653.81	1239.02
654.00	1290.22
654.19	1187.82
654.38	1273.84
654.56	1269.74
654.75	1253.36
654.94	1218.54
655.13	1275.88
655.32	1265.64
655.51	1269.74
655.69	1290.22
655.88	1277.93
656.07	1282.03
656.26	1257.45
656.45	1245.16
656.63	1212.40
656.82	1232.88
657.01	1282.03
657.20	1310.70
657.38	1320.94
657.57	1265.64
657.76	1271.79
657.95	1314.80
658.14	1253.36
658.32	1245.16
658.51	1185.77
658.70	1288.17
658.89	1269.74
659.08	1282.03
659.26	1288.17
659.45	1216.49
659.64	1263.60
659.83	1320.94
660.01	1298.41
660.20	1286.12
660.39	1263.60
660.58	1294.32
660.76	1273.84
660.95	1306.60
661.14	1253.36
661.33	1220.59
661.51	1306.60
661.70	1255.40
661.89	1191.92
662.08	1290.22
662.26	1241.07
662.45	1312.75
662.64	1290.22
662.83	1259.50
663.01	1247.21
663.20	1212.40
663.39	1259.50
663.58	1296.36
663.76	1239.02
663.95	1292.27
664.14	1298.41
664.32	1224.69
664.51	1183.73
664.70	1234.93
664.89	1300.46
665.07	1251.31
665.26	1310.70
665.45	1234.93
665.64	1204.21
665.82	1234.93
666.01	1298.41
666.20	1204.21
666.38	1271.79
666.57	1286.12
666.76	1322.99
666.95	1243.12
667.13	1243.12
667.32	1288.17
667.51	1333.23
667.69	1302.51
667.88	1261.55
668.07	1374.19
668.25	1271.79
668.44	1290.22
668.63	1298.41
668.81	1269.74
669.00	1282.03
669.19	1294.32
669.38	1290.22
669.56	1304.56
669.75	1228.78
669.94	1200.11
670.12	1257.45
670.31	1247.21
670.50	1298.41
670.68	1247.21
670.87	1259.50
671.06	1296.36
671.24	1298.41
671.43	1263.60
671.62	1286.12
671.80	1257.45
671.99	1275.88
672.18	1284.08
672.36	1292.27
672.55	1275.88
672.74	1257.45
672.92	1230.83
673.11	1279.98
673.29	1204.21
673.48	1220.59
673.67	1284.08
673.85	1292.27
674.04	1310.70
674.23	1271.79
674.41	1282.03
674.60	1331.18
674.79	1253.36
674.97	1308.65
675.16	1259.50
675.34	1308.65
675.53	1251.31
675.72	1304.56
675.90	1286.12
676.09	1339.37
676.28	1277.93
676.46	1304.56
676.65	1347.56
676.83	1337.32
677.02	1345.52
677.21	1224.69
677.39	1300.46
677.58	1257.45
677.77	1245.16
677.95	1273.84
678.14	1304.56
678.32	1245.16
678.51	1355.76
678.70	1273.84
678.88	1210.35
679.07	1253.36
679.25	1265.64
679.44	1271.79
679.63	1220.59
679.81	1271.79
680.00	1282.03
680.18	1236.97
680.37	1232.88
680.55	1282.03
680.74	1275.88
680.93	1302.51
681.11	1271.79
681.30	1261.55
681.48	1290.22
681.67	1273.84
681.85	1286.12
682.04	1241.07
682.23	1310.70
682.41	1279.98
682.60	1255.40
682.78	1288.17
682.97	1337.32
683.15	1271.79
683.34	1230.83
683.53	1261.55
683.71	1245.16
683.90	1294.32
684.08	1187.82
684.27	1265.64
684.45	1249.26
684.64	1310.70
684.82	1312.75
685.01	1208.30
685.19	1247.21
685.38	1314.80
685.57	1271.79
685.75	1300.46
685.94	1243.12
686.12	1296.36
686.31	1320.94
686.49	1226.73
686.68	1277.93
686.86	1265.64
687.05	1363.95
687.23	1241.07
687.42	1294.32
687.60	1257.45
687.79	1249.26
687.97	1153.01
688.16	1310.70
688.34	1236.97
688.53	1302.51
688.71	1306.60
688.90	1298.41
689.08	1230.83
689.27	1265.64
689.45	1314.80
689.64	1177.58
689.82	1236.97
690.01	1273.84
690.19	1224.69
690.38	1259.50
690.56	1279.98
690.75	1234.93
690.93	1212.40
691.12	1275.88
691.30	1220.59
691.49	1284.08
691.67	1265.64
691.86	1296.36
692.04	1220.59
692.23	1232.88
692.41	1263.60
692.60	1232.88
692.78	1228.78
692.97	1277.93
693.15	1255.40
693.34	1337.32
693.52	1277.93
693.71	1265.64
693.89	1261.55
694.08	1187.82
694.26	1241.07
694.44	1263.60
694.63	1263.60
694.81	1259.50
695.00	1259.50
695.18	1267.69
695.37	1249.26
695.55	1253.36
695.74	1232.88
695.92	1228.78
696.10	1249.26
696.29	1261.55
696.47	1236.97
696.66	1222.64
696.84	1243.12
697.03	1327.08
697.21	1279.98
697.40	1288.17
697.58	1267.69
697.76	1241.07
697.95	1279.98
698.13	1273.84
698.32	1335.28
698.50	1218.54
698.68	1277.93
698.87	1282.03
699.05	1275.88
699.24	1275.88
699.42	1318.89
699.61	1255.40
699.79	1310.70
699.97	1273.84
700.16	1374.19
700.34	1224.69
700.53	1255.40
700.71	1282.03
700.89	1279.98
701.08	1271.79
701.26	1218.54
701.45	1290.22
701.63	1300.46
701.81	1210.35
702.00	1257.45
702.18	1327.08
702.37	1206.25
702.55	1322.99
702.73	1261.55
702.92	1222.64
703.10	1230.83
703.28	1243.12
703.47	1271.79
703.65	1314.80
703.84	1325.04
704.02	1216.49
704.20	1320.94
704.39	1269.74
704.57	1269.74
704.75	1277.93
704.94	1236.97
705.12	1208.30
705.30	1286.12
705.49	1165.29
705.67	1236.97
705.86	1255.40
706.04	1298.41
706.22	1294.32
706.41	1189.87
706.59	1249.26
706.77	1310.70
706.96	1286.12
707.14	1271.79
707.32	1269.74
707.51	1241.07
707.69	1216.49
707.87	1314.80
708.06	1316.84
708.24	1269.74
708.42	1239.02
708.61	1279.98
708.79	1241.07
708.97	1318.89
709.16	1243.12
709.34	1304.56
709.52	1159.15
709.71	1261.55
709.89	1187.82
710.07	1327.08
710.26	1263.60
710.44	1302.51
710.62	1279.98
710.80	1241.07
710.99	1296.36
711.17	1251.31
711.35	1230.83
711.54	1214.45
711.72	1232.88
711.90	1261.55
712.09	1239.02
712.27	1259.50
712.45	1220.59
712.63	1249.26
712.82	1263.60
713.00	1325.04
713.18	1282.03
713.37	1259.50
713.55	1239.02
713.73	1302.51
713.91	1306.60
714.10	1198.06
714.28	1265.64
714.46	1314.80
714.65	1310.70
714.83	1249.26
715.01	1261.55
715.19	1257.45
715.38	1236.97
715.56	1165.29
715.74	1230.83
715.92	1230.83
716.11	1261.55
716.29	1243.12
716.47	1284.08
716.65	1269.74
716.84	1316.84
717.02	1290.22
717.20	1234.93
717.38	1200.11
717.57	1286.12
717.75	1204.21
717.93	1306.60
718.11	1286.12
718.30	1206.25
718.48	1216.49
718.66	1308.65
718.84	1245.16
719.03	1245.16
719.21	1243.12
719.39	1245.16
719.57	1232.88
719.75	1255.40
719.94	1282.03
720.12	1277.93
720.30	1282.03
720.48	1183.73
720.67	1331.18
720.85	1298.41
721.03	1245.16
721.21	1212.40
721.39	1284.08
721.58	1275.88
721.76	1329.13
721.94	1316.84
722.12	1290.22
722.30	1279.98
722.49	1247.21
722.67	1236.97
722.85	1302.51
723.03	1267.69
723.21	1241.07
723.40	1296.36
723.58	1304.56
723.76	1267.69
723.94	1216.49
724.12	1316.84
724.30	1279.98
724.49	1255.40
724.67	1263.60
724.85	1312.75
725.03	1232.88
725.21	1232.88
725.40	1282.03
725.58	1224.69
725.76	1245.16
725.94	1257.45
726.12	1286.12
726.30	1288.17
726.49	1193.97
726.67	1218.54
726.85	1282.03
727.03	1255.40
727.21	1232.88
727.39	1341.42
727.57	1345.52
727.76	1265.64
727.94	1265.64
728.12	1282.03
728.30	1282.03
728.48	1245.16
728.66	1214.45
728.84	1214.45
729.03	1314.80
729.21	1302.51
729.39	1222.64
729.57	1249.26
729.75	1306.60
729.93	1220.59
730.11	1193.97
730.30	1247.21
730.48	1230.83
730.66	1290.22
730.84	1232.88
731.02	1253.36
731.20	1255.40
731.38	1265.64
731.56	1265.64
731.74	1273.84
731.93	1232.88
732.11	1241.07
732.29	1257.45
732.47	1259.50
732.65	1275.88
732.83	1349.61
733.01	1253.36
733.19	1198.06
733.37	1267.69
733.56	1290.22
733.74	1214.45
733.92	1318.89
734.10	1279.98
734.28	1314.80
734.46	1247.21
734.64	1298.41
734.82	1265.64
735.00	1284.08
735.18	1220.59
735.36	1292.27
735.54	1206.25
735.73	1269.74
735.91	1310.70
736.09	1236.97
736.27	1261.55
736.45	1243.12
736.63	1216.49
736.81	1261.55
736.99	1261.55
737.17	1234.93
737.35	1263.60
737.53	1290.22
737.71	1312.75
737.89	1316.84
738.07	1247.21
738.25	1243.12
738.43	1222.64
738.61	1286.12
738.80	1218.54
738.98	1251.31
739.16	1226.73
739.34	1300.46
739.52	1236.97
739.70	1232.88
739.88	1302.51
740.06	1247.21
740.24	1243.12
740.42	1273.84
740.60	1253.36
740.78	1212.40
740.96	1269.74
741.14	1296.36
741.32	1259.50
741.50	1345.52
741.68	1206.25
741.86	1216.49
742.04	1294.32
742.22	1249.26
742.40	1296.36
742.58	1232.88
742.76	1296.36
742.94	1253.36
743.12	1271.79
743.30	1228.78
743.48	1271.79
743.66	1269.74
743.84	1245.16
744.02	1239.02
744.20	1294.32
744.38	1267.69
744.56	1265.64
744.74	1261.55
744.92	1333.23
745.10	1318.89
745.28	1265.64
745.46	1290.22
745.64	1341.42
745.82	1308.65
746.00	1243.12
746.18	1298.41
746.36	1312.75
746.54	1288.17
746.72	1247.21
746.90	1322.99
747.08	1320.94
747.26	1275.88
747.44	1288.17
747.62	1232.88
747.80	1263.60
747.98	1288.17
748.15	1243.12
748.33	1279.98
748.51	1245.16
748.69	1200.11
748.87	1259.50
749.05	1249.26
749.23	1247.21
749.41	1206.25
749.59	1265.64
749.77	1239.02
749.95	1273.84
750.13	1179.63
750.31	1273.84
750.49	1269.74
750.67	1185.77
750.85	1294.32
751.03	1355.76
751.20	1220.59
751.38	1345.52
751.56	1286.12
751.74	1222.64
751.92	1308.65
752.10	1302.51
752.28	1251.31
752.46	1230.83
752.64	1279.98
752.82	1325.04
753.00	1304.56
753.18	1255.40
753.35	1282.03
753.53	1279.98
753.71	1218.54
753.89	1316.84
754.07	1167.34
754.25	1290.22
754.43	1216.49
754.61	1249.26
754.79	1245.16
754.97	1226.73
755.14	1226.73
755.32	1245.16
755.50	1243.12
755.68	1271.79
755.86	1302.51
756.04	1216.49
756.22	1277.93
756.40	1325.04
756.57	1331.18
756.75	1236.97
756.93	1263.60
757.11	1306.60
757.29	1232.88
757.47	1259.50
757.65	1261.55
757.82	1239.02
758.00	1261.55
758.18	1218.54
758.36	1327.08
758.54	1226.73
758.72	1245.16
758.90	1247.21
759.07	1294.32
759.25	1288.17
759.43	1222.64
759.61	1273.84
759.79	1277.93
759.97	1263.60
760.15	1253.36
760.32	1269.74
760.50	1259.50
760.68	1337.32
760.86	1322.99
761.04	1382.38
761.22	1261.55
761.39	1204.21
761.57	1308.65
761.75	1214.45
761.93	1232.88
762.11	1198.06
762.28	1290.22
762.46	1286.12
762.64	1218.54
762.82	1290.22
763.00	1230.83
763.18	1353.71
763.35	1230.83
763.53	1261.55
763.71	1247.21
763.89	1267.69
764.07	1169.39
764.24	1226.73
764.42	1322.99
764.60	1298.41
764.78	1310.70
764.96	1271.79
765.13	1271.79
765.31	1259.50
765.49	1261.55
765.67	1247.21
765.84	1230.83
766.02	1273.84
766.20	1232.88
766.38	1288.17
766.56	1329.13
766.73	1234.93
766.91	1284.08
767.09	1236.97
767.27	1236.97
767.44	1263.60
767.62	1243.12
767.80	1296.36
767.98	1282.03
768.15	1220.59
768.33	1265.64
768.51	1267.69
768.69	1277.93
768.87	1232.88
769.04	1234.93
769.22	1259.50
769.40	1269.74
769.58	1255.40
769.75	1245.16
769.93	1290.22
770.11	1255.40
770.28	1212.40
770.46	1304.56
770.64	1222.64
770.82	1312.75
770.99	1267.69
771.17	1253.36
771.35	1329.13
771.53	1241.07
771.70	1282.03
771.88	1183.73
772.06	1230.83
772.23	1232.88
772.41	1341.42
772.59	1304.56
772.77	1206.25
772.94	1249.26
773.12	1265.64
773.30	1249.26
773.47	1286.12
773.65	1226.73
773.83	1241.07
774.01	1322.99
774.18	1189.87
774.36	1314.80
774.54	1191.92
774.71	1284.08
774.89	1196.01
775.07	1277.93
775.24	1273.84
775.42	1271.79
775.60	1236.97
775.78	1284.08
775.95	1216.49
776.13	1271.79
776.31	1245.16
776.48	1312.75
776.66	1171.44
776.84	1198.06
777.01	1294.32
777.19	1271.79
777.37	1198.06
777.54	1282.03
777.72	1243.12
777.90	1267.69
778.07	1284.08
778.25	1257.45
778.43	1236.97
778.60	1290.22
778.78	1282.03
778.96	1267.69
779.13	1247.21
779.31	1218.54
779.49	1279.98
779.66	1275.88
779.84	1253.36
780.01	1302.51
780.19	1325.04
780.37	1234.93
780.54	1253.36
780.72	1277.93
780.90	1222.64
781.07	1220.59
781.25	1259.50
781.43	1212.40
781.60	1232.88
781.78	1208.30
781.95	1265.64
782.13	1314.80
782.31	1230.83
782.48	1234.93
782.66	1271.79
782.83	1325.04
783.01	1202.16
783.19	1241.07
783.36	1259.50
783.54	1218.54
783.72	1257.45
783.89	1249.26
784.07	1271.79
784.24	1249.26
784.42	1257.45
784.60	1230.83
784.77	1234.93
784.95	1243.12
785.12	1306.60
785.30	1300.46
785.47	1263.60
785.65	1284.08
785.83	1282.03
786.00	1277.93
786.18	1339.37
786.35	1234.93
786.53	1312.75
786.71	1247.21
786.88	1218.54
787.06	1277.93
787.23	1232.88
787.41	1210.35
787.58	1300.46
787.76	1327.08
787.94	1232.88
788.11	1304.56
788.29	1269.74
788.46	1226.73
788.64	1191.92
788.81	1259.50
788.99	1255.40
789.16	1161.20
789.34	1273.84
789.52	1298.41
789.69	1206.25
789.87	1202.16
790.04	1202.16
790.22	1298.41
790.39	1208.30
790.57	1327.08
790.74	1234.93
790.92	1284.08
791.09	1218.54
791.27	1249.26
791.44	1257.45
791.62	1196.01
791.79	1232.88
791.97	1308.65
792.15	1298.41
792.32	1230.83
792.50	1296.36
792.67	1253.36
792.85	1236.97
793.02	1257.45
793.20	1234.93
793.37	1294.32
793.55	1322.99
793.72	1282.03
793.90	1259.50
794.07	1271.79
794.25	1253.36
794.42	1300.46
794.60	1296.36
794.77	1320.94
794.95	1308.65
795.12	1232.88
795.30	1298.41
795.47	1181.68
795.65	1308.65
795.82	1247.21
796.00	1273.84
796.17	1312.75
796.34	1228.78
796.52	1210.35
796.69	1191.92
796.87	1249.26
797.04	1282.03
797.22	1290.22
797.39	1316.84
797.57	1175.53
797.74	1261.55
797.92	1204.21
798.09	1261.55
798.27	1232.88
798.44	1255.40
798.62	1273.84
798.79	1296.36
798.96	1277.93
799.14	1212.40
799.31	1265.64
799.49	1314.80
799.66	1261.55
799.84	1257.45
800.01	1269.74
800.19	1226.73
800.36	1290.22
800.53	1279.98
800.71	1269.74
800.88	1284.08
801.06	1267.69
801.23	1263.60
801.41	1304.56
801.58	1263.60
801.75	1265.64
801.93	1298.41
802.10	1292.27
802.28	1290.22
802.45	1245.16
802.63	1294.32
802.80	1318.89
802.97	1329.13
803.15	1306.60
803.32	1302.51
803.50	1288.17
803.67	1282.03
803.84	1255.40
804.02	1257.45
804.19	1265.64
804.37	1261.55
804.54	1279.98
804.71	1329.13
804.89	1279.98
805.06	1284.08
805.24	1222.64
805.41	1257.45
805.58	1253.36
805.76	1224.69
805.93	1279.98
806.10	1282.03
806.28	1267.69
806.45	1263.60
806.63	1247.21
806.80	1284.08
806.97	1249.26
807.15	1337.32
807.32	1279.98
807.49	1267.69
807.67	1265.64
807.84	1282.03
808.01	1247.21
808.19	1255.40
808.36	1210.35
808.54	1355.76
808.71	1286.12
808.88	1251.31
809.06	1329.13
809.23	1302.51
809.40	1251.31
809.58	1279.98
809.75	1261.55
809.92	1257.45
810.10	1284.08
810.27	1277.93
810.44	1200.11
810.62	1218.54
810.79	1261.55
810.96	1198.06
811.14	1198.06
811.31	1257.45
811.48	1257.45
811.66	1271.79
811.83	1267.69
812.00	1228.78
812.18	1263.60
812.35	1247.21
812.52	1304.56
812.69	1304.56
812.87	1216.49
813.04	1245.16
813.21	1296.36
813.39	1290.22
813.56	1251.31
813.73	1255.40
813.91	1259.50
814.08	1314.80
814.25	1282.03
814.42	1239.02
814.60	1288.17
814.77	1286.12
814.94	1251.31
815.12	1361.90
815.29	1302.51
815.46	1286.12
815.63	1241.07
815.81	1325.04
815.98	1222.64
816.15	1261.55
816.33	1275.88
816.50	1298.41
816.67	1249.26
816.84	1218.54
817.02	1196.01
817.19	1210.35
817.36	1253.36
817.53	1239.02
817.71	1200.11
817.88	1286.12
818.05	1290.22
818.22	1236.97
818.40	1193.97
818.57	1243.12
818.74	1337.32
818.91	1271.79
819.09	1198.06
819.26	1294.32
819.43	1222.64
819.60	1251.31
819.78	1220.59
819.95	1163.25
820.12	1224.69
820.29	1271.79
820.47	1331.18
820.64	1282.03
820.81	1275.88
820.98	1241.07
821.15	1314.80
821.33	1232.88
821.50	1202.16
821.67	1261.55
821.84	1261.55
822.02	1302.51
822.19	1269.74
822.36	1239.02
822.53	1241.07
822.70	1284.08
822.88	1234.93
823.05	1284.08
823.22	1241.07
823.39	1232.88
823.56	1368.04
823.74	1198.06
823.91	1265.64
824.08	1243.12
824.25	1193.97
824.42	1277.93
824.60	1216.49
824.77	1271.79
824.94	1269.74
825.11	1230.83
825.28	1290.22
825.45	1294.32
825.63	1265.64
825.80	1232.88
825.97	1284.08
826.14	1288.17
826.31	1284.08
826.48	1286.12
826.66	1191.92
826.83	1239.02
827.00	1353.71
827.17	1282.03
827.34	1214.45
827.51	1275.88
827.69	1304.56
827.86	1249.26
828.03	1286.12
828.20	1226.73
828.37	1273.84
828.54	1284.08
828.71	1243.12
828.89	1300.46
829.06	1245.16
829.23	1339.37
829.40	1245.16
829.57	1271.79
829.74	1212.40
829.91	1257.45
830.09	1234.93
830.26	1333.23
830.43	1255.40
830.60	1273.84
830.77	1277.93
830.94	1310.70
831.11	1269.74
831.28	1290.22
831.46	1245.16
831.63	1261.55
831.80	1263.60
831.97	1271.79
832.14	1173.49
832.31	1263.60
832.48	1284.08
832.65	1259.50
832.82	1243.12
832.99	1259.50
833.17	1208.30
833.34	1294.32
833.51	1265.64
833.68	1370.09
833.85	1267.69
834.02	1218.54
834.19	1308.65
834.36	1273.84
834.53	1306.60
834.70	1222.64
834.87	1255.40
835.04	1284.08
835.22	1206.25
835.39	1282.03
835.56	1282.03
835.73	1161.20
835.90	1236.97
836.07	1259.50
836.24	1253.36
836.41	1253.36
836.58	1239.02
836.75	1255.40
836.92	1261.55
837.09	1193.97
837.26	1294.32
837.43	1196.01
837.60	1355.76
837.77	1351.66
837.94	1236.97
838.12	1282.03
838.29	1300.46
838.46	1226.73
838.63	1310.70
838.80	1222.64
838.97	1288.17
839.14	1249.26
839.31	1171.44
839.48	1271.79
839.65	1273.84
839.82	1269.74
839.99	1210.35
840.16	1232.88
840.33	1259.50
840.50	1273.84
840.67	1216.49
840.84	1316.84
841.01	1241.07
841.18	1226.73
841.35	1191.92
841.52	1294.32
841.69	1275.88
841.86	1247.21
842.03	1239.02
842.20	1284.08
842.37	1204.21
842.54	1243.12
842.71	1208.30
842.88	1255.40
843.05	1310.70
843.22	1294.32
843.39	1267.69
843.56	1288.17
843.73	1257.45
843.90	1318.89
844.07	1284.08
844.24	1269.74
844.41	1253.36
844.58	1196.01
844.75	1312.75
844.92	1265.64
845.09	1271.79
845.26	1208.30
845.43	1257.45
845.60	1228.78
845.77	1277.93
845.94	1259.50
846.10	1271.79
846.27	1306.60
846.44	1296.36
846.61	1222.64
846.78	1284.08
846.95	1267.69
847.12	1212.40
847.29	1243.12
847.46	1273.84
847.63	1296.36
847.80	1234.93
847.97	1310.70
848.14	1243.12
848.31	1296.36
848.48	1226.73
848.65	1249.26
848.82	1304.56
848.98	1296.36
849.15	1304.56
849.32	1265.64
849.49	1249.26
849.66	1259.50
849.83	1257.45
850.00	1243.12
850.17	1351.66
850.34	1290.22
850.51	1212.40
850.68	1286.12
850.85	1265.64
851.01	1179.63
851.18	1271.79
851.35	1222.64
851.52	1224.69
851.69	1230.83
851.86	1267.69
852.03	1224.69
852.20	1331.18
852.37	1310.70
852.53	1226.73
852.70	1355.76
852.87	1275.88
853.04	1277.93
853.21	1316.84
853.38	1247.21
853.55	1370.09
853.72	1267.69
853.89	1220.59
854.05	1267.69
854.22	1322.99
854.39	1282.03
854.56	1239.02
854.73	1290.22
854.90	1206.25
855.07	1249.26
855.23	1263.60
855.40	1253.36
855.57	1325.04
855.74	1247.21
855.91	1341.42
856.08	1327.08
856.25	1302.51
856.41	1271.79
856.58	1265.64
856.75	1251.31
856.92	1279.98
857.09	1216.49
857.26	1249.26
857.42	1304.56
857.59	1243.12
857.76	1200.11
857.93	1306.60
858.10	1314.80
858.27	1239.02
858.43	1226.73
858.60	1337.32
858.77	1251.31
858.94	1247.21
859.11	1279.98
859.27	1298.41
859.44	1277.93
859.61	1277.93
859.78	1257.45
859.95	1282.03
860.12	1204.21
860.28	1241.07
860.45	1286.12
860.62	1249.26
860.79	1259.50
860.95	1298.41
861.12	1282.03
861.29	1271.79
861.46	1316.84
861.63	1257.45
861.79	1245.16
861.96	1269.74
862.13	1226.73
862.30	1265.64
862.47	1243.12
862.63	1234.93
862.80	1224.69
862.97	1300.46
863.14	1232.88
863.30	1359.85
863.47	1271.79
863.64	1261.55
863.81	1294.32
863.97	1269.74
864.14	1247.21
864.31	1249.26
864.48	1265.64
864.65	1292.27
864.81	1320.94
864.98	1239.02
865.15	1265.64
865.32	1310.70
865.48	1265.64
865.65	1261.55
865.82	1169.39
865.98	1284.08
866.15	1271.79
866.32	1230.83
866.49	1331.18
866.65	1251.31
866.82	1243.12
866.99	1214.45
867.16	1271.79
867.32	1212.40
867.49	1253.36
867.66	1247.21
867.83	1335.28
867.99	1249.26
868.16	1200.11
868.33	1312.75
868.49	1255.40
868.66	1249.26
868.83	1302.51
868.99	1290.22
869.16	1206.25
869.33	1279.98
869.50	1310.70
869.66	1259.50
869.83	1255.40
870.00	1255.40
870.16	1226.73
870.33	1267.69
870.50	1273.84
870.66	1290.22
870.83	1150.96
871.00	1288.17
871.17	1249.26
871.33	1232.88
871.50	1251.31
871.67	1198.06
871.83	1273.84
872.00	1226.73
872.17	1232.88
872.33	1279.98
872.50	1282.03
872.67	1284.08
872.83	1261.55
873.00	1212.40
873.17	1298.41
873.33	1239.02
873.50	1314.80
873.67	1286.12
873.83	1257.45
874.00	1245.16
874.16	1214.45
874.33	1187.82
874.50	1241.07
874.66	1269.74
874.83	1224.69
875.00	1230.83
875.16	1265.64
875.33	1187.82
875.50	1282.03
875.66	1331.18
875.83	1167.34
875.99	1271.79
876.16	1198.06
876.33	1288.17
876.49	1339.37
876.66	1269.74
876.83	1249.26
876.99	1300.46
877.16	1267.69
877.32	1288.17
877.49	1292.27
877.66	1257.45
877.82	1222.64
877.99	1306.60
878.15	1286.12
878.32	1263.60
878.49	1251.31
878.65	1206.25
878.82	1202.16
878.98	1247.21
879.15	1259.50
879.32	1218.54
879.48	1265.64
879.65	1269.74
879.81	1263.60
879.98	1239.02
880.15	1196.01
880.31	1247.21
880.48	1261.55
880.64	1249.26
880.81	1263.60
880.97	1208.30
881.14	1271.79
881.31	1267.69
881.47	1216.49
881.64	1236.97
881.80	1239.02
881.97	1232.88
882.13	1292.27
882.30	1282.03
882.47	1263.60
882.63	1273.84
882.80	1263.60
882.96	1210.35
883.13	1261.55
883.29	1273.84
883.46	1290.22
883.62	1257.45
883.79	1288.17
883.95	1226.73
884.12	1279.98
884.29	1230.83
884.45	1261.55
884.62	1251.31
884.78	1277.93
884.95	1288.17
885.11	1236.97
885.28	1241.07
885.44	1353.71
885.61	1241.07
885.77	1220.59
885.94	1277.93
886.10	1232.88
886.27	1275.88
886.43	1282.03
886.60	1239.02
886.76	1257.45
886.93	1232.88
887.09	1286.12
887.26	1271.79
887.42	1210.35
887.59	1284.08
887.75	1345.52
887.92	1273.84
888.08	1279.98
888.25	1277.93
888.41	1265.64
888.58	1316.84
888.74	1298.41
888.91	1306.60
>>>>>End Processed Spectral Data<<<<<
