SpectraSuite Data File
++++++++++++++++++++++++++++++++++++
Date: Sun Apr 03 19:55:42 CEST 2016
User: root
Dark Spectrum Present: No
Reference Spectrum Present: No
Number of Sampled Component Spectra: 1
Spectrometers: USB4C02835
Integration Time (usec): 10000 (USB4C02835)
Spectra Averaged: 1 (USB4C02835)
Boxcar Smoothing: 0 (USB4C02835)
Correct for Electrical Dark: No (USB4C02835)
Strobe/Lamp Enabled: No (USB4C02835)
Correct for Detector Non-linearity: No (USB4C02835)
Correct for Stray Light: No (USB4C02835)
Number of Pixels in Processed Spectrum: 3648
>>>>>Begin Processed Spectral Data<<<<<
177.47	1218.54
177.69	1218.54
177.91	1218.54
178.13	1253.36
178.36	1267.69
178.58	1210.35
178.80	1243.12
179.02	1228.78
179.24	1216.49
179.46	1261.55
179.68	1257.45
179.90	1282.03
180.13	1259.50
180.35	1279.98
180.57	1257.45
180.79	1279.98
181.01	1277.93
181.23	1253.36
181.45	1314.80
181.67	1269.74
181.90	1302.51
182.12	1220.59
182.34	1290.22
182.56	1210.35
182.78	1177.58
183.00	1284.08
183.22	1290.22
183.44	1331.18
183.66	1312.75
183.89	1331.18
184.11	1306.60
184.33	1161.20
184.55	1249.26
184.77	1282.03
184.99	1277.93
185.21	1208.30
185.43	1228.78
185.65	1271.79
185.87	1329.13
186.10	1329.13
186.32	1243.12
186.54	1267.69
186.76	1259.50
186.98	1263.60
187.20	1290.22
187.42	1298.41
187.64	1239.02
187.86	1306.60
188.08	1363.95
188.30	1191.92
188.52	1279.98
188.75	1243.12
188.97	1337.32
189.19	1284.08
189.41	1253.36
189.63	1294.32
189.85	1230.83
190.07	1216.49
190.29	1245.16
190.51	1245.16
190.73	1290.22
190.95	1253.36
191.17	1267.69
191.39	1243.12
191.61	1255.40
191.84	1206.25
192.06	1277.93
192.28	1251.31
192.50	1312.75
192.72	1261.55
192.94	1318.89
193.16	1249.26
193.38	1273.84
193.60	1314.80
193.82	1263.60
194.04	1259.50
194.26	1183.73
194.48	1294.32
194.70	1282.03
194.92	1261.55
195.14	1263.60
195.36	1263.60
195.58	1222.64
195.80	1282.03
196.02	1290.22
196.24	1333.23
196.46	1267.69
196.69	1257.45
196.91	1271.79
197.13	1208.30
197.35	1241.07
197.57	1146.86
197.79	1339.37
198.01	1259.50
198.23	1206.25
198.45	1265.64
198.67	1304.56
198.89	1257.45
199.11	1308.65
199.33	1282.03
199.55	1249.26
199.77	1175.53
199.99	1282.03
200.21	1302.51
200.43	1296.36
200.65	1224.69
200.87	1226.73
201.09	1200.11
201.31	1251.31
201.53	1251.31
201.75	1224.69
201.97	1275.88
202.19	1294.32
202.41	1322.99
202.63	1298.41
202.85	1239.02
203.07	1363.95
203.29	1249.26
203.51	1304.56
203.73	1288.17
203.95	1236.97
204.17	1261.55
204.39	1284.08
204.61	1273.84
204.83	1226.73
205.05	1255.40
205.27	1269.74
205.49	1292.27
205.71	1263.60
205.93	1210.35
206.15	1206.25
206.37	1247.21
206.59	1245.16
206.81	1236.97
207.03	1286.12
207.25	1306.60
207.47	1224.69
207.69	1167.34
207.91	1191.92
208.13	1284.08
208.34	1257.45
208.56	1253.36
208.78	1290.22
209.00	1302.51
209.22	1255.40
209.44	1247.21
209.66	1318.89
209.88	1290.22
210.10	1259.50
210.32	1212.40
210.54	1206.25
210.76	1294.32
210.98	1214.45
211.20	1294.32
211.42	1290.22
211.64	1298.41
211.86	1288.17
212.08	1302.51
212.30	1349.61
212.52	1331.18
212.74	1269.74
212.96	1255.40
213.17	1245.16
213.39	1292.27
213.61	1232.88
213.83	1236.97
214.05	1335.28
214.27	1288.17
214.49	1355.76
214.71	1277.93
214.93	1228.78
215.15	1259.50
215.37	1341.42
215.59	1255.40
215.81	1257.45
216.03	1228.78
216.24	1312.75
216.46	1232.88
216.68	1308.65
216.90	1306.60
217.12	1259.50
217.34	1239.02
217.56	1333.23
217.78	1247.21
218.00	1304.56
218.22	1296.36
218.44	1290.22
218.66	1247.21
218.87	1308.65
219.09	1282.03
219.31	1273.84
219.53	1269.74
219.75	1327.08
219.97	1279.98
220.19	1290.22
220.41	1208.30
220.63	1210.35
220.85	1320.94
221.06	1273.84
221.28	1183.73
221.50	1347.56
221.72	1269.74
221.94	1224.69
222.16	1273.84
222.38	1277.93
222.60	1253.36
222.82	1232.88
223.03	1228.78
223.25	1228.78
223.47	1220.59
223.69	1271.79
223.91	1169.39
224.13	1347.56
224.35	1245.16
224.57	1277.93
224.78	1249.26
225.00	1267.69
225.22	1226.73
225.44	1181.68
225.66	1212.40
225.88	1234.93
226.10	1245.16
226.32	1312.75
226.53	1275.88
226.75	1306.60
226.97	1245.16
227.19	1320.94
227.41	1181.68
227.63	1265.64
227.85	1249.26
228.06	1216.49
228.28	1282.03
228.50	1263.60
228.72	1320.94
228.94	1236.97
229.16	1206.25
229.37	1300.46
229.59	1224.69
229.81	1333.23
230.03	1273.84
230.25	1275.88
230.47	1325.04
230.69	1275.88
230.90	1200.11
231.12	1226.73
231.34	1296.36
231.56	1277.93
231.78	1218.54
232.00	1269.74
232.21	1259.50
232.43	1247.21
232.65	1282.03
232.87	1259.50
233.09	1300.46
233.30	1224.69
233.52	1320.94
233.74	1196.01
233.96	1290.22
234.18	1232.88
234.40	1255.40
234.61	1255.40
234.83	1263.60
235.05	1234.93
235.27	1296.36
235.49	1269.74
235.70	1255.40
235.92	1265.64
236.14	1290.22
236.36	1282.03
236.58	1286.12
236.79	1245.16
237.01	1277.93
237.23	1312.75
237.45	1261.55
237.67	1304.56
237.88	1296.36
238.10	1175.53
238.32	1279.98
238.54	1304.56
238.76	1247.21
238.97	1286.12
239.19	1300.46
239.41	1257.45
239.63	1327.08
239.85	1214.45
240.06	1267.69
240.28	1275.88
240.50	1316.84
240.72	1322.99
240.93	1282.03
241.15	1214.45
241.37	1216.49
241.59	1327.08
241.81	1275.88
242.02	1249.26
242.24	1318.89
242.46	1333.23
242.68	1214.45
242.89	1273.84
243.11	1241.07
243.33	1239.02
243.55	1255.40
243.76	1279.98
243.98	1298.41
244.20	1243.12
244.42	1363.95
244.64	1279.98
244.85	1286.12
245.07	1329.13
245.29	1214.45
245.51	1226.73
245.72	1247.21
245.94	1282.03
246.16	1206.25
246.38	1259.50
246.59	1300.46
246.81	1239.02
247.03	1241.07
247.24	1298.41
247.46	1234.93
247.68	1226.73
247.90	1288.17
248.11	1294.32
248.33	1304.56
248.55	1226.73
248.77	1236.97
248.98	1277.93
249.20	1206.25
249.42	1259.50
249.64	1273.84
249.85	1279.98
250.07	1257.45
250.29	1247.21
250.50	1224.69
250.72	1257.45
250.94	1267.69
251.16	1294.32
251.37	1290.22
251.59	1353.71
251.81	1234.93
252.02	1261.55
252.24	1318.89
252.46	1298.41
252.68	1157.10
252.89	1263.60
253.11	1247.21
253.33	1230.83
253.54	1279.98
253.76	1294.32
253.98	1232.88
254.20	1251.31
254.41	1241.07
254.63	1259.50
254.85	1261.55
255.06	1214.45
255.28	1292.27
255.50	1314.80
255.71	1249.26
255.93	1343.47
256.15	1277.93
256.36	1322.99
256.58	1312.75
256.80	1314.80
257.02	1255.40
257.23	1288.17
257.45	1243.12
257.67	1312.75
257.88	1282.03
258.10	1294.32
258.32	1320.94
258.53	1218.54
258.75	1265.64
258.97	1234.93
259.18	1288.17
259.40	1255.40
259.62	1239.02
259.83	1310.70
260.05	1263.60
260.27	1275.88
260.48	1249.26
260.70	1269.74
260.92	1261.55
261.13	1232.88
261.35	1257.45
261.57	1318.89
261.78	1310.70
262.00	1265.64
262.22	1277.93
262.43	1279.98
262.65	1257.45
262.86	1232.88
263.08	1314.80
263.30	1267.69
263.51	1222.64
263.73	1282.03
263.95	1265.64
264.16	1273.84
264.38	1257.45
264.60	1216.49
264.81	1245.16
265.03	1296.36
265.25	1269.74
265.46	1232.88
265.68	1275.88
265.89	1302.51
266.11	1245.16
266.33	1292.27
266.54	1224.69
266.76	1247.21
266.98	1206.25
267.19	1306.60
267.41	1282.03
267.62	1214.45
267.84	1202.16
268.06	1310.70
268.27	1220.59
268.49	1275.88
268.70	1226.73
268.92	1224.69
269.14	1253.36
269.35	1302.51
269.57	1263.60
269.79	1257.45
270.00	1236.97
270.22	1271.79
270.43	1288.17
270.65	1308.65
270.87	1286.12
271.08	1288.17
271.30	1179.63
271.51	1271.79
271.73	1267.69
271.95	1273.84
272.16	1322.99
272.38	1314.80
272.59	1284.08
272.81	1339.37
273.02	1236.97
273.24	1329.13
273.46	1230.83
273.67	1228.78
273.89	1228.78
274.10	1263.60
274.32	1314.80
274.54	1216.49
274.75	1282.03
274.97	1282.03
275.18	1206.25
275.40	1243.12
275.61	1239.02
275.83	1253.36
276.05	1173.49
276.26	1196.01
276.48	1232.88
276.69	1290.22
276.91	1253.36
277.12	1247.21
277.34	1247.21
277.55	1265.64
277.77	1263.60
277.99	1196.01
278.20	1241.07
278.42	1232.88
278.63	1271.79
278.85	1284.08
279.06	1284.08
279.28	1306.60
279.49	1269.74
279.71	1206.25
279.93	1228.78
280.14	1304.56
280.36	1308.65
280.57	1357.80
280.79	1224.69
281.00	1273.84
281.22	1257.45
281.43	1275.88
281.65	1261.55
281.86	1275.88
282.08	1241.07
282.29	1298.41
282.51	1273.84
282.73	1314.80
282.94	1300.46
283.16	1298.41
283.37	1202.16
283.59	1288.17
283.80	1247.21
284.02	1335.28
284.23	1279.98
284.45	1284.08
284.66	1259.50
284.88	1187.82
285.09	1298.41
285.31	1273.84
285.52	1322.99
285.74	1214.45
285.95	1257.45
286.17	1370.09
286.38	1308.65
286.60	1263.60
286.81	1286.12
287.03	1236.97
287.24	1271.79
287.46	1261.55
287.67	1320.94
287.89	1234.93
288.10	1337.32
288.32	1216.49
288.53	1247.21
288.75	1255.40
288.96	1322.99
289.18	1193.97
289.39	1294.32
289.61	1312.75
289.82	1261.55
290.04	1282.03
290.25	1214.45
290.47	1347.56
290.68	1296.36
290.90	1314.80
291.11	1279.98
291.33	1261.55
291.54	1239.02
291.76	1247.21
291.97	1314.80
292.18	1249.26
292.40	1243.12
292.61	1275.88
292.83	1255.40
293.04	1343.47
293.26	1284.08
293.47	1257.45
293.69	1275.88
293.90	1329.13
294.12	1171.44
294.33	1263.60
294.55	1273.84
294.76	1337.32
294.97	1228.78
295.19	1335.28
295.40	1341.42
295.62	1216.49
295.83	1241.07
296.05	1265.64
296.26	1275.88
296.48	1259.50
296.69	1302.51
296.90	1263.60
297.12	1282.03
297.33	1296.36
297.55	1284.08
297.76	1224.69
297.98	1230.83
298.19	1198.06
298.41	1310.70
298.62	1273.84
298.83	1234.93
299.05	1298.41
299.26	1259.50
299.48	1337.32
299.69	1232.88
299.90	1296.36
300.12	1198.06
300.33	1269.74
300.55	1241.07
300.76	1263.60
300.98	1230.83
301.19	1298.41
301.40	1245.16
301.62	1327.08
301.83	1325.04
302.05	1200.11
302.26	1257.45
302.47	1327.08
302.69	1241.07
302.90	1230.83
303.12	1271.79
303.33	1253.36
303.54	1314.80
303.76	1232.88
303.97	1267.69
304.19	1290.22
304.40	1322.99
304.61	1273.84
304.83	1273.84
305.04	1296.36
305.26	1271.79
305.47	1216.49
305.68	1249.26
305.90	1304.56
306.11	1292.27
306.33	1327.08
306.54	1181.68
306.75	1273.84
306.97	1257.45
307.18	1232.88
307.39	1275.88
307.61	1284.08
307.82	1222.64
308.04	1339.37
308.25	1310.70
308.46	1302.51
308.68	1271.79
308.89	1200.11
309.10	1322.99
309.32	1316.84
309.53	1234.93
309.74	1349.61
309.96	1286.12
310.17	1306.60
310.39	1265.64
310.60	1292.27
310.81	1241.07
311.03	1241.07
311.24	1245.16
311.45	1361.90
311.67	1241.07
311.88	1224.69
312.09	1243.12
312.31	1251.31
312.52	1189.87
312.73	1218.54
312.95	1187.82
313.16	1224.69
313.37	1273.84
313.59	1271.79
313.80	1255.40
314.01	1263.60
314.23	1218.54
314.44	1271.79
314.65	1366.00
314.87	1261.55
315.08	1304.56
315.29	1265.64
315.51	1339.37
315.72	1282.03
315.93	1226.73
316.15	1288.17
316.36	1245.16
316.57	1300.46
316.79	1273.84
317.00	1302.51
317.21	1271.79
317.43	1286.12
317.64	1243.12
317.85	1216.49
318.07	1210.35
318.28	1236.97
318.49	1230.83
318.70	1282.03
318.92	1253.36
319.13	1327.08
319.34	1263.60
319.56	1191.92
319.77	1288.17
319.98	1177.58
320.20	1243.12
320.41	1257.45
320.62	1273.84
320.83	1267.69
321.05	1302.51
321.26	1263.60
321.47	1212.40
321.69	1316.84
321.90	1253.36
322.11	1220.59
322.32	1279.98
322.54	1265.64
322.75	1271.79
322.96	1255.40
323.18	1189.87
323.39	1222.64
323.60	1243.12
323.81	1279.98
324.03	1208.30
324.24	1245.16
324.45	1257.45
324.66	1298.41
324.88	1257.45
325.09	1327.08
325.30	1257.45
325.52	1232.88
325.73	1257.45
325.94	1206.25
326.15	1294.32
326.37	1196.01
326.58	1300.46
326.79	1218.54
327.00	1366.00
327.22	1271.79
327.43	1228.78
327.64	1308.65
327.85	1271.79
328.07	1277.93
328.28	1245.16
328.49	1202.16
328.70	1318.89
328.92	1306.60
329.13	1282.03
329.34	1282.03
329.55	1333.23
329.76	1306.60
329.98	1239.02
330.19	1234.93
330.40	1304.56
330.61	1265.64
330.83	1267.69
331.04	1275.88
331.25	1212.40
331.46	1312.75
331.68	1269.74
331.89	1271.79
332.10	1279.98
332.31	1320.94
332.52	1308.65
332.74	1257.45
332.95	1247.21
333.16	1288.17
333.37	1216.49
333.58	1257.45
333.80	1196.01
334.01	1218.54
334.22	1347.56
334.43	1284.08
334.64	1259.50
334.86	1259.50
335.07	1210.35
335.28	1249.26
335.49	1245.16
335.70	1239.02
335.92	1243.12
336.13	1312.75
336.34	1286.12
336.55	1310.70
336.76	1212.40
336.98	1228.78
337.19	1206.25
337.40	1249.26
337.61	1230.83
337.82	1265.64
338.04	1218.54
338.25	1230.83
338.46	1228.78
338.67	1232.88
338.88	1322.99
339.09	1261.55
339.31	1327.08
339.52	1255.40
339.73	1253.36
339.94	1271.79
340.15	1216.49
340.36	1222.64
340.58	1290.22
340.79	1271.79
341.00	1292.27
341.21	1263.60
341.42	1298.41
341.63	1322.99
341.85	1275.88
342.06	1243.12
342.27	1314.80
342.48	1325.04
342.69	1255.40
342.90	1220.59
343.12	1275.88
343.33	1275.88
343.54	1286.12
343.75	1310.70
343.96	1216.49
344.17	1318.89
344.38	1222.64
344.60	1337.32
344.81	1230.83
345.02	1284.08
345.23	1300.46
345.44	1298.41
345.65	1271.79
345.86	1245.16
346.07	1327.08
346.29	1284.08
346.50	1263.60
346.71	1312.75
346.92	1357.80
347.13	1282.03
347.34	1228.78
347.55	1275.88
347.76	1251.31
347.98	1267.69
348.19	1243.12
348.40	1239.02
348.61	1226.73
348.82	1296.36
349.03	1273.84
349.24	1257.45
349.45	1277.93
349.66	1249.26
349.88	1282.03
350.09	1279.98
350.30	1314.80
350.51	1310.70
350.72	1275.88
350.93	1298.41
351.14	1241.07
351.35	1308.65
351.56	1243.12
351.77	1216.49
351.99	1378.28
352.20	1343.47
352.41	1267.69
352.62	1214.45
352.83	1255.40
353.04	1212.40
353.25	1292.27
353.46	1275.88
353.67	1286.12
353.88	1284.08
354.09	1249.26
354.30	1232.88
354.52	1253.36
354.73	1269.74
354.94	1224.69
355.15	1253.36
355.36	1167.34
355.57	1206.25
355.78	1173.49
355.99	1286.12
356.20	1298.41
356.41	1247.21
356.62	1300.46
356.83	1245.16
357.04	1261.55
357.25	1210.35
357.46	1196.01
357.68	1271.79
357.89	1286.12
358.10	1259.50
358.31	1245.16
358.52	1210.35
358.73	1310.70
358.94	1206.25
359.15	1247.21
359.36	1302.51
359.57	1200.11
359.78	1275.88
359.99	1232.88
360.20	1271.79
360.41	1327.08
360.62	1261.55
360.83	1245.16
361.04	1251.31
361.25	1228.78
361.46	1349.61
361.67	1318.89
361.88	1241.07
362.09	1271.79
362.30	1296.36
362.51	1263.60
362.72	1306.60
362.93	1177.58
363.14	1228.78
363.35	1290.22
363.56	1218.54
363.78	1312.75
363.99	1314.80
364.20	1257.45
364.41	1271.79
364.62	1226.73
364.83	1255.40
365.04	1284.08
365.25	1224.69
365.46	1300.46
365.67	1232.88
365.88	1245.16
366.09	1216.49
366.30	1251.31
366.51	1253.36
366.72	1232.88
366.93	1183.73
367.14	1318.89
367.35	1279.98
367.56	1247.21
367.77	1210.35
367.98	1298.41
368.18	1263.60
368.39	1243.12
368.60	1259.50
368.81	1220.59
369.02	1255.40
369.23	1239.02
369.44	1247.21
369.65	1253.36
369.86	1245.16
370.07	1253.36
370.28	1236.97
370.49	1239.02
370.70	1331.18
370.91	1245.16
371.12	1259.50
371.33	1239.02
371.54	1263.60
371.75	1261.55
371.96	1214.45
372.17	1189.87
372.38	1200.11
372.59	1183.73
372.80	1275.88
373.01	1245.16
373.22	1236.97
373.43	1234.93
373.64	1271.79
373.85	1296.36
374.06	1214.45
374.26	1208.30
374.47	1236.97
374.68	1230.83
374.89	1269.74
375.10	1220.59
375.31	1282.03
375.52	1171.44
375.73	1308.65
375.94	1220.59
376.15	1277.93
376.36	1275.88
376.57	1288.17
376.78	1243.12
376.99	1271.79
377.20	1263.60
377.40	1230.83
377.61	1271.79
377.82	1273.84
378.03	1282.03
378.24	1200.11
378.45	1257.45
378.66	1366.00
378.87	1263.60
379.08	1261.55
379.29	1259.50
379.50	1251.31
379.71	1284.08
379.91	1298.41
380.12	1300.46
380.33	1247.21
380.54	1267.69
380.75	1212.40
380.96	1269.74
381.17	1220.59
381.38	1241.07
381.59	1312.75
381.80	1310.70
382.00	1355.76
382.21	1208.30
382.42	1251.31
382.63	1304.56
382.84	1255.40
383.05	1263.60
383.26	1253.36
383.47	1290.22
383.68	1275.88
383.88	1196.01
384.09	1292.27
384.30	1251.31
384.51	1304.56
384.72	1183.73
384.93	1316.84
385.14	1304.56
385.35	1310.70
385.55	1241.07
385.76	1316.84
385.97	1243.12
386.18	1298.41
386.39	1206.25
386.60	1312.75
386.81	1271.79
387.02	1224.69
387.22	1269.74
387.43	1236.97
387.64	1318.89
387.85	1314.80
388.06	1290.22
388.27	1290.22
388.48	1255.40
388.68	1216.49
388.89	1269.74
389.10	1361.90
389.31	1308.65
389.52	1243.12
389.73	1224.69
389.93	1243.12
390.14	1220.59
390.35	1296.36
390.56	1255.40
390.77	1327.08
390.98	1314.80
391.18	1277.93
391.39	1282.03
391.60	1241.07
391.81	1259.50
392.02	1296.36
392.23	1331.18
392.43	1230.83
392.64	1263.60
392.85	1253.36
393.06	1269.74
393.27	1298.41
393.47	1247.21
393.68	1306.60
393.89	1243.12
394.10	1347.56
394.31	1345.52
394.52	1282.03
394.72	1239.02
394.93	1267.69
395.14	1310.70
395.35	1279.98
395.56	1302.51
395.76	1269.74
395.97	1357.80
396.18	1267.69
396.39	1316.84
396.60	1212.40
396.80	1243.12
397.01	1282.03
397.22	1216.49
397.43	1241.07
397.64	1275.88
397.84	1208.30
398.05	1300.46
398.26	1210.35
398.47	1261.55
398.67	1320.94
398.88	1300.46
399.09	1228.78
399.30	1273.84
399.51	1337.32
399.71	1279.98
399.92	1187.82
400.13	1318.89
400.34	1259.50
400.54	1275.88
400.75	1300.46
400.96	1269.74
401.17	1294.32
401.37	1290.22
401.58	1198.06
401.79	1216.49
402.00	1259.50
402.21	1253.36
402.41	1220.59
402.62	1257.45
402.83	1286.12
403.04	1279.98
403.24	1253.36
403.45	1265.64
403.66	1296.36
403.87	1259.50
404.07	1261.55
404.28	1245.16
404.49	1288.17
404.70	1273.84
404.90	1277.93
405.11	1322.99
405.32	1273.84
405.52	1196.01
405.73	1234.93
405.94	1284.08
406.15	1191.92
406.35	1251.31
406.56	1279.98
406.77	1257.45
406.98	1222.64
407.18	1298.41
407.39	1245.16
407.60	1277.93
407.80	1331.18
408.01	1322.99
408.22	1282.03
408.43	1292.27
408.63	1300.46
408.84	1314.80
409.05	1298.41
409.25	1253.36
409.46	1269.74
409.67	1230.83
409.88	1312.75
410.08	1304.56
410.29	1241.07
410.50	1267.69
410.70	1167.34
410.91	1259.50
411.12	1273.84
411.32	1220.59
411.53	1241.07
411.74	1234.93
411.95	1286.12
412.15	1198.06
412.36	1241.07
412.57	1239.02
412.77	1247.21
412.98	1255.40
413.19	1247.21
413.39	1226.73
413.60	1329.13
413.81	1284.08
414.01	1314.80
414.22	1267.69
414.43	1288.17
414.63	1296.36
414.84	1265.64
415.05	1214.45
415.25	1204.21
415.46	1253.36
415.67	1234.93
415.87	1222.64
416.08	1263.60
416.29	1273.84
416.49	1228.78
416.70	1230.83
416.91	1239.02
417.11	1304.56
417.32	1245.16
417.53	1327.08
417.73	1265.64
417.94	1355.76
418.15	1255.40
418.35	1265.64
418.56	1220.59
418.77	1243.12
418.97	1265.64
419.18	1239.02
419.38	1275.88
419.59	1286.12
419.80	1226.73
420.00	1247.21
420.21	1277.93
420.42	1337.32
420.62	1241.07
420.83	1273.84
421.04	1275.88
421.24	1269.74
421.45	1302.51
421.65	1349.61
421.86	1306.60
422.07	1228.78
422.27	1343.47
422.48	1265.64
422.69	1347.56
422.89	1239.02
423.10	1306.60
423.30	1169.39
423.51	1279.98
423.72	1275.88
423.92	1310.70
424.13	1271.79
424.33	1339.37
424.54	1257.45
424.75	1206.25
424.95	1220.59
425.16	1320.94
425.36	1261.55
425.57	1271.79
425.78	1310.70
425.98	1269.74
426.19	1277.93
426.39	1212.40
426.60	1257.45
426.81	1212.40
427.01	1216.49
427.22	1261.55
427.42	1292.27
427.63	1347.56
427.83	1355.76
428.04	1269.74
428.25	1298.41
428.45	1318.89
428.66	1263.60
428.86	1327.08
429.07	1265.64
429.28	1347.56
429.48	1349.61
429.69	1263.60
429.89	1298.41
430.10	1220.59
430.30	1218.54
430.51	1345.52
430.71	1316.84
430.92	1310.70
431.13	1257.45
431.33	1212.40
431.54	1269.74
431.74	1322.99
431.95	1298.41
432.15	1308.65
432.36	1286.12
432.56	1263.60
432.77	1290.22
432.98	1251.31
433.18	1249.26
433.39	1222.64
433.59	1275.88
433.80	1331.18
434.00	1282.03
434.21	1286.12
434.41	1259.50
434.62	1208.30
434.82	1265.64
435.03	1273.84
435.23	1325.04
435.44	1349.61
435.64	1298.41
435.85	1292.27
436.06	1292.27
436.26	1327.08
436.47	1206.25
436.67	1249.26
436.88	1253.36
437.08	1232.88
437.29	1273.84
437.49	1245.16
437.70	1181.68
437.90	1327.08
438.11	1267.69
438.31	1296.36
438.52	1296.36
438.72	1253.36
438.93	1294.32
439.13	1251.31
439.34	1232.88
439.54	1333.23
439.75	1236.97
439.95	1269.74
440.16	1253.36
440.36	1292.27
440.57	1273.84
440.77	1308.65
440.98	1245.16
441.18	1282.03
441.39	1298.41
441.59	1298.41
441.80	1257.45
442.00	1331.18
442.21	1294.32
442.41	1318.89
442.62	1204.21
442.82	1320.94
443.02	1241.07
443.23	1322.99
443.43	1304.56
443.64	1290.22
443.84	1226.73
444.05	1347.56
444.25	1304.56
444.46	1232.88
444.66	1290.22
444.87	1284.08
445.07	1247.21
445.28	1257.45
445.48	1239.02
445.69	1322.99
445.89	1329.13
446.09	1298.41
446.30	1331.18
446.50	1265.64
446.71	1265.64
446.91	1292.27
447.12	1245.16
447.32	1273.84
447.53	1298.41
447.73	1366.00
447.93	1294.32
448.14	1275.88
448.34	1236.97
448.55	1265.64
448.75	1286.12
448.96	1261.55
449.16	1327.08
449.36	1302.51
449.57	1261.55
449.77	1294.32
449.98	1282.03
450.18	1255.40
450.39	1310.70
450.59	1253.36
450.79	1318.89
451.00	1259.50
451.20	1236.97
451.41	1208.30
451.61	1288.17
451.81	1292.27
452.02	1359.85
452.22	1300.46
452.43	1316.84
452.63	1288.17
452.84	1263.60
453.04	1189.87
453.24	1296.36
453.45	1267.69
453.65	1220.59
453.86	1288.17
454.06	1310.70
454.26	1300.46
454.47	1359.85
454.67	1329.13
454.87	1261.55
455.08	1286.12
455.28	1286.12
455.49	1300.46
455.69	1265.64
455.89	1243.12
456.10	1249.26
456.30	1271.79
456.51	1247.21
456.71	1292.27
456.91	1318.89
457.12	1236.97
457.32	1273.84
457.52	1247.21
457.73	1355.76
457.93	1249.26
458.14	1230.83
458.34	1294.32
458.54	1249.26
458.75	1243.12
458.95	1275.88
459.15	1300.46
459.36	1286.12
459.56	1314.80
459.76	1302.51
459.97	1288.17
460.17	1314.80
460.37	1325.04
460.58	1333.23
460.78	1310.70
460.99	1269.74
461.19	1193.97
461.39	1243.12
461.60	1271.79
461.80	1347.56
462.00	1253.36
462.21	1269.74
462.41	1314.80
462.61	1224.69
462.82	1159.15
463.02	1308.65
463.22	1220.59
463.43	1322.99
463.63	1286.12
463.83	1218.54
464.04	1222.64
464.24	1245.16
464.44	1251.31
464.64	1292.27
464.85	1257.45
465.05	1298.41
465.25	1298.41
465.46	1294.32
465.66	1206.25
465.86	1267.69
466.07	1230.83
466.27	1241.07
466.47	1296.36
466.68	1226.73
466.88	1279.98
467.08	1294.32
467.29	1308.65
467.49	1179.63
467.69	1202.16
467.89	1275.88
468.10	1286.12
468.30	1325.04
468.50	1220.59
468.71	1282.03
468.91	1273.84
469.11	1292.27
469.31	1265.64
469.52	1218.54
469.72	1259.50
469.92	1253.36
470.13	1277.93
470.33	1247.21
470.53	1269.74
470.73	1310.70
470.94	1249.26
471.14	1255.40
471.34	1275.88
471.54	1265.64
471.75	1245.16
471.95	1263.60
472.15	1296.36
472.36	1271.79
472.56	1261.55
472.76	1263.60
472.96	1230.83
473.17	1316.84
473.37	1302.51
473.57	1224.69
473.77	1271.79
473.98	1263.60
474.18	1255.40
474.38	1261.55
474.58	1245.16
474.79	1345.52
474.99	1279.98
475.19	1265.64
475.39	1318.89
475.60	1312.75
475.80	1263.60
476.00	1296.36
476.20	1284.08
476.41	1269.74
476.61	1300.46
476.81	1275.88
477.01	1327.08
477.21	1263.60
477.42	1275.88
477.62	1286.12
477.82	1349.61
478.02	1273.84
478.23	1312.75
478.43	1236.97
478.63	1263.60
478.83	1261.55
479.03	1290.22
479.24	1290.22
479.44	1269.74
479.64	1337.32
479.84	1308.65
480.04	1214.45
480.25	1312.75
480.45	1175.53
480.65	1292.27
480.85	1265.64
481.06	1353.71
481.26	1228.78
481.46	1292.27
481.66	1331.18
481.86	1271.79
482.06	1253.36
482.27	1320.94
482.47	1218.54
482.67	1273.84
482.87	1251.31
483.07	1273.84
483.28	1325.04
483.48	1294.32
483.68	1331.18
483.88	1222.64
484.08	1249.26
484.29	1286.12
484.49	1279.98
484.69	1288.17
484.89	1261.55
485.09	1316.84
485.29	1239.02
485.50	1269.74
485.70	1306.60
485.90	1220.59
486.10	1226.73
486.30	1255.40
486.50	1279.98
486.71	1304.56
486.91	1288.17
487.11	1212.40
487.31	1275.88
487.51	1239.02
487.71	1277.93
487.91	1249.26
488.12	1224.69
488.32	1282.03
488.52	1314.80
488.72	1298.41
488.92	1294.32
489.12	1286.12
489.32	1263.60
489.53	1271.79
489.73	1261.55
489.93	1232.88
490.13	1200.11
490.33	1337.32
490.53	1265.64
490.73	1269.74
490.94	1282.03
491.14	1261.55
491.34	1208.30
491.54	1322.99
491.74	1259.50
491.94	1236.97
492.14	1282.03
492.34	1245.16
492.54	1353.71
492.75	1318.89
492.95	1255.40
493.15	1245.16
493.35	1204.21
493.55	1294.32
493.75	1327.08
493.95	1302.51
494.15	1292.27
494.35	1273.84
494.56	1224.69
494.76	1290.22
494.96	1269.74
495.16	1216.49
495.36	1302.51
495.56	1341.42
495.76	1269.74
495.96	1286.12
496.16	1239.02
496.36	1277.93
496.56	1286.12
496.77	1265.64
496.97	1361.90
497.17	1232.88
497.37	1234.93
497.57	1216.49
497.77	1318.89
497.97	1290.22
498.17	1228.78
498.37	1300.46
498.57	1284.08
498.77	1310.70
498.97	1275.88
499.17	1314.80
499.38	1224.69
499.58	1271.79
499.78	1234.93
499.98	1208.30
500.18	1257.45
500.38	1255.40
500.58	1249.26
500.78	1249.26
500.98	1286.12
501.18	1294.32
501.38	1335.28
501.58	1263.60
501.78	1214.45
501.98	1275.88
502.18	1265.64
502.38	1286.12
502.58	1253.36
502.78	1165.29
502.98	1320.94
503.18	1290.22
503.38	1267.69
503.59	1302.51
503.79	1279.98
503.99	1288.17
504.19	1298.41
504.39	1212.40
504.59	1314.80
504.79	1265.64
504.99	1157.10
505.19	1200.11
505.39	1228.78
505.59	1286.12
505.79	1345.52
505.99	1232.88
506.19	1243.12
506.39	1267.69
506.59	1269.74
506.79	1294.32
506.99	1329.13
507.19	1271.79
507.39	1224.69
507.59	1308.65
507.79	1241.07
507.99	1249.26
508.19	1255.40
508.39	1320.94
508.59	1284.08
508.79	1380.33
508.99	1245.16
509.19	1325.04
509.39	1286.12
509.59	1308.65
509.79	1259.50
509.99	1398.76
510.19	1269.74
510.39	1271.79
510.59	1222.64
510.79	1304.56
510.99	1282.03
511.19	1314.80
511.39	1263.60
511.59	1212.40
511.79	1298.41
511.99	1279.98
512.19	1261.55
512.38	1282.03
512.58	1277.93
512.78	1216.49
512.98	1320.94
513.18	1294.32
513.38	1243.12
513.58	1314.80
513.78	1320.94
513.98	1296.36
514.18	1351.66
514.38	1308.65
514.58	1331.18
514.78	1247.21
514.98	1245.16
515.18	1292.27
515.38	1312.75
515.58	1312.75
515.78	1267.69
515.98	1202.16
516.18	1249.26
516.38	1314.80
516.57	1271.79
516.77	1251.31
516.97	1355.76
517.17	1257.45
517.37	1290.22
517.57	1267.69
517.77	1279.98
517.97	1271.79
518.17	1220.59
518.37	1298.41
518.57	1306.60
518.77	1255.40
518.97	1288.17
519.16	1226.73
519.36	1261.55
519.56	1271.79
519.76	1228.78
519.96	1347.56
520.16	1320.94
520.36	1241.07
520.56	1241.07
520.76	1290.22
520.96	1312.75
521.16	1341.42
521.35	1318.89
521.55	1284.08
521.75	1284.08
521.95	1200.11
522.15	1282.03
522.35	1271.79
522.55	1306.60
522.75	1275.88
522.95	1279.98
523.14	1251.31
523.34	1222.64
523.54	1304.56
523.74	1306.60
523.94	1300.46
524.14	1282.03
524.34	1290.22
524.54	1257.45
524.73	1253.36
524.93	1247.21
525.13	1236.97
525.33	1247.21
525.53	1318.89
525.73	1239.02
525.93	1282.03
526.13	1257.45
526.32	1306.60
526.52	1200.11
526.72	1327.08
526.92	1282.03
527.12	1331.18
527.32	1271.79
527.52	1290.22
527.71	1320.94
527.91	1322.99
528.11	1341.42
528.31	1265.64
528.51	1230.83
528.71	1292.27
528.90	1325.04
529.10	1329.13
529.30	1279.98
529.50	1341.42
529.70	1284.08
529.90	1306.60
530.09	1224.69
530.29	1234.93
530.49	1234.93
530.69	1341.42
530.89	1302.51
531.09	1275.88
531.28	1312.75
531.48	1228.78
531.68	1253.36
531.88	1210.35
532.08	1263.60
532.28	1259.50
532.47	1241.07
532.67	1288.17
532.87	1327.08
533.07	1271.79
533.27	1269.74
533.46	1265.64
533.66	1267.69
533.86	1257.45
534.06	1263.60
534.26	1314.80
534.45	1273.84
534.65	1202.16
534.85	1288.17
535.05	1300.46
535.25	1255.40
535.44	1292.27
535.64	1202.16
535.84	1312.75
536.04	1245.16
536.24	1390.57
536.43	1273.84
536.63	1228.78
536.83	1253.36
537.03	1296.36
537.22	1267.69
537.42	1253.36
537.62	1251.31
537.82	1310.70
538.02	1286.12
538.21	1259.50
538.41	1239.02
538.61	1282.03
538.81	1282.03
539.00	1239.02
539.20	1292.27
539.40	1314.80
539.60	1288.17
539.79	1286.12
539.99	1243.12
540.19	1261.55
540.39	1304.56
540.58	1245.16
540.78	1257.45
540.98	1298.41
541.18	1275.88
541.37	1269.74
541.57	1277.93
541.77	1279.98
541.97	1265.64
542.16	1304.56
542.36	1261.55
542.56	1310.70
542.76	1302.51
542.95	1277.93
543.15	1286.12
543.35	1236.97
543.54	1275.88
543.74	1275.88
543.94	1271.79
544.14	1347.56
544.33	1234.93
544.53	1314.80
544.73	1263.60
544.93	1320.94
545.12	1312.75
545.32	1314.80
545.52	1269.74
545.71	1312.75
545.91	1327.08
546.11	1286.12
546.30	1284.08
546.50	1316.84
546.70	1302.51
546.90	1290.22
547.09	1308.65
547.29	1249.26
547.49	1345.52
547.68	1290.22
547.88	1200.11
548.08	1261.55
548.27	1341.42
548.47	1277.93
548.67	1277.93
548.87	1284.08
549.06	1247.21
549.26	1271.79
549.46	1286.12
549.65	1251.31
549.85	1296.36
550.05	1253.36
550.24	1273.84
550.44	1318.89
550.64	1298.41
550.83	1318.89
551.03	1322.99
551.23	1308.65
551.42	1304.56
551.62	1230.83
551.82	1257.45
552.01	1243.12
552.21	1284.08
552.41	1265.64
552.60	1259.50
552.80	1249.26
553.00	1220.59
553.19	1312.75
553.39	1261.55
553.59	1294.32
553.78	1286.12
553.98	1320.94
554.17	1196.01
554.37	1357.80
554.57	1331.18
554.76	1331.18
554.96	1290.22
555.16	1269.74
555.35	1249.26
555.55	1296.36
555.75	1279.98
555.94	1243.12
556.14	1257.45
556.33	1263.60
556.53	1277.93
556.73	1331.18
556.92	1312.75
557.12	1314.80
557.32	1257.45
557.51	1312.75
557.71	1277.93
557.90	1320.94
558.10	1230.83
558.30	1318.89
558.49	1284.08
558.69	1308.65
558.88	1282.03
559.08	1302.51
559.28	1282.03
559.47	1282.03
559.67	1282.03
559.86	1234.93
560.06	1337.32
560.26	1351.66
560.45	1288.17
560.65	1302.51
560.84	1261.55
561.04	1286.12
561.24	1304.56
561.43	1228.78
561.63	1263.60
561.82	1265.64
562.02	1275.88
562.22	1226.73
562.41	1312.75
562.61	1337.32
562.80	1318.89
563.00	1347.56
563.19	1265.64
563.39	1255.40
563.59	1269.74
563.78	1290.22
563.98	1247.21
564.17	1249.26
564.37	1277.93
564.56	1273.84
564.76	1361.90
564.96	1273.84
565.15	1310.70
565.35	1247.21
565.54	1322.99
565.74	1310.70
565.93	1312.75
566.13	1327.08
566.32	1282.03
566.52	1236.97
566.71	1251.31
566.91	1298.41
567.11	1331.18
567.30	1232.88
567.50	1265.64
567.69	1230.83
567.89	1314.80
568.08	1286.12
568.28	1308.65
568.47	1359.85
568.67	1292.27
568.86	1226.73
569.06	1273.84
569.25	1273.84
569.45	1304.56
569.64	1267.69
569.84	1243.12
570.04	1327.08
570.23	1370.09
570.43	1341.42
570.62	1333.23
570.82	1308.65
571.01	1271.79
571.21	1236.97
571.40	1322.99
571.60	1322.99
571.79	1279.98
571.99	1335.28
572.18	1310.70
572.38	1304.56
572.57	1269.74
572.77	1236.97
572.96	1314.80
573.16	1294.32
573.35	1320.94
573.55	1257.45
573.74	1284.08
573.94	1320.94
574.13	1243.12
574.33	1249.26
574.52	1255.40
574.71	1273.84
574.91	1298.41
575.10	1296.36
575.30	1300.46
575.49	1212.40
575.69	1198.06
575.88	1368.04
576.08	1247.21
576.27	1286.12
576.47	1288.17
576.66	1257.45
576.86	1318.89
577.05	1241.07
577.25	1292.27
577.44	1337.32
577.64	1286.12
577.83	1333.23
578.02	1253.36
578.22	1302.51
578.41	1333.23
578.61	1310.70
578.80	1288.17
579.00	1245.16
579.19	1220.59
579.39	1273.84
579.58	1226.73
579.77	1286.12
579.97	1279.98
580.16	1357.80
580.36	1298.41
580.55	1267.69
580.75	1327.08
580.94	1263.60
581.13	1374.19
581.33	1314.80
581.52	1325.04
581.72	1300.46
581.91	1343.47
582.11	1263.60
582.30	1220.59
582.49	1304.56
582.69	1298.41
582.88	1310.70
583.08	1290.22
583.27	1269.74
583.47	1343.47
583.66	1267.69
583.85	1265.64
584.05	1269.74
584.24	1259.50
584.44	1320.94
584.63	1251.31
584.82	1265.64
585.02	1322.99
585.21	1241.07
585.41	1269.74
585.60	1318.89
585.79	1275.88
585.99	1296.36
586.18	1251.31
586.37	1273.84
586.57	1286.12
586.76	1288.17
586.96	1261.55
587.15	1288.17
587.34	1335.28
587.54	1275.88
587.73	1327.08
587.93	1310.70
588.12	1249.26
588.31	1306.60
588.51	1275.88
588.70	1363.95
588.89	1273.84
589.09	1273.84
589.28	1329.13
589.47	1263.60
589.67	1316.84
589.86	1339.37
590.06	1279.98
590.25	1302.51
590.44	1300.46
590.64	1271.79
590.83	1290.22
591.02	1337.32
591.22	1282.03
591.41	1234.93
591.60	1241.07
591.80	1337.32
591.99	1253.36
592.18	1331.18
592.38	1275.88
592.57	1304.56
592.76	1275.88
592.96	1304.56
593.15	1230.83
593.34	1302.51
593.54	1271.79
593.73	1267.69
593.92	1253.36
594.12	1296.36
594.31	1230.83
594.50	1282.03
594.70	1290.22
594.89	1298.41
595.08	1239.02
595.28	1269.74
595.47	1273.84
595.66	1206.25
595.86	1275.88
596.05	1251.31
596.24	1214.45
596.43	1265.64
596.63	1339.37
596.82	1263.60
597.01	1273.84
597.21	1241.07
597.40	1263.60
597.59	1243.12
597.79	1273.84
597.98	1327.08
598.17	1312.75
598.36	1306.60
598.56	1253.36
598.75	1314.80
598.94	1261.55
599.14	1327.08
599.33	1331.18
599.52	1279.98
599.71	1230.83
599.91	1282.03
600.10	1316.84
600.29	1290.22
600.48	1345.52
600.68	1290.22
600.87	1224.69
601.06	1269.74
601.26	1234.93
601.45	1249.26
601.64	1314.80
601.83	1314.80
602.03	1310.70
602.22	1239.02
602.41	1329.13
602.60	1265.64
602.80	1232.88
602.99	1265.64
603.18	1284.08
603.37	1282.03
603.57	1193.97
603.76	1306.60
603.95	1290.22
604.14	1259.50
604.34	1196.01
604.53	1265.64
604.72	1269.74
604.91	1296.36
605.10	1232.88
605.30	1239.02
605.49	1265.64
605.68	1249.26
605.87	1239.02
606.07	1224.69
606.26	1271.79
606.45	1312.75
606.64	1290.22
606.84	1298.41
607.03	1349.61
607.22	1249.26
607.41	1173.49
607.60	1308.65
607.80	1241.07
607.99	1212.40
608.18	1310.70
608.37	1243.12
608.56	1306.60
608.76	1308.65
608.95	1314.80
609.14	1286.12
609.33	1224.69
609.52	1290.22
609.72	1300.46
609.91	1325.04
610.10	1282.03
610.29	1259.50
610.48	1234.93
610.68	1327.08
610.87	1257.45
611.06	1257.45
611.25	1275.88
611.44	1275.88
611.63	1327.08
611.83	1259.50
612.02	1292.27
612.21	1341.42
612.40	1296.36
612.59	1345.52
612.79	1255.40
612.98	1327.08
613.17	1220.59
613.36	1275.88
613.55	1202.16
613.74	1284.08
613.93	1284.08
614.13	1265.64
614.32	1288.17
614.51	1320.94
614.70	1282.03
614.89	1322.99
615.08	1277.93
615.28	1302.51
615.47	1263.60
615.66	1304.56
615.85	1327.08
616.04	1355.76
616.23	1298.41
616.42	1247.21
616.62	1257.45
616.81	1282.03
617.00	1243.12
617.19	1300.46
617.38	1275.88
617.57	1298.41
617.76	1331.18
617.95	1404.91
618.15	1306.60
618.34	1327.08
618.53	1286.12
618.72	1314.80
618.91	1335.28
619.10	1325.04
619.29	1216.49
619.48	1253.36
619.68	1234.93
619.87	1269.74
620.06	1251.31
620.25	1255.40
620.44	1236.97
620.63	1210.35
620.82	1318.89
621.01	1277.93
621.20	1245.16
621.39	1343.47
621.59	1277.93
621.78	1206.25
621.97	1261.55
622.16	1310.70
622.35	1300.46
622.54	1331.18
622.73	1363.95
622.92	1310.70
623.11	1273.84
623.30	1316.84
623.49	1310.70
623.68	1232.88
623.88	1284.08
624.07	1269.74
624.26	1282.03
624.45	1286.12
624.64	1265.64
624.83	1308.65
625.02	1296.36
625.21	1247.21
625.40	1288.17
625.59	1282.03
625.78	1359.85
625.97	1300.46
626.16	1273.84
626.35	1284.08
626.54	1290.22
626.74	1339.37
626.93	1220.59
627.12	1271.79
627.31	1302.51
627.50	1347.56
627.69	1359.85
627.88	1306.60
628.07	1220.59
628.26	1275.88
628.45	1296.36
628.64	1253.36
628.83	1267.69
629.02	1312.75
629.21	1253.36
629.40	1286.12
629.59	1271.79
629.78	1210.35
629.97	1302.51
630.16	1355.76
630.35	1267.69
630.54	1288.17
630.73	1302.51
630.92	1277.93
631.11	1247.21
631.30	1347.56
631.49	1265.64
631.68	1300.46
631.87	1695.72
632.06	2643.93
632.25	1966.05
632.44	2117.60
632.63	2996.18
632.82	5414.83
633.01	7552.91
633.20	9299.83
633.39	8929.14
633.58	10524.51
633.77	12113.74
633.96	16170.76
634.15	31495.71
634.34	39613.86
634.53	35263.97
634.72	25343.61
634.91	17848.05
635.10	12113.74
635.29	7661.45
635.48	5103.54
635.67	3753.93
635.86	2686.94
636.05	2090.98
636.24	1605.61
636.43	1449.96
636.62	1429.48
636.81	1337.32
637.00	1435.63
637.19	1343.47
637.38	1361.90
637.57	1304.56
637.76	1333.23
637.95	1310.70
638.14	1300.46
638.33	1327.08
638.52	1284.08
638.71	1249.26
638.89	1361.90
639.08	1380.33
639.27	1294.32
639.46	1290.22
639.65	1286.12
639.84	1243.12
640.03	1329.13
640.22	1322.99
640.41	1284.08
640.60	1308.65
640.79	1288.17
640.98	1282.03
641.17	1282.03
641.36	1339.37
641.55	1343.47
641.74	1251.31
641.92	1277.93
642.11	1210.35
642.30	1220.59
642.49	1298.41
642.68	1273.84
642.87	1277.93
643.06	1288.17
643.25	1290.22
643.44	1312.75
643.63	1314.80
643.82	1343.47
644.00	1208.30
644.19	1306.60
644.38	1331.18
644.57	1230.83
644.76	1277.93
644.95	1306.60
645.14	1282.03
645.33	1290.22
645.52	1253.36
645.71	1335.28
645.89	1253.36
646.08	1232.88
646.27	1300.46
646.46	1361.90
646.65	1269.74
646.84	1275.88
647.03	1273.84
647.22	1290.22
647.40	1361.90
647.59	1286.12
647.78	1331.18
647.97	1263.60
648.16	1277.93
648.35	1251.31
648.54	1343.47
648.73	1288.17
648.91	1296.36
649.10	1282.03
649.29	1265.64
649.48	1308.65
649.67	1290.22
649.86	1222.64
650.05	1294.32
650.23	1296.36
650.42	1236.97
650.61	1331.18
650.80	1355.76
650.99	1277.93
651.18	1279.98
651.36	1275.88
651.55	1245.16
651.74	1296.36
651.93	1267.69
652.12	1327.08
652.31	1290.22
652.49	1257.45
652.68	1329.13
652.87	1275.88
653.06	1198.06
653.25	1361.90
653.44	1175.53
653.62	1331.18
653.81	1253.36
654.00	1302.51
654.19	1247.21
654.38	1329.13
654.56	1259.50
654.75	1320.94
654.94	1351.66
655.13	1253.36
655.32	1245.16
655.51	1288.17
655.69	1337.32
655.88	1267.69
656.07	1308.65
656.26	1269.74
656.45	1300.46
656.63	1265.64
656.82	1286.12
657.01	1288.17
657.20	1279.98
657.38	1314.80
657.57	1271.79
657.76	1308.65
657.95	1271.79
658.14	1329.13
658.32	1265.64
658.51	1220.59
658.70	1171.44
658.89	1290.22
659.08	1228.78
659.26	1267.69
659.45	1294.32
659.64	1245.16
659.83	1249.26
660.01	1200.11
660.20	1296.36
660.39	1316.84
660.58	1247.21
660.76	1316.84
660.95	1220.59
661.14	1269.74
661.33	1232.88
661.51	1249.26
661.70	1406.95
661.89	1257.45
662.08	1204.21
662.26	1325.04
662.45	1249.26
662.64	1255.40
662.83	1239.02
663.01	1290.22
663.20	1292.27
663.39	1284.08
663.58	1273.84
663.76	1331.18
663.95	1316.84
664.14	1298.41
664.32	1327.08
664.51	1302.51
664.70	1306.60
664.89	1361.90
665.07	1284.08
665.26	1318.89
665.45	1294.32
665.64	1257.45
665.82	1175.53
666.01	1329.13
666.20	1312.75
666.38	1208.30
666.57	1236.97
666.76	1259.50
666.95	1316.84
667.13	1232.88
667.32	1255.40
667.51	1265.64
667.69	1263.60
667.88	1306.60
668.07	1286.12
668.25	1232.88
668.44	1322.99
668.63	1198.06
668.81	1298.41
669.00	1191.92
669.19	1322.99
669.38	1306.60
669.56	1265.64
669.75	1247.21
669.94	1204.21
670.12	1230.83
670.31	1214.45
670.50	1318.89
670.68	1312.75
670.87	1294.32
671.06	1259.50
671.24	1296.36
671.43	1259.50
671.62	1257.45
671.80	1255.40
671.99	1273.84
672.18	1286.12
672.36	1284.08
672.55	1220.59
672.74	1202.16
672.92	1300.46
673.11	1271.79
673.29	1198.06
673.48	1290.22
673.67	1234.93
673.85	1320.94
674.04	1234.93
674.23	1286.12
674.41	1320.94
674.60	1255.40
674.79	1277.93
674.97	1302.51
675.16	1322.99
675.34	1261.55
675.53	1257.45
675.72	1275.88
675.90	1196.01
676.09	1269.74
676.28	1269.74
676.46	1251.31
676.65	1290.22
676.83	1253.36
677.02	1306.60
677.21	1271.79
677.39	1216.49
677.58	1288.17
677.77	1302.51
677.95	1290.22
678.14	1267.69
678.32	1271.79
678.51	1304.56
678.70	1300.46
678.88	1302.51
679.07	1253.36
679.25	1279.98
679.44	1320.94
679.63	1206.25
679.81	1232.88
680.00	1265.64
680.18	1271.79
680.37	1269.74
680.55	1282.03
680.74	1359.85
680.93	1193.97
681.11	1312.75
681.30	1247.21
681.48	1275.88
681.67	1239.02
681.85	1230.83
682.04	1245.16
682.23	1318.89
682.41	1261.55
682.60	1210.35
682.78	1247.21
682.97	1316.84
683.15	1288.17
683.34	1243.12
683.53	1273.84
683.71	1267.69
683.90	1349.61
684.08	1314.80
684.27	1239.02
684.45	1208.30
684.64	1265.64
684.82	1263.60
685.01	1232.88
685.19	1241.07
685.38	1273.84
685.57	1253.36
685.75	1245.16
685.94	1259.50
686.12	1261.55
686.31	1288.17
686.49	1339.37
686.68	1269.74
686.86	1230.83
687.05	1189.87
687.23	1267.69
687.42	1314.80
687.60	1263.60
687.79	1298.41
687.97	1292.27
688.16	1279.98
688.34	1302.51
688.53	1241.07
688.71	1279.98
688.90	1214.45
689.08	1241.07
689.27	1316.84
689.45	1294.32
689.64	1322.99
689.82	1269.74
690.01	1279.98
690.19	1273.84
690.38	1236.97
690.56	1314.80
690.75	1232.88
690.93	1312.75
691.12	1216.49
691.30	1265.64
691.49	1286.12
691.67	1288.17
691.86	1273.84
692.04	1288.17
692.23	1257.45
692.41	1288.17
692.60	1206.25
692.78	1232.88
692.97	1312.75
693.15	1290.22
693.34	1253.36
693.52	1300.46
693.71	1263.60
693.89	1298.41
694.08	1232.88
694.26	1226.73
694.44	1302.51
694.63	1236.97
694.81	1241.07
695.00	1277.93
695.18	1337.32
695.37	1222.64
695.55	1247.21
695.74	1236.97
695.92	1218.54
696.10	1306.60
696.29	1208.30
696.47	1271.79
696.66	1288.17
696.84	1253.36
697.03	1294.32
697.21	1331.18
697.40	1306.60
697.58	1298.41
697.76	1286.12
697.95	1302.51
698.13	1232.88
698.32	1265.64
698.50	1220.59
698.68	1341.42
698.87	1265.64
699.05	1273.84
699.24	1249.26
699.42	1273.84
699.61	1234.93
699.79	1253.36
699.97	1255.40
700.16	1257.45
700.34	1228.78
700.53	1271.79
700.71	1257.45
700.89	1290.22
701.08	1255.40
701.26	1245.16
701.45	1384.43
701.63	1255.40
701.81	1232.88
702.00	1279.98
702.18	1251.31
702.37	1290.22
702.55	1316.84
702.73	1271.79
702.92	1308.65
703.10	1298.41
703.28	1263.60
703.47	1261.55
703.65	1243.12
703.84	1222.64
704.02	1232.88
704.20	1304.56
704.39	1294.32
704.57	1253.36
704.75	1239.02
704.94	1232.88
705.12	1261.55
705.30	1325.04
705.49	1292.27
705.67	1269.74
705.86	1359.85
706.04	1261.55
706.22	1224.69
706.41	1302.51
706.59	1271.79
706.77	1279.98
706.96	1214.45
707.14	1263.60
707.32	1271.79
707.51	1300.46
707.69	1339.37
707.87	1236.97
708.06	1251.31
708.24	1296.36
708.42	1273.84
708.61	1304.56
708.79	1263.60
708.97	1290.22
709.16	1277.93
709.34	1265.64
709.52	1253.36
709.71	1316.84
709.89	1288.17
710.07	1290.22
710.26	1220.59
710.44	1306.60
710.62	1271.79
710.80	1288.17
710.99	1296.36
711.17	1290.22
711.35	1263.60
711.54	1288.17
711.72	1282.03
711.90	1271.79
712.09	1269.74
712.27	1302.51
712.45	1269.74
712.63	1265.64
712.82	1239.02
713.00	1302.51
713.18	1269.74
713.37	1284.08
713.55	1318.89
713.73	1216.49
713.91	1228.78
714.10	1193.97
714.28	1282.03
714.46	1345.52
714.65	1269.74
714.83	1286.12
715.01	1308.65
715.19	1255.40
715.38	1200.11
715.56	1273.84
715.74	1290.22
715.92	1212.40
716.11	1288.17
716.29	1230.83
716.47	1282.03
716.65	1267.69
716.84	1249.26
717.02	1345.52
717.20	1245.16
717.38	1222.64
717.57	1296.36
717.75	1308.65
717.93	1288.17
718.11	1296.36
718.30	1279.98
718.48	1259.50
718.66	1310.70
718.84	1288.17
719.03	1218.54
719.21	1271.79
719.39	1228.78
719.57	1259.50
719.75	1288.17
719.94	1325.04
720.12	1261.55
720.30	1288.17
720.48	1255.40
720.67	1288.17
720.85	1318.89
721.03	1224.69
721.21	1247.21
721.39	1282.03
721.58	1286.12
721.76	1306.60
721.94	1206.25
722.12	1329.13
722.30	1302.51
722.49	1298.41
722.67	1249.26
722.85	1175.53
723.03	1253.36
723.21	1249.26
723.40	1267.69
723.58	1329.13
723.76	1271.79
723.94	1249.26
724.12	1322.99
724.30	1292.27
724.49	1193.97
724.67	1239.02
724.85	1292.27
725.03	1302.51
725.21	1239.02
725.40	1306.60
725.58	1232.88
725.76	1306.60
725.94	1368.04
726.12	1212.40
726.30	1290.22
726.49	1294.32
726.67	1271.79
726.85	1263.60
727.03	1157.10
727.21	1263.60
727.39	1286.12
727.57	1232.88
727.76	1228.78
727.94	1249.26
728.12	1216.49
728.30	1249.26
728.48	1306.60
728.66	1255.40
728.84	1288.17
729.03	1259.50
729.21	1284.08
729.39	1265.64
729.57	1288.17
729.75	1318.89
729.93	1185.77
730.11	1275.88
730.30	1325.04
730.48	1222.64
730.66	1294.32
730.84	1308.65
731.02	1208.30
731.20	1232.88
731.38	1325.04
731.56	1265.64
731.74	1232.88
731.93	1232.88
732.11	1306.60
732.29	1312.75
732.47	1290.22
732.65	1320.94
732.83	1298.41
733.01	1318.89
733.19	1265.64
733.37	1277.93
733.56	1286.12
733.74	1314.80
733.92	1279.98
734.10	1271.79
734.28	1259.50
734.46	1236.97
734.64	1216.49
734.82	1265.64
735.00	1218.54
735.18	1247.21
735.36	1331.18
735.54	1308.65
735.73	1298.41
735.91	1259.50
736.09	1296.36
736.27	1284.08
736.45	1267.69
736.63	1294.32
736.81	1269.74
736.99	1366.00
737.17	1230.83
737.35	1322.99
737.53	1210.35
737.71	1273.84
737.89	1294.32
738.07	1230.83
738.25	1275.88
738.43	1273.84
738.61	1185.77
738.80	1327.08
738.98	1228.78
739.16	1314.80
739.34	1267.69
739.52	1331.18
739.70	1241.07
739.88	1255.40
740.06	1294.32
740.24	1314.80
740.42	1333.23
740.60	1304.56
740.78	1228.78
740.96	1245.16
741.14	1212.40
741.32	1271.79
741.50	1282.03
741.68	1325.04
741.86	1312.75
742.04	1208.30
742.22	1288.17
742.40	1214.45
742.58	1177.58
742.76	1255.40
742.94	1372.14
743.12	1265.64
743.30	1284.08
743.48	1322.99
743.66	1275.88
743.84	1282.03
744.02	1286.12
744.20	1314.80
744.38	1218.54
744.56	1271.79
744.74	1269.74
744.92	1198.06
745.10	1318.89
745.28	1279.98
745.46	1296.36
745.64	1234.93
745.82	1298.41
746.00	1269.74
746.18	1187.82
746.36	1249.26
746.54	1279.98
746.72	1261.55
746.90	1245.16
747.08	1273.84
747.26	1263.60
747.44	1390.57
747.62	1282.03
747.80	1263.60
747.98	1261.55
748.15	1312.75
748.33	1245.16
748.51	1327.08
748.69	1210.35
748.87	1259.50
749.05	1230.83
749.23	1259.50
749.41	1204.21
749.59	1269.74
749.77	1282.03
749.95	1206.25
750.13	1267.69
750.31	1259.50
750.49	1210.35
750.67	1273.84
750.85	1277.93
751.03	1288.17
751.20	1284.08
751.38	1298.41
751.56	1304.56
751.74	1198.06
751.92	1251.31
752.10	1212.40
752.28	1230.83
752.46	1218.54
752.64	1282.03
752.82	1273.84
753.00	1306.60
753.18	1265.64
753.35	1282.03
753.53	1314.80
753.71	1277.93
753.89	1282.03
754.07	1292.27
754.25	1277.93
754.43	1284.08
754.61	1259.50
754.79	1259.50
754.97	1191.92
755.14	1290.22
755.32	1179.63
755.50	1204.21
755.68	1306.60
755.86	1259.50
756.04	1312.75
756.22	1239.02
756.40	1298.41
756.57	1255.40
756.75	1331.18
756.93	1316.84
757.11	1288.17
757.29	1224.69
757.47	1286.12
757.65	1253.36
757.82	1296.36
758.00	1239.02
758.18	1308.65
758.36	1269.74
758.54	1290.22
758.72	1232.88
758.90	1304.56
759.07	1255.40
759.25	1271.79
759.43	1265.64
759.61	1339.37
759.79	1316.84
759.97	1220.59
760.15	1316.84
760.32	1279.98
760.50	1335.28
760.68	1267.69
760.86	1288.17
761.04	1341.42
761.22	1265.64
761.39	1255.40
761.57	1189.87
761.75	1253.36
761.93	1298.41
762.11	1206.25
762.28	1261.55
762.46	1214.45
762.64	1269.74
762.82	1259.50
763.00	1320.94
763.18	1271.79
763.35	1216.49
763.53	1247.21
763.71	1265.64
763.89	1269.74
764.07	1236.97
764.24	1312.75
764.42	1193.97
764.60	1292.27
764.78	1302.51
764.96	1277.93
765.13	1292.27
765.31	1284.08
765.49	1292.27
765.67	1253.36
765.84	1273.84
766.02	1333.23
766.20	1292.27
766.38	1304.56
766.56	1241.07
766.73	1335.28
766.91	1228.78
767.09	1308.65
767.27	1286.12
767.44	1232.88
767.62	1294.32
767.80	1239.02
767.98	1245.16
768.15	1314.80
768.33	1300.46
768.51	1273.84
768.69	1257.45
768.87	1218.54
769.04	1257.45
769.22	1269.74
769.40	1288.17
769.58	1355.76
769.75	1312.75
769.93	1273.84
770.11	1329.13
770.28	1239.02
770.46	1320.94
770.64	1271.79
770.82	1300.46
770.99	1279.98
771.17	1296.36
771.35	1257.45
771.53	1243.12
771.70	1214.45
771.88	1198.06
772.06	1243.12
772.23	1335.28
772.41	1243.12
772.59	1251.31
772.77	1279.98
772.94	1245.16
773.12	1191.92
773.30	1275.88
773.47	1216.49
773.65	1296.36
773.83	1228.78
774.01	1267.69
774.18	1273.84
774.36	1277.93
774.54	1290.22
774.71	1218.54
774.89	1292.27
775.07	1253.36
775.24	1355.76
775.42	1236.97
775.60	1279.98
775.78	1290.22
775.95	1308.65
776.13	1288.17
776.31	1214.45
776.48	1306.60
776.66	1282.03
776.84	1320.94
777.01	1212.40
777.19	1253.36
777.37	1198.06
777.54	1226.73
777.72	1271.79
777.90	1232.88
778.07	1222.64
778.25	1292.27
778.43	1222.64
778.60	1263.60
778.78	1284.08
778.96	1282.03
779.13	1257.45
779.31	1269.74
779.49	1251.31
779.66	1232.88
779.84	1249.26
780.01	1296.36
780.19	1269.74
780.37	1253.36
780.54	1298.41
780.72	1288.17
780.90	1265.64
781.07	1275.88
781.25	1288.17
781.43	1310.70
781.60	1232.88
781.78	1263.60
781.95	1247.21
782.13	1267.69
782.31	1335.28
782.48	1304.56
782.66	1269.74
782.83	1263.60
783.01	1363.95
783.19	1249.26
783.36	1318.89
783.54	1298.41
783.72	1216.49
783.89	1316.84
784.07	1290.22
784.24	1220.59
784.42	1257.45
784.60	1208.30
784.77	1300.46
784.95	1279.98
785.12	1253.36
785.30	1220.59
785.47	1208.30
785.65	1271.79
785.83	1222.64
786.00	1265.64
786.18	1255.40
786.35	1214.45
786.53	1245.16
786.71	1277.93
786.88	1273.84
787.06	1261.55
787.23	1273.84
787.41	1282.03
787.58	1267.69
787.76	1339.37
787.94	1167.34
788.11	1251.31
788.29	1271.79
788.46	1214.45
788.64	1228.78
788.81	1292.27
788.99	1251.31
789.16	1241.07
789.34	1304.56
789.52	1234.93
789.69	1259.50
789.87	1255.40
790.04	1206.25
790.22	1327.08
790.39	1286.12
790.57	1294.32
790.74	1349.61
790.92	1220.59
791.09	1294.32
791.27	1255.40
791.44	1200.11
791.62	1259.50
791.79	1275.88
791.97	1257.45
792.15	1269.74
792.32	1288.17
792.50	1218.54
792.67	1345.52
792.85	1322.99
793.02	1308.65
793.20	1296.36
793.37	1206.25
793.55	1286.12
793.72	1286.12
793.90	1290.22
794.07	1236.97
794.25	1302.51
794.42	1214.45
794.60	1245.16
794.77	1255.40
794.95	1355.76
795.12	1277.93
795.30	1284.08
795.47	1279.98
795.65	1249.26
795.82	1282.03
796.00	1249.26
796.17	1310.70
796.34	1300.46
796.52	1298.41
796.69	1255.40
796.87	1261.55
797.04	1222.64
797.22	1294.32
797.39	1284.08
797.57	1273.84
797.74	1214.45
797.92	1222.64
798.09	1300.46
798.27	1265.64
798.44	1277.93
798.62	1259.50
798.79	1259.50
798.96	1261.55
799.14	1255.40
799.31	1220.59
799.49	1249.26
799.66	1245.16
799.84	1259.50
800.01	1316.84
800.19	1257.45
800.36	1261.55
800.53	1273.84
800.71	1308.65
800.88	1236.97
801.06	1296.36
801.23	1288.17
801.41	1290.22
801.58	1318.89
801.75	1202.16
801.93	1208.30
802.10	1288.17
802.28	1249.26
802.45	1220.59
802.63	1255.40
802.80	1318.89
802.97	1298.41
803.15	1286.12
803.32	1208.30
803.50	1257.45
803.67	1320.94
803.84	1261.55
804.02	1230.83
804.19	1257.45
804.37	1302.51
804.54	1288.17
804.71	1249.26
804.89	1187.82
805.06	1261.55
805.24	1284.08
805.41	1308.65
805.58	1224.69
805.76	1271.79
805.93	1290.22
806.10	1294.32
806.28	1300.46
806.45	1271.79
806.63	1230.83
806.80	1226.73
806.97	1316.84
807.15	1224.69
807.32	1228.78
807.49	1224.69
807.67	1232.88
807.84	1271.79
808.01	1185.77
808.19	1251.31
808.36	1327.08
808.54	1177.58
808.71	1220.59
808.88	1275.88
809.06	1333.23
809.23	1337.32
809.40	1277.93
809.58	1269.74
809.75	1267.69
809.92	1292.27
810.10	1288.17
810.27	1298.41
810.44	1230.83
810.62	1200.11
810.79	1277.93
810.96	1259.50
811.14	1292.27
811.31	1257.45
811.48	1177.58
811.66	1206.25
811.83	1312.75
812.00	1273.84
812.18	1300.46
812.35	1277.93
812.52	1185.77
812.69	1271.79
812.87	1288.17
813.04	1286.12
813.21	1284.08
813.39	1253.36
813.56	1351.66
813.73	1277.93
813.91	1284.08
814.08	1247.21
814.25	1271.79
814.42	1222.64
814.60	1185.77
814.77	1329.13
814.94	1286.12
815.12	1208.30
815.29	1259.50
815.46	1241.07
815.63	1290.22
815.81	1251.31
815.98	1304.56
816.15	1312.75
816.33	1265.64
816.50	1245.16
816.67	1193.97
816.84	1329.13
817.02	1275.88
817.19	1310.70
817.36	1263.60
817.53	1306.60
817.71	1257.45
817.88	1259.50
818.05	1277.93
818.22	1292.27
818.40	1245.16
818.57	1269.74
818.74	1318.89
818.91	1261.55
819.09	1247.21
819.26	1282.03
819.43	1298.41
819.60	1294.32
819.78	1277.93
819.95	1288.17
820.12	1247.21
820.29	1284.08
820.47	1218.54
820.64	1277.93
820.81	1294.32
820.98	1259.50
821.15	1228.78
821.33	1259.50
821.50	1273.84
821.67	1208.30
821.84	1267.69
822.02	1298.41
822.19	1232.88
822.36	1339.37
822.53	1249.26
822.70	1273.84
822.88	1247.21
823.05	1265.64
823.22	1304.56
823.39	1273.84
823.56	1298.41
823.74	1322.99
823.91	1261.55
824.08	1331.18
824.25	1222.64
824.42	1333.23
824.60	1298.41
824.77	1288.17
824.94	1288.17
825.11	1220.59
825.28	1282.03
825.45	1318.89
825.63	1239.02
825.80	1206.25
825.97	1255.40
826.14	1234.93
826.31	1288.17
826.48	1320.94
826.66	1249.26
826.83	1263.60
827.00	1206.25
827.17	1224.69
827.34	1339.37
827.51	1290.22
827.69	1300.46
827.86	1245.16
828.03	1263.60
828.20	1290.22
828.37	1329.13
828.54	1277.93
828.71	1232.88
828.89	1279.98
829.06	1294.32
829.23	1261.55
829.40	1253.36
829.57	1255.40
829.74	1308.65
829.91	1222.64
830.09	1279.98
830.26	1275.88
830.43	1318.89
830.60	1234.93
830.77	1212.40
830.94	1314.80
831.11	1198.06
831.28	1265.64
831.46	1171.44
831.63	1230.83
831.80	1214.45
831.97	1214.45
832.14	1386.47
832.31	1279.98
832.48	1284.08
832.65	1257.45
832.82	1222.64
832.99	1335.28
833.17	1314.80
833.34	1253.36
833.51	1335.28
833.68	1325.04
833.85	1282.03
834.02	1302.51
834.19	1146.86
834.36	1290.22
834.53	1310.70
834.70	1314.80
834.87	1212.40
835.04	1339.37
835.22	1294.32
835.39	1232.88
835.56	1226.73
835.73	1224.69
835.90	1230.83
836.07	1175.53
836.24	1247.21
836.41	1302.51
836.58	1226.73
836.75	1241.07
836.92	1198.06
837.09	1271.79
837.26	1230.83
837.43	1171.44
837.60	1261.55
837.77	1286.12
837.94	1275.88
838.12	1296.36
838.29	1318.89
838.46	1218.54
838.63	1236.97
838.80	1218.54
838.97	1286.12
839.14	1339.37
839.31	1241.07
839.48	1282.03
839.65	1257.45
839.82	1230.83
839.99	1312.75
840.16	1257.45
840.33	1191.92
840.50	1294.32
840.67	1296.36
840.84	1290.22
841.01	1331.18
841.18	1282.03
841.35	1224.69
841.52	1314.80
841.69	1284.08
841.86	1298.41
842.03	1216.49
842.20	1290.22
842.37	1249.26
842.54	1253.36
842.71	1253.36
842.88	1288.17
843.05	1241.07
843.22	1222.64
843.39	1339.37
843.56	1306.60
843.73	1351.66
843.90	1310.70
844.07	1314.80
844.24	1290.22
844.41	1277.93
844.58	1273.84
844.75	1263.60
844.92	1220.59
845.09	1239.02
845.26	1210.35
845.43	1279.98
845.60	1306.60
845.77	1335.28
845.94	1259.50
846.10	1269.74
846.27	1292.27
846.44	1183.73
846.61	1253.36
846.78	1269.74
846.95	1226.73
847.12	1208.30
847.29	1251.31
847.46	1327.08
847.63	1325.04
847.80	1212.40
847.97	1284.08
848.14	1220.59
848.31	1290.22
848.48	1222.64
848.65	1284.08
848.82	1300.46
848.98	1187.82
849.15	1200.11
849.32	1296.36
849.49	1273.84
849.66	1318.89
849.83	1267.69
850.00	1273.84
850.17	1249.26
850.34	1298.41
850.51	1341.42
850.68	1226.73
850.85	1302.51
851.01	1214.45
851.18	1310.70
851.35	1226.73
851.52	1253.36
851.69	1228.78
851.86	1257.45
852.03	1239.02
852.20	1234.93
852.37	1228.78
852.53	1236.97
852.70	1322.99
852.87	1243.12
853.04	1296.36
853.21	1273.84
853.38	1327.08
853.55	1224.69
853.72	1263.60
853.89	1236.97
854.05	1218.54
854.22	1261.55
854.39	1343.47
854.56	1363.95
854.73	1259.50
854.90	1279.98
855.07	1261.55
855.23	1282.03
855.40	1239.02
855.57	1265.64
855.74	1218.54
855.91	1359.85
856.08	1296.36
856.25	1296.36
856.41	1314.80
856.58	1296.36
856.75	1279.98
856.92	1271.79
857.09	1312.75
857.26	1269.74
857.42	1263.60
857.59	1318.89
857.76	1253.36
857.93	1292.27
858.10	1241.07
858.27	1314.80
858.43	1236.97
858.60	1267.69
858.77	1249.26
858.94	1204.21
859.11	1230.83
859.27	1251.31
859.44	1304.56
859.61	1329.13
859.78	1232.88
859.95	1236.97
860.12	1255.40
860.28	1196.01
860.45	1273.84
860.62	1234.93
860.79	1296.36
860.95	1298.41
861.12	1384.43
861.29	1243.12
861.46	1310.70
861.63	1247.21
861.79	1279.98
861.96	1302.51
862.13	1249.26
862.30	1292.27
862.47	1183.73
862.63	1265.64
862.80	1220.59
862.97	1206.25
863.14	1308.65
863.30	1331.18
863.47	1220.59
863.64	1249.26
863.81	1292.27
863.97	1304.56
864.14	1202.16
864.31	1263.60
864.48	1286.12
864.65	1251.31
864.81	1218.54
864.98	1275.88
865.15	1310.70
865.32	1234.93
865.48	1296.36
865.65	1179.63
865.82	1234.93
865.98	1294.32
866.15	1282.03
866.32	1220.59
866.49	1200.11
866.65	1200.11
866.82	1290.22
866.99	1282.03
867.16	1335.28
867.32	1257.45
867.49	1232.88
867.66	1304.56
867.83	1247.21
867.99	1273.84
868.16	1339.37
868.33	1236.97
868.49	1228.78
868.66	1234.93
868.83	1290.22
868.99	1261.55
869.16	1273.84
869.33	1241.07
869.50	1253.36
869.66	1279.98
869.83	1253.36
870.00	1261.55
870.16	1212.40
870.33	1241.07
870.50	1271.79
870.66	1251.31
870.83	1263.60
871.00	1218.54
871.17	1271.79
871.33	1304.56
871.50	1288.17
871.67	1261.55
871.83	1189.87
872.00	1333.23
872.17	1216.49
872.33	1230.83
872.50	1320.94
872.67	1318.89
872.83	1282.03
873.00	1220.59
873.17	1255.40
873.33	1279.98
873.50	1259.50
873.67	1253.36
873.83	1234.93
874.00	1298.41
874.16	1322.99
874.33	1218.54
874.50	1304.56
874.66	1339.37
874.83	1292.27
875.00	1204.21
875.16	1255.40
875.33	1228.78
875.50	1267.69
875.66	1253.36
875.83	1253.36
875.99	1265.64
876.16	1288.17
876.33	1208.30
876.49	1257.45
876.66	1202.16
876.83	1271.79
876.99	1304.56
877.16	1187.82
877.32	1273.84
877.49	1267.69
877.66	1265.64
877.82	1290.22
877.99	1230.83
878.15	1294.32
878.32	1286.12
878.49	1296.36
878.65	1245.16
878.82	1316.84
878.98	1230.83
879.15	1251.31
879.32	1261.55
879.48	1347.56
879.65	1259.50
879.81	1251.31
879.98	1267.69
880.15	1282.03
880.31	1243.12
880.48	1275.88
880.64	1200.11
880.81	1247.21
880.97	1277.93
881.14	1249.26
881.31	1298.41
881.47	1216.49
881.64	1179.63
881.80	1193.97
881.97	1273.84
882.13	1269.74
882.30	1251.31
882.47	1198.06
882.63	1271.79
882.80	1257.45
882.96	1275.88
883.13	1263.60
883.29	1327.08
883.46	1234.93
883.62	1255.40
883.79	1282.03
883.95	1263.60
884.12	1302.51
884.29	1259.50
884.45	1271.79
884.62	1269.74
884.78	1284.08
884.95	1208.30
885.11	1320.94
885.28	1288.17
885.44	1265.64
885.61	1286.12
885.77	1275.88
885.94	1314.80
886.10	1255.40
886.27	1263.60
886.43	1253.36
886.60	1284.08
886.76	1265.64
886.93	1208.30
887.09	1294.32
887.26	1265.64
887.42	1263.60
887.59	1265.64
887.75	1232.88
887.92	1284.08
888.08	1271.79
888.25	1292.27
888.41	1247.21
888.58	1230.83
888.74	1298.41
888.91	1210.35
>>>>>End Processed Spectral Data<<<<<
