SpectraSuite Data File
++++++++++++++++++++++++++++++++++++
Date: Sun Apr 03 19:55:16 CEST 2016
User: root
Dark Spectrum Present: No
Reference Spectrum Present: No
Number of Sampled Component Spectra: 1
Spectrometers: USB4C02835
Integration Time (usec): 10000 (USB4C02835)
Spectra Averaged: 1 (USB4C02835)
Boxcar Smoothing: 0 (USB4C02835)
Correct for Electrical Dark: No (USB4C02835)
Strobe/Lamp Enabled: No (USB4C02835)
Correct for Detector Non-linearity: No (USB4C02835)
Correct for Stray Light: No (USB4C02835)
Number of Pixels in Processed Spectrum: 3648
>>>>>Begin Processed Spectral Data<<<<<
177.47	1202.16
177.69	1202.16
177.91	1202.16
178.13	1269.74
178.36	1232.88
178.58	1308.65
178.80	1253.36
179.02	1220.59
179.24	1290.22
179.46	1255.40
179.68	1279.98
179.90	1226.73
180.13	1290.22
180.35	1277.93
180.57	1218.54
180.79	1300.46
181.01	1290.22
181.23	1308.65
181.45	1306.60
181.67	1298.41
181.90	1239.02
182.12	1255.40
182.34	1302.51
182.56	1253.36
182.78	1257.45
183.00	1292.27
183.22	1269.74
183.44	1253.36
183.66	1239.02
183.89	1286.12
184.11	1310.70
184.33	1335.28
184.55	1200.11
184.77	1257.45
184.99	1255.40
185.21	1304.56
185.43	1312.75
185.65	1253.36
185.87	1228.78
186.10	1288.17
186.32	1292.27
186.54	1239.02
186.76	1300.46
186.98	1290.22
187.20	1210.35
187.42	1253.36
187.64	1320.94
187.86	1220.59
188.08	1183.73
188.30	1298.41
188.52	1247.21
188.75	1320.94
188.97	1312.75
189.19	1294.32
189.41	1267.69
189.63	1210.35
189.85	1294.32
190.07	1316.84
190.29	1236.97
190.51	1290.22
190.73	1249.26
190.95	1318.89
191.17	1261.55
191.39	1306.60
191.61	1286.12
191.84	1247.21
192.06	1312.75
192.28	1230.83
192.50	1304.56
192.72	1220.59
192.94	1220.59
193.16	1206.25
193.38	1263.60
193.60	1204.21
193.82	1269.74
194.04	1239.02
194.26	1296.36
194.48	1202.16
194.70	1349.61
194.92	1214.45
195.14	1243.12
195.36	1322.99
195.58	1282.03
195.80	1292.27
196.02	1296.36
196.24	1245.16
196.46	1216.49
196.69	1263.60
196.91	1298.41
197.13	1275.88
197.35	1267.69
197.57	1173.49
197.79	1288.17
198.01	1234.93
198.23	1265.64
198.45	1171.44
198.67	1282.03
198.89	1286.12
199.11	1239.02
199.33	1196.01
199.55	1329.13
199.77	1314.80
199.99	1343.47
200.21	1245.16
200.43	1198.06
200.65	1175.53
200.87	1263.60
201.09	1314.80
201.31	1308.65
201.53	1259.50
201.75	1236.97
201.97	1214.45
202.19	1193.97
202.41	1263.60
202.63	1253.36
202.85	1253.36
203.07	1310.70
203.29	1222.64
203.51	1271.79
203.73	1325.04
203.95	1322.99
204.17	1269.74
204.39	1345.52
204.61	1337.32
204.83	1286.12
205.05	1265.64
205.27	1265.64
205.49	1251.31
205.71	1204.21
205.93	1253.36
206.15	1271.79
206.37	1329.13
206.59	1302.51
206.81	1288.17
207.03	1257.45
207.25	1241.07
207.47	1298.41
207.69	1259.50
207.91	1239.02
208.13	1261.55
208.34	1255.40
208.56	1245.16
208.78	1265.64
209.00	1214.45
209.22	1296.36
209.44	1243.12
209.66	1275.88
209.88	1265.64
210.10	1232.88
210.32	1300.46
210.54	1273.84
210.76	1236.97
210.98	1189.87
211.20	1239.02
211.42	1296.36
211.64	1253.36
211.86	1273.84
212.08	1232.88
212.30	1247.21
212.52	1212.40
212.74	1316.84
212.96	1302.51
213.17	1247.21
213.39	1282.03
213.61	1314.80
213.83	1288.17
214.05	1265.64
214.27	1255.40
214.49	1251.31
214.71	1241.07
214.93	1261.55
215.15	1314.80
215.37	1253.36
215.59	1245.16
215.81	1218.54
216.03	1245.16
216.24	1314.80
216.46	1298.41
216.68	1253.36
216.90	1222.64
217.12	1279.98
217.34	1298.41
217.56	1325.04
217.78	1239.02
218.00	1226.73
218.22	1247.21
218.44	1236.97
218.66	1294.32
218.87	1247.21
219.09	1273.84
219.31	1247.21
219.53	1214.45
219.75	1232.88
219.97	1308.65
220.19	1200.11
220.41	1222.64
220.63	1312.75
220.85	1269.74
221.06	1290.22
221.28	1351.66
221.50	1308.65
221.72	1296.36
221.94	1304.56
222.16	1327.08
222.38	1222.64
222.60	1261.55
222.82	1302.51
223.03	1196.01
223.25	1275.88
223.47	1241.07
223.69	1271.79
223.91	1284.08
224.13	1300.46
224.35	1290.22
224.57	1290.22
224.78	1196.01
225.00	1251.31
225.22	1345.52
225.44	1339.37
225.66	1275.88
225.88	1322.99
226.10	1257.45
226.32	1255.40
226.53	1249.26
226.75	1249.26
226.97	1210.35
227.19	1279.98
227.41	1316.84
227.63	1359.85
227.85	1189.87
228.06	1251.31
228.28	1290.22
228.50	1292.27
228.72	1198.06
228.94	1189.87
229.16	1232.88
229.37	1265.64
229.59	1290.22
229.81	1226.73
230.03	1292.27
230.25	1298.41
230.47	1249.26
230.69	1294.32
230.90	1318.89
231.12	1267.69
231.34	1263.60
231.56	1304.56
231.78	1198.06
232.00	1316.84
232.21	1218.54
232.43	1314.80
232.65	1286.12
232.87	1214.45
233.09	1277.93
233.30	1298.41
233.52	1259.50
233.74	1288.17
233.96	1247.21
234.18	1372.14
234.40	1279.98
234.61	1351.66
234.83	1253.36
235.05	1230.83
235.27	1361.90
235.49	1214.45
235.70	1306.60
235.92	1222.64
236.14	1282.03
236.36	1302.51
236.58	1304.56
236.79	1214.45
237.01	1279.98
237.23	1322.99
237.45	1298.41
237.67	1325.04
237.88	1294.32
238.10	1310.70
238.32	1261.55
238.54	1271.79
238.76	1212.40
238.97	1236.97
239.19	1279.98
239.41	1300.46
239.63	1290.22
239.85	1306.60
240.06	1290.22
240.28	1259.50
240.50	1243.12
240.72	1282.03
240.93	1271.79
241.15	1320.94
241.37	1267.69
241.59	1298.41
241.81	1296.36
242.02	1263.60
242.24	1304.56
242.46	1308.65
242.68	1230.83
242.89	1241.07
243.11	1216.49
243.33	1206.25
243.55	1239.02
243.76	1271.79
243.98	1232.88
244.20	1257.45
244.42	1388.52
244.64	1245.16
244.85	1224.69
245.07	1304.56
245.29	1208.30
245.51	1271.79
245.72	1255.40
245.94	1269.74
246.16	1257.45
246.38	1316.84
246.59	1294.32
246.81	1218.54
247.03	1259.50
247.24	1314.80
247.46	1275.88
247.68	1251.31
247.90	1243.12
248.11	1279.98
248.33	1275.88
248.55	1206.25
248.77	1273.84
248.98	1249.26
249.20	1241.07
249.42	1224.69
249.64	1206.25
249.85	1286.12
250.07	1275.88
250.29	1316.84
250.50	1193.97
250.72	1325.04
250.94	1304.56
251.16	1265.64
251.37	1310.70
251.59	1290.22
251.81	1208.30
252.02	1286.12
252.24	1290.22
252.46	1284.08
252.68	1236.97
252.89	1331.18
253.11	1226.73
253.33	1228.78
253.54	1316.84
253.76	1273.84
253.98	1288.17
254.20	1290.22
254.41	1247.21
254.63	1296.36
254.85	1202.16
255.06	1263.60
255.28	1329.13
255.50	1284.08
255.71	1282.03
255.93	1279.98
256.15	1310.70
256.36	1308.65
256.58	1290.22
256.80	1282.03
257.02	1302.51
257.23	1378.28
257.45	1183.73
257.67	1234.93
257.88	1284.08
258.10	1263.60
258.32	1257.45
258.53	1284.08
258.75	1261.55
258.97	1314.80
259.18	1241.07
259.40	1277.93
259.62	1228.78
259.83	1325.04
260.05	1269.74
260.27	1298.41
260.48	1265.64
260.70	1329.13
260.92	1263.60
261.13	1251.31
261.35	1245.16
261.57	1208.30
261.78	1261.55
262.00	1267.69
262.22	1230.83
262.43	1271.79
262.65	1282.03
262.86	1249.26
263.08	1269.74
263.30	1251.31
263.51	1271.79
263.73	1241.07
263.95	1216.49
264.16	1261.55
264.38	1269.74
264.60	1275.88
264.81	1226.73
265.03	1282.03
265.25	1282.03
265.46	1208.30
265.68	1265.64
265.89	1308.65
266.11	1089.52
266.33	1263.60
266.54	1236.97
266.76	1296.36
266.98	1267.69
267.19	1390.57
267.41	1259.50
267.62	1234.93
267.84	1253.36
268.06	1257.45
268.27	1296.36
268.49	1251.31
268.70	1273.84
268.92	1288.17
269.14	1284.08
269.35	1198.06
269.57	1232.88
269.79	1275.88
270.00	1298.41
270.22	1271.79
270.43	1353.71
270.65	1224.69
270.87	1322.99
271.08	1339.37
271.30	1239.02
271.51	1249.26
271.73	1271.79
271.95	1245.16
272.16	1196.01
272.38	1279.98
272.59	1220.59
272.81	1239.02
273.02	1255.40
273.24	1294.32
273.46	1243.12
273.67	1269.74
273.89	1290.22
274.10	1282.03
274.32	1290.22
274.54	1232.88
274.75	1220.59
274.97	1275.88
275.18	1253.36
275.40	1247.21
275.61	1294.32
275.83	1228.78
276.05	1257.45
276.26	1277.93
276.48	1249.26
276.69	1306.60
276.91	1302.51
277.12	1253.36
277.34	1341.42
277.55	1288.17
277.77	1257.45
277.99	1265.64
278.20	1251.31
278.42	1294.32
278.63	1138.67
278.85	1241.07
279.06	1259.50
279.28	1253.36
279.49	1265.64
279.71	1288.17
279.93	1265.64
280.14	1302.51
280.36	1312.75
280.57	1232.88
280.79	1204.21
281.00	1290.22
281.22	1249.26
281.43	1255.40
281.65	1265.64
281.86	1210.35
282.08	1288.17
282.29	1216.49
282.51	1314.80
282.73	1271.79
282.94	1310.70
283.16	1302.51
283.37	1220.59
283.59	1204.21
283.80	1269.74
284.02	1290.22
284.23	1245.16
284.45	1230.83
284.66	1236.97
284.88	1265.64
285.09	1275.88
285.31	1212.40
285.52	1220.59
285.74	1282.03
285.95	1265.64
286.17	1333.23
286.38	1290.22
286.60	1271.79
286.81	1308.65
287.03	1204.21
287.24	1239.02
287.46	1234.93
287.67	1263.60
287.89	1255.40
288.10	1243.12
288.32	1263.60
288.53	1269.74
288.75	1220.59
288.96	1263.60
289.18	1173.49
289.39	1269.74
289.61	1228.78
289.82	1230.83
290.04	1304.56
290.25	1267.69
290.47	1241.07
290.68	1226.73
290.90	1306.60
291.11	1255.40
291.33	1236.97
291.54	1302.51
291.76	1257.45
291.97	1257.45
292.18	1302.51
292.40	1228.78
292.61	1331.18
292.83	1239.02
293.04	1224.69
293.26	1271.79
293.47	1241.07
293.69	1239.02
293.90	1329.13
294.12	1267.69
294.33	1239.02
294.55	1234.93
294.76	1263.60
294.97	1279.98
295.19	1259.50
295.40	1273.84
295.62	1271.79
295.83	1316.84
296.05	1308.65
296.26	1214.45
296.48	1253.36
296.69	1271.79
296.90	1279.98
297.12	1282.03
297.33	1312.75
297.55	1300.46
297.76	1255.40
297.98	1196.01
298.19	1249.26
298.41	1288.17
298.62	1243.12
298.83	1269.74
299.05	1253.36
299.26	1253.36
299.48	1277.93
299.69	1257.45
299.90	1267.69
300.12	1226.73
300.33	1267.69
300.55	1234.93
300.76	1298.41
300.98	1226.73
301.19	1331.18
301.40	1279.98
301.62	1232.88
301.83	1261.55
302.05	1263.60
302.26	1259.50
302.47	1259.50
302.69	1261.55
302.90	1294.32
303.12	1271.79
303.33	1284.08
303.54	1318.89
303.76	1255.40
303.97	1183.73
304.19	1253.36
304.40	1261.55
304.61	1226.73
304.83	1210.35
305.04	1316.84
305.26	1275.88
305.47	1314.80
305.68	1236.97
305.90	1263.60
306.11	1234.93
306.33	1286.12
306.54	1234.93
306.75	1255.40
306.97	1345.52
307.18	1232.88
307.39	1312.75
307.61	1294.32
307.82	1245.16
308.04	1249.26
308.25	1271.79
308.46	1218.54
308.68	1216.49
308.89	1241.07
309.10	1226.73
309.32	1273.84
309.53	1314.80
309.74	1257.45
309.96	1257.45
310.17	1198.06
310.39	1243.12
310.60	1265.64
310.81	1179.63
311.03	1290.22
311.24	1261.55
311.45	1331.18
311.67	1226.73
311.88	1196.01
312.09	1282.03
312.31	1273.84
312.52	1308.65
312.73	1310.70
312.95	1265.64
313.16	1279.98
313.37	1218.54
313.59	1298.41
313.80	1208.30
314.01	1253.36
314.23	1228.78
314.44	1241.07
314.65	1286.12
314.87	1306.60
315.08	1265.64
315.29	1308.65
315.51	1282.03
315.72	1277.93
315.93	1230.83
316.15	1312.75
316.36	1247.21
316.57	1269.74
316.79	1273.84
317.00	1314.80
317.21	1247.21
317.43	1218.54
317.64	1236.97
317.85	1320.94
318.07	1251.31
318.28	1296.36
318.49	1206.25
318.70	1253.36
318.92	1222.64
319.13	1239.02
319.34	1226.73
319.56	1265.64
319.77	1322.99
319.98	1239.02
320.20	1298.41
320.41	1271.79
320.62	1353.71
320.83	1312.75
321.05	1288.17
321.26	1273.84
321.47	1298.41
321.69	1253.36
321.90	1345.52
322.11	1363.95
322.32	1302.51
322.54	1277.93
322.75	1279.98
322.96	1230.83
323.18	1249.26
323.39	1275.88
323.60	1304.56
323.81	1327.08
324.03	1239.02
324.24	1247.21
324.45	1275.88
324.66	1255.40
324.88	1259.50
325.09	1351.66
325.30	1302.51
325.52	1279.98
325.73	1267.69
325.94	1290.22
326.15	1277.93
326.37	1265.64
326.58	1245.16
326.79	1200.11
327.00	1288.17
327.22	1257.45
327.43	1304.56
327.64	1314.80
327.85	1343.47
328.07	1263.60
328.28	1249.26
328.49	1277.93
328.70	1167.34
328.92	1212.40
329.13	1335.28
329.34	1310.70
329.55	1288.17
329.76	1335.28
329.98	1306.60
330.19	1232.88
330.40	1316.84
330.61	1300.46
330.83	1275.88
331.04	1224.69
331.25	1232.88
331.46	1265.64
331.68	1181.68
331.89	1263.60
332.10	1247.21
332.31	1298.41
332.52	1224.69
332.74	1234.93
332.95	1286.12
333.16	1263.60
333.37	1236.97
333.58	1265.64
333.80	1218.54
334.01	1343.47
334.22	1239.02
334.43	1286.12
334.64	1220.59
334.86	1298.41
335.07	1331.18
335.28	1247.21
335.49	1196.01
335.70	1271.79
335.92	1282.03
336.13	1298.41
336.34	1290.22
336.55	1298.41
336.76	1224.69
336.98	1269.74
337.19	1310.70
337.40	1216.49
337.61	1222.64
337.82	1300.46
338.04	1284.08
338.25	1236.97
338.46	1269.74
338.67	1339.37
338.88	1294.32
339.09	1255.40
339.31	1329.13
339.52	1296.36
339.73	1273.84
339.94	1243.12
340.15	1253.36
340.36	1249.26
340.58	1241.07
340.79	1247.21
341.00	1273.84
341.21	1245.16
341.42	1183.73
341.63	1284.08
341.85	1269.74
342.06	1241.07
342.27	1322.99
342.48	1310.70
342.69	1236.97
342.90	1167.34
343.12	1232.88
343.33	1325.04
343.54	1277.93
343.75	1249.26
343.96	1263.60
344.17	1224.69
344.38	1210.35
344.60	1228.78
344.81	1230.83
345.02	1234.93
345.23	1288.17
345.44	1327.08
345.65	1282.03
345.86	1294.32
346.07	1220.59
346.29	1282.03
346.50	1220.59
346.71	1304.56
346.92	1239.02
347.13	1339.37
347.34	1245.16
347.55	1314.80
347.76	1275.88
347.98	1269.74
348.19	1341.42
348.40	1316.84
348.61	1296.36
348.82	1337.32
349.03	1273.84
349.24	1308.65
349.45	1236.97
349.66	1247.21
349.88	1269.74
350.09	1333.23
350.30	1314.80
350.51	1196.01
350.72	1284.08
350.93	1251.31
351.14	1300.46
351.35	1249.26
351.56	1208.30
351.77	1282.03
351.99	1282.03
352.20	1243.12
352.41	1296.36
352.62	1288.17
352.83	1279.98
353.04	1271.79
353.25	1284.08
353.46	1349.61
353.67	1214.45
353.88	1253.36
354.09	1277.93
354.30	1218.54
354.52	1298.41
354.73	1325.04
354.94	1200.11
355.15	1241.07
355.36	1208.30
355.57	1288.17
355.78	1265.64
355.99	1292.27
356.20	1239.02
356.41	1263.60
356.62	1206.25
356.83	1318.89
357.04	1249.26
357.25	1257.45
357.46	1228.78
357.68	1267.69
357.89	1300.46
358.10	1298.41
358.31	1296.36
358.52	1257.45
358.73	1232.88
358.94	1257.45
359.15	1261.55
359.36	1279.98
359.57	1214.45
359.78	1255.40
359.99	1224.69
360.20	1261.55
360.41	1236.97
360.62	1273.84
360.83	1218.54
361.04	1230.83
361.25	1257.45
361.46	1271.79
361.67	1267.69
361.88	1304.56
362.09	1247.21
362.30	1288.17
362.51	1241.07
362.72	1255.40
362.93	1210.35
363.14	1236.97
363.35	1218.54
363.56	1277.93
363.78	1265.64
363.99	1298.41
364.20	1341.42
364.41	1353.71
364.62	1261.55
364.83	1284.08
365.04	1198.06
365.25	1255.40
365.46	1236.97
365.67	1286.12
365.88	1308.65
366.09	1273.84
366.30	1214.45
366.51	1345.52
366.72	1210.35
366.93	1292.27
367.14	1333.23
367.35	1337.32
367.56	1282.03
367.77	1167.34
367.98	1259.50
368.18	1310.70
368.39	1288.17
368.60	1265.64
368.81	1212.40
369.02	1349.61
369.23	1294.32
369.44	1290.22
369.65	1234.93
369.86	1243.12
370.07	1224.69
370.28	1322.99
370.49	1341.42
370.70	1224.69
370.91	1202.16
371.12	1306.60
371.33	1296.36
371.54	1253.36
371.75	1290.22
371.96	1230.83
372.17	1288.17
372.38	1239.02
372.59	1241.07
372.80	1298.41
373.01	1230.83
373.22	1343.47
373.43	1257.45
373.64	1222.64
373.85	1290.22
374.06	1222.64
374.26	1300.46
374.47	1282.03
374.68	1214.45
374.89	1251.31
375.10	1198.06
375.31	1241.07
375.52	1204.21
375.73	1251.31
375.94	1249.26
376.15	1273.84
376.36	1302.51
376.57	1294.32
376.78	1261.55
376.99	1304.56
377.20	1228.78
377.40	1265.64
377.61	1247.21
377.82	1198.06
378.03	1304.56
378.24	1306.60
378.45	1339.37
378.66	1257.45
378.87	1279.98
379.08	1265.64
379.29	1202.16
379.50	1275.88
379.71	1247.21
379.91	1282.03
380.12	1206.25
380.33	1275.88
380.54	1298.41
380.75	1265.64
380.96	1331.18
381.17	1298.41
381.38	1204.21
381.59	1325.04
381.80	1265.64
382.00	1218.54
382.21	1255.40
382.42	1308.65
382.63	1234.93
382.84	1216.49
383.05	1228.78
383.26	1200.11
383.47	1269.74
383.68	1374.19
383.88	1271.79
384.09	1300.46
384.30	1298.41
384.51	1200.11
384.72	1279.98
384.93	1290.22
385.14	1333.23
385.35	1298.41
385.55	1216.49
385.76	1239.02
385.97	1306.60
386.18	1259.50
386.39	1341.42
386.60	1298.41
386.81	1241.07
387.02	1265.64
387.22	1249.26
387.43	1259.50
387.64	1286.12
387.85	1255.40
388.06	1310.70
388.27	1271.79
388.48	1282.03
388.68	1232.88
388.89	1245.16
389.10	1224.69
389.31	1277.93
389.52	1222.64
389.73	1271.79
389.93	1318.89
390.14	1257.45
390.35	1257.45
390.56	1232.88
390.77	1290.22
390.98	1198.06
391.18	1198.06
391.39	1222.64
391.60	1271.79
391.81	1290.22
392.02	1269.74
392.23	1322.99
392.43	1263.60
392.64	1255.40
392.85	1302.51
393.06	1343.47
393.27	1220.59
393.47	1290.22
393.68	1232.88
393.89	1277.93
394.10	1331.18
394.31	1253.36
394.52	1236.97
394.72	1306.60
394.93	1298.41
395.14	1232.88
395.35	1267.69
395.56	1255.40
395.76	1226.73
395.97	1255.40
396.18	1241.07
396.39	1275.88
396.60	1228.78
396.80	1218.54
397.01	1271.79
397.22	1241.07
397.43	1226.73
397.64	1220.59
397.84	1232.88
398.05	1261.55
398.26	1241.07
398.47	1261.55
398.67	1304.56
398.88	1196.01
399.09	1243.12
399.30	1234.93
399.51	1302.51
399.71	1236.97
399.92	1282.03
400.13	1228.78
400.34	1218.54
400.54	1277.93
400.75	1265.64
400.96	1234.93
401.17	1269.74
401.37	1259.50
401.58	1241.07
401.79	1290.22
402.00	1273.84
402.21	1257.45
402.41	1282.03
402.62	1277.93
402.83	1226.73
403.04	1259.50
403.24	1298.41
403.45	1230.83
403.66	1265.64
403.87	1271.79
404.07	1265.64
404.28	1275.88
404.49	1316.84
404.70	1296.36
404.90	1243.12
405.11	1171.44
405.32	1243.12
405.52	1286.12
405.73	1279.98
405.94	1271.79
406.15	1228.78
406.35	1282.03
406.56	1273.84
406.77	1341.42
406.98	1224.69
407.18	1277.93
407.39	1257.45
407.60	1302.51
407.80	1263.60
408.01	1212.40
408.22	1269.74
408.43	1167.34
408.63	1222.64
408.84	1239.02
409.05	1306.60
409.25	1337.32
409.46	1320.94
409.67	1265.64
409.88	1306.60
410.08	1232.88
410.29	1304.56
410.50	1243.12
410.70	1277.93
410.91	1228.78
411.12	1222.64
411.32	1279.98
411.53	1273.84
411.74	1271.79
411.95	1277.93
412.15	1247.21
412.36	1232.88
412.57	1165.29
412.77	1275.88
412.98	1296.36
413.19	1247.21
413.39	1284.08
413.60	1275.88
413.81	1216.49
414.01	1236.97
414.22	1245.16
414.43	1214.45
414.63	1249.26
414.84	1368.04
415.05	1263.60
415.25	1269.74
415.46	1286.12
415.67	1236.97
415.87	1220.59
416.08	1341.42
416.29	1245.16
416.49	1288.17
416.70	1257.45
416.91	1304.56
417.11	1257.45
417.32	1286.12
417.53	1275.88
417.73	1241.07
417.94	1253.36
418.15	1273.84
418.35	1296.36
418.56	1304.56
418.77	1230.83
418.97	1284.08
419.18	1198.06
419.38	1241.07
419.59	1275.88
419.80	1236.97
420.00	1284.08
420.21	1327.08
420.42	1304.56
420.62	1310.70
420.83	1255.40
421.04	1249.26
421.24	1292.27
421.45	1255.40
421.65	1282.03
421.86	1230.83
422.07	1214.45
422.27	1284.08
422.48	1206.25
422.69	1230.83
422.89	1228.78
423.10	1298.41
423.30	1210.35
423.51	1290.22
423.72	1234.93
423.92	1255.40
424.13	1253.36
424.33	1325.04
424.54	1261.55
424.75	1259.50
424.95	1322.99
425.16	1200.11
425.36	1241.07
425.57	1251.31
425.78	1284.08
425.98	1279.98
426.19	1271.79
426.39	1259.50
426.60	1288.17
426.81	1275.88
427.01	1224.69
427.22	1226.73
427.42	1300.46
427.63	1249.26
427.83	1292.27
428.04	1341.42
428.25	1286.12
428.45	1288.17
428.66	1218.54
428.86	1171.44
429.07	1267.69
429.28	1241.07
429.48	1249.26
429.69	1245.16
429.89	1327.08
430.10	1261.55
430.30	1236.97
430.51	1247.21
430.71	1290.22
430.92	1261.55
431.13	1275.88
431.33	1304.56
431.54	1261.55
431.74	1290.22
431.95	1304.56
432.15	1255.40
432.36	1300.46
432.56	1343.47
432.77	1298.41
432.98	1296.36
433.18	1247.21
433.39	1257.45
433.59	1277.93
433.80	1257.45
434.00	1247.21
434.21	1304.56
434.41	1255.40
434.62	1277.93
434.82	1263.60
435.03	1290.22
435.23	1255.40
435.44	1198.06
435.64	1325.04
435.85	1322.99
436.06	1304.56
436.26	1181.68
436.47	1253.36
436.67	1271.79
436.88	1202.16
437.08	1304.56
437.29	1308.65
437.49	1269.74
437.70	1282.03
437.90	1259.50
438.11	1251.31
438.31	1282.03
438.52	1263.60
438.72	1288.17
438.93	1259.50
439.13	1288.17
439.34	1304.56
439.54	1243.12
439.75	1212.40
439.95	1206.25
440.16	1245.16
440.36	1304.56
440.57	1236.97
440.77	1304.56
440.98	1292.27
441.18	1345.52
441.39	1273.84
441.59	1261.55
441.80	1345.52
442.00	1247.21
442.21	1234.93
442.41	1310.70
442.62	1277.93
442.82	1314.80
443.02	1241.07
443.23	1183.73
443.43	1284.08
443.64	1345.52
443.84	1234.93
444.05	1345.52
444.25	1292.27
444.46	1245.16
444.66	1247.21
444.87	1308.65
445.07	1234.93
445.28	1249.26
445.48	1202.16
445.69	1265.64
445.89	1255.40
446.09	1310.70
446.30	1286.12
446.50	1308.65
446.71	1224.69
446.91	1294.32
447.12	1271.79
447.32	1359.85
447.53	1261.55
447.73	1277.93
447.93	1251.31
448.14	1306.60
448.34	1312.75
448.55	1245.16
448.75	1306.60
448.96	1261.55
449.16	1243.12
449.36	1339.37
449.57	1273.84
449.77	1196.01
449.98	1232.88
450.18	1269.74
450.39	1347.56
450.59	1261.55
450.79	1277.93
451.00	1230.83
451.20	1263.60
451.41	1279.98
451.61	1265.64
451.81	1214.45
452.02	1269.74
452.22	1337.32
452.43	1259.50
452.63	1267.69
452.84	1310.70
453.04	1290.22
453.24	1245.16
453.45	1282.03
453.65	1310.70
453.86	1230.83
454.06	1253.36
454.26	1322.99
454.47	1200.11
454.67	1320.94
454.87	1380.33
455.08	1363.95
455.28	1275.88
455.49	1312.75
455.69	1327.08
455.89	1257.45
456.10	1275.88
456.30	1257.45
456.51	1269.74
456.71	1308.65
456.91	1290.22
457.12	1312.75
457.32	1294.32
457.52	1271.79
457.73	1226.73
457.93	1220.59
458.14	1282.03
458.34	1294.32
458.54	1265.64
458.75	1343.47
458.95	1249.26
459.15	1208.30
459.36	1224.69
459.56	1333.23
459.76	1249.26
459.97	1241.07
460.17	1284.08
460.37	1298.41
460.58	1314.80
460.78	1257.45
460.99	1230.83
461.19	1216.49
461.39	1247.21
461.60	1302.51
461.80	1312.75
462.00	1314.80
462.21	1247.21
462.41	1279.98
462.61	1241.07
462.82	1191.92
463.02	1255.40
463.22	1263.60
463.43	1333.23
463.63	1234.93
463.83	1251.31
464.04	1245.16
464.24	1296.36
464.44	1263.60
464.64	1220.59
464.85	1318.89
465.05	1290.22
465.25	1216.49
465.46	1261.55
465.66	1208.30
465.86	1282.03
466.07	1286.12
466.27	1234.93
466.47	1290.22
466.68	1234.93
466.88	1294.32
467.08	1241.07
467.29	1294.32
467.49	1224.69
467.69	1277.93
467.89	1296.36
468.10	1226.73
468.30	1304.56
468.50	1327.08
468.71	1263.60
468.91	1322.99
469.11	1191.92
469.31	1335.28
469.52	1255.40
469.72	1290.22
469.92	1286.12
470.13	1308.65
470.33	1331.18
470.53	1304.56
470.73	1232.88
470.94	1241.07
471.14	1273.84
471.34	1226.73
471.54	1259.50
471.75	1331.18
471.95	1277.93
472.15	1265.64
472.36	1290.22
472.56	1212.40
472.76	1259.50
472.96	1271.79
473.17	1302.51
473.37	1308.65
473.57	1261.55
473.77	1257.45
473.98	1267.69
474.18	1302.51
474.38	1267.69
474.58	1247.21
474.79	1245.16
474.99	1261.55
475.19	1286.12
475.39	1265.64
475.60	1312.75
475.80	1296.36
476.00	1296.36
476.20	1263.60
476.41	1306.60
476.61	1325.04
476.81	1239.02
477.01	1257.45
477.21	1226.73
477.42	1312.75
477.62	1206.25
477.82	1249.26
478.02	1298.41
478.23	1212.40
478.43	1322.99
478.63	1249.26
478.83	1181.68
479.03	1275.88
479.24	1308.65
479.44	1337.32
479.64	1222.64
479.84	1284.08
480.04	1290.22
480.25	1263.60
480.45	1230.83
480.65	1255.40
480.85	1183.73
481.06	1269.74
481.26	1239.02
481.46	1275.88
481.66	1216.49
481.86	1249.26
482.06	1269.74
482.27	1210.35
482.47	1282.03
482.67	1312.75
482.87	1249.26
483.07	1273.84
483.28	1202.16
483.48	1214.45
483.68	1269.74
483.88	1294.32
484.08	1275.88
484.29	1259.50
484.49	1212.40
484.69	1224.69
484.89	1234.93
485.09	1239.02
485.29	1218.54
485.50	1284.08
485.70	1212.40
485.90	1265.64
486.10	1300.46
486.30	1218.54
486.50	1224.69
486.71	1292.27
486.91	1236.97
487.11	1273.84
487.31	1216.49
487.51	1312.75
487.71	1296.36
487.91	1290.22
488.12	1292.27
488.32	1292.27
488.52	1294.32
488.72	1275.88
488.92	1216.49
489.12	1273.84
489.32	1230.83
489.53	1267.69
489.73	1220.59
489.93	1265.64
490.13	1261.55
490.33	1269.74
490.53	1284.08
490.73	1253.36
490.94	1267.69
491.14	1320.94
491.34	1308.65
491.54	1253.36
491.74	1325.04
491.94	1300.46
492.14	1196.01
492.34	1239.02
492.54	1304.56
492.75	1286.12
492.95	1296.36
493.15	1273.84
493.35	1245.16
493.55	1300.46
493.75	1292.27
493.95	1212.40
494.15	1269.74
494.35	1265.64
494.56	1296.36
494.76	1271.79
494.96	1267.69
495.16	1208.30
495.36	1255.40
495.56	1333.23
495.76	1263.60
495.96	1325.04
496.16	1257.45
496.36	1267.69
496.56	1214.45
496.77	1286.12
496.97	1222.64
497.17	1275.88
497.37	1249.26
497.57	1279.98
497.77	1222.64
497.97	1263.60
498.17	1263.60
498.37	1236.97
498.57	1267.69
498.77	1253.36
498.97	1298.41
499.17	1368.04
499.38	1230.83
499.58	1196.01
499.78	1284.08
499.98	1296.36
500.18	1243.12
500.38	1269.74
500.58	1304.56
500.78	1257.45
500.98	1251.31
501.18	1228.78
501.38	1263.60
501.58	1290.22
501.78	1239.02
501.98	1288.17
502.18	1265.64
502.38	1284.08
502.58	1222.64
502.78	1271.79
502.98	1243.12
503.18	1257.45
503.38	1230.83
503.59	1259.50
503.79	1337.32
503.99	1325.04
504.19	1288.17
504.39	1255.40
504.59	1259.50
504.79	1279.98
504.99	1327.08
505.19	1331.18
505.39	1247.21
505.59	1298.41
505.79	1331.18
505.99	1310.70
506.19	1253.36
506.39	1265.64
506.59	1286.12
506.79	1290.22
506.99	1157.10
507.19	1255.40
507.39	1282.03
507.59	1314.80
507.79	1185.77
507.99	1282.03
508.19	1294.32
508.39	1286.12
508.59	1265.64
508.79	1290.22
508.99	1296.36
509.19	1269.74
509.39	1224.69
509.59	1290.22
509.79	1290.22
509.99	1312.75
510.19	1259.50
510.39	1220.59
510.59	1320.94
510.79	1204.21
510.99	1290.22
511.19	1277.93
511.39	1257.45
511.59	1310.70
511.79	1353.71
511.99	1259.50
512.19	1257.45
512.38	1318.89
512.58	1314.80
512.78	1310.70
512.98	1255.40
513.18	1204.21
513.38	1300.46
513.58	1263.60
513.78	1191.92
513.98	1306.60
514.18	1302.51
514.38	1290.22
514.58	1322.99
514.78	1314.80
514.98	1298.41
515.18	1269.74
515.38	1173.49
515.58	1288.17
515.78	1296.36
515.98	1239.02
516.18	1312.75
516.38	1290.22
516.57	1269.74
516.77	1308.65
516.97	1349.61
517.17	1294.32
517.37	1210.35
517.57	1392.62
517.77	1302.51
517.97	1312.75
518.17	1265.64
518.37	1331.18
518.57	1243.12
518.77	1312.75
518.97	1322.99
519.16	1288.17
519.36	1290.22
519.56	1269.74
519.76	1224.69
519.96	1284.08
520.16	1263.60
520.36	1294.32
520.56	1277.93
520.76	1251.31
520.96	1245.16
521.16	1290.22
521.35	1286.12
521.55	1267.69
521.75	1286.12
521.95	1259.50
522.15	1322.99
522.35	1206.25
522.55	1265.64
522.75	1378.28
522.95	1277.93
523.14	1288.17
523.34	1298.41
523.54	1310.70
523.74	1290.22
523.94	1300.46
524.14	1288.17
524.34	1279.98
524.54	1304.56
524.73	1263.60
524.93	1320.94
525.13	1304.56
525.33	1255.40
525.53	1292.27
525.73	1298.41
525.93	1273.84
526.13	1327.08
526.32	1312.75
526.52	1286.12
526.72	1210.35
526.92	1306.60
527.12	1286.12
527.32	1286.12
527.52	1292.27
527.71	1286.12
527.91	1247.21
528.11	1277.93
528.31	1318.89
528.51	1208.30
528.71	1320.94
528.90	1241.07
529.10	1329.13
529.30	1325.04
529.50	1306.60
529.70	1322.99
529.90	1275.88
530.09	1298.41
530.29	1370.09
530.49	1239.02
530.69	1239.02
530.89	1318.89
531.09	1314.80
531.28	1318.89
531.48	1316.84
531.68	1290.22
531.88	1261.55
532.08	1257.45
532.28	1310.70
532.47	1279.98
532.67	1249.26
532.87	1220.59
533.07	1296.36
533.27	1298.41
533.46	1294.32
533.66	1357.80
533.86	1306.60
534.06	1333.23
534.26	1304.56
534.45	1269.74
534.65	1296.36
534.85	1236.97
535.05	1284.08
535.25	1239.02
535.44	1279.98
535.64	1263.60
535.84	1265.64
536.04	1247.21
536.24	1304.56
536.43	1304.56
536.63	1316.84
536.83	1279.98
537.03	1228.78
537.22	1220.59
537.42	1273.84
537.62	1265.64
537.82	1277.93
538.02	1208.30
538.21	1318.89
538.41	1224.69
538.61	1370.09
538.81	1257.45
539.00	1275.88
539.20	1263.60
539.40	1218.54
539.60	1279.98
539.79	1327.08
539.99	1318.89
540.19	1308.65
540.39	1282.03
540.58	1267.69
540.78	1327.08
540.98	1341.42
541.18	1318.89
541.37	1296.36
541.57	1239.02
541.77	1218.54
541.97	1290.22
542.16	1306.60
542.36	1341.42
542.56	1275.88
542.76	1300.46
542.95	1312.75
543.15	1282.03
543.35	1249.26
543.54	1296.36
543.74	1288.17
543.94	1304.56
544.14	1290.22
544.33	1290.22
544.53	1329.13
544.73	1202.16
544.93	1271.79
545.12	1230.83
545.32	1304.56
545.52	1361.90
545.71	1288.17
545.91	1366.00
546.11	1255.40
546.30	1263.60
546.50	1329.13
546.70	1302.51
546.90	1302.51
547.09	1243.12
547.29	1241.07
547.49	1298.41
547.68	1310.70
547.88	1263.60
548.08	1249.26
548.27	1325.04
548.47	1300.46
548.67	1290.22
548.87	1292.27
549.06	1341.42
549.26	1304.56
549.46	1271.79
549.65	1257.45
549.85	1228.78
550.05	1255.40
550.24	1294.32
550.44	1302.51
550.64	1249.26
550.83	1263.60
551.03	1294.32
551.23	1376.24
551.42	1261.55
551.62	1284.08
551.82	1345.52
552.01	1265.64
552.21	1269.74
552.41	1298.41
552.60	1257.45
552.80	1294.32
553.00	1208.30
553.19	1314.80
553.39	1294.32
553.59	1279.98
553.78	1267.69
553.98	1316.84
554.17	1269.74
554.37	1335.28
554.57	1298.41
554.76	1310.70
554.96	1277.93
555.16	1259.50
555.35	1302.51
555.55	1275.88
555.75	1333.23
555.94	1284.08
556.14	1236.97
556.33	1261.55
556.53	1275.88
556.73	1251.31
556.92	1300.46
557.12	1247.21
557.32	1294.32
557.51	1402.86
557.71	1279.98
557.90	1318.89
558.10	1347.56
558.30	1261.55
558.49	1265.64
558.69	1318.89
558.88	1306.60
559.08	1284.08
559.28	1261.55
559.47	1290.22
559.67	1314.80
559.86	1312.75
560.06	1294.32
560.26	1286.12
560.45	1247.21
560.65	1320.94
560.84	1298.41
561.04	1269.74
561.24	1241.07
561.43	1282.03
561.63	1363.95
561.82	1228.78
562.02	1312.75
562.22	1273.84
562.41	1312.75
562.61	1310.70
562.80	1322.99
563.00	1241.07
563.19	1314.80
563.39	1193.97
563.59	1245.16
563.78	1304.56
563.98	1331.18
564.17	1296.36
564.37	1351.66
564.56	1259.50
564.76	1308.65
564.96	1302.51
565.15	1173.49
565.35	1241.07
565.54	1241.07
565.74	1284.08
565.93	1261.55
566.13	1275.88
566.32	1345.52
566.52	1359.85
566.71	1335.28
566.91	1257.45
567.11	1308.65
567.30	1279.98
567.50	1263.60
567.69	1355.76
567.89	1349.61
568.08	1327.08
568.28	1247.21
568.47	1304.56
568.67	1269.74
568.86	1259.50
569.06	1286.12
569.25	1306.60
569.45	1357.80
569.64	1261.55
569.84	1286.12
570.04	1224.69
570.23	1314.80
570.43	1271.79
570.62	1251.31
570.82	1306.60
571.01	1339.37
571.21	1298.41
571.40	1322.99
571.60	1298.41
571.79	1318.89
571.99	1275.88
572.18	1220.59
572.38	1288.17
572.57	1269.74
572.77	1263.60
572.96	1306.60
573.16	1290.22
573.35	1337.32
573.55	1296.36
573.74	1239.02
573.94	1243.12
574.13	1247.21
574.33	1322.99
574.52	1247.21
574.71	1251.31
574.91	1316.84
575.10	1271.79
575.30	1296.36
575.49	1220.59
575.69	1271.79
575.88	1314.80
576.08	1320.94
576.27	1290.22
576.47	1296.36
576.66	1288.17
576.86	1232.88
577.05	1265.64
577.25	1376.24
577.44	1265.64
577.64	1198.06
577.83	1245.16
578.02	1296.36
578.22	1310.70
578.41	1292.27
578.61	1341.42
578.80	1331.18
579.00	1282.03
579.19	1282.03
579.39	1308.65
579.58	1288.17
579.77	1263.60
579.97	1286.12
580.16	1259.50
580.36	1249.26
580.55	1284.08
580.75	1304.56
580.94	1204.21
581.13	1312.75
581.33	1361.90
581.52	1277.93
581.72	1302.51
581.91	1351.66
582.11	1234.93
582.30	1345.52
582.49	1277.93
582.69	1245.16
582.88	1288.17
583.08	1269.74
583.27	1306.60
583.47	1253.36
583.66	1286.12
583.85	1282.03
584.05	1292.27
584.24	1296.36
584.44	1259.50
584.63	1253.36
584.82	1337.32
585.02	1308.65
585.21	1241.07
585.41	1329.13
585.60	1224.69
585.79	1261.55
585.99	1279.98
586.18	1331.18
586.37	1279.98
586.57	1304.56
586.76	1308.65
586.96	1247.21
587.15	1318.89
587.34	1318.89
587.54	1267.69
587.73	1214.45
587.93	1333.23
588.12	1298.41
588.31	1277.93
588.51	1355.76
588.70	1318.89
588.89	1314.80
589.09	1257.45
589.28	1325.04
589.47	1179.63
589.67	1257.45
589.86	1261.55
590.06	1220.59
590.25	1331.18
590.44	1355.76
590.64	1290.22
590.83	1247.21
591.02	1296.36
591.22	1286.12
591.41	1337.32
591.60	1269.74
591.80	1347.56
591.99	1288.17
592.18	1286.12
592.38	1261.55
592.57	1386.47
592.76	1288.17
592.96	1298.41
593.15	1261.55
593.34	1265.64
593.54	1314.80
593.73	1290.22
593.92	1308.65
594.12	1290.22
594.31	1245.16
594.50	1279.98
594.70	1372.14
594.89	1241.07
595.08	1329.13
595.28	1302.51
595.47	1232.88
595.66	1259.50
595.86	1296.36
596.05	1316.84
596.24	1282.03
596.43	1290.22
596.63	1292.27
596.82	1251.31
597.01	1284.08
597.21	1357.80
597.40	1318.89
597.59	1243.12
597.79	1310.70
597.98	1284.08
598.17	1378.28
598.36	1239.02
598.56	1288.17
598.75	1318.89
598.94	1304.56
599.14	1310.70
599.33	1271.79
599.52	1322.99
599.71	1294.32
599.91	1263.60
600.10	1198.06
600.29	1253.36
600.48	1257.45
600.68	1380.33
600.87	1355.76
601.06	1345.52
601.26	1300.46
601.45	1292.27
601.64	1325.04
601.83	1304.56
602.03	1286.12
602.22	1310.70
602.41	1243.12
602.60	1222.64
602.80	1363.95
602.99	1306.60
603.18	1316.84
603.37	1308.65
603.57	1218.54
603.76	1312.75
603.95	1351.66
604.14	1349.61
604.34	1232.88
604.53	1331.18
604.72	1275.88
604.91	1310.70
605.10	1302.51
605.30	1327.08
605.49	1329.13
605.68	1261.55
605.87	1304.56
606.07	1277.93
606.26	1265.64
606.45	1359.85
606.64	1335.28
606.84	1298.41
607.03	1239.02
607.22	1279.98
607.41	1357.80
607.60	1304.56
607.80	1302.51
607.99	1239.02
608.18	1312.75
608.37	1249.26
608.56	1273.84
608.76	1275.88
608.95	1277.93
609.14	1339.37
609.33	1286.12
609.52	1282.03
609.72	1261.55
609.91	1329.13
610.10	1333.23
610.29	1275.88
610.48	1300.46
610.68	1320.94
610.87	1296.36
611.06	1265.64
611.25	1296.36
611.44	1292.27
611.63	1302.51
611.83	1282.03
612.02	1347.56
612.21	1374.19
612.40	1257.45
612.59	1282.03
612.79	1220.59
612.98	1269.74
613.17	1239.02
613.36	1261.55
613.55	1282.03
613.74	1361.90
613.93	1322.99
614.13	1230.83
614.32	1253.36
614.51	1337.32
614.70	1290.22
614.89	1288.17
615.08	1269.74
615.28	1374.19
615.47	1284.08
615.66	1259.50
615.85	1261.55
616.04	1292.27
616.23	1325.04
616.42	1339.37
616.62	1204.21
616.81	1337.32
617.00	1325.04
617.19	1292.27
617.38	1224.69
617.57	1247.21
617.76	1255.40
617.95	1267.69
618.15	1302.51
618.34	1249.26
618.53	1302.51
618.72	1267.69
618.91	1312.75
619.10	1298.41
619.29	1314.80
619.48	1251.31
619.68	1253.36
619.87	1212.40
620.06	1243.12
620.25	1306.60
620.44	1320.94
620.63	1247.21
620.82	1257.45
621.01	1284.08
621.20	1269.74
621.39	1212.40
621.59	1392.62
621.78	1275.88
621.97	1310.70
622.16	1263.60
622.35	1212.40
622.54	1224.69
622.73	1292.27
622.92	1302.51
623.11	1341.42
623.30	1320.94
623.49	1341.42
623.68	1241.07
623.88	1275.88
624.07	1325.04
624.26	1253.36
624.45	1290.22
624.64	1275.88
624.83	1261.55
625.02	1290.22
625.21	1277.93
625.40	1255.40
625.59	1265.64
625.78	1288.17
625.97	1325.04
626.16	1210.35
626.35	1306.60
626.54	1232.88
626.74	1243.12
626.93	1290.22
627.12	1286.12
627.31	1255.40
627.50	1312.75
627.69	1325.04
627.88	1337.32
628.07	1279.98
628.26	1337.32
628.45	1257.45
628.64	1355.76
628.83	1284.08
629.02	1314.80
629.21	1288.17
629.40	1292.27
629.59	1284.08
629.78	1310.70
629.97	1345.52
630.16	1296.36
630.35	1239.02
630.54	1355.76
630.73	1288.17
630.92	1376.24
631.11	1335.28
631.30	1390.57
631.49	1345.52
631.68	1443.82
631.87	2840.53
632.06	7917.45
632.25	13598.51
632.44	20549.32
632.63	31258.15
632.82	32974.34
633.01	17053.44
633.20	6750.10
633.39	4310.97
633.58	3194.83
633.77	2572.25
633.96	2469.85
634.15	2226.14
634.34	2011.11
634.53	1787.88
634.72	1796.07
634.91	1755.11
635.10	1665.00
635.29	1683.43
635.48	1566.70
635.67	1581.03
635.86	1568.74
636.05	1556.46
636.24	1544.17
636.43	1390.57
636.62	1417.19
636.81	1302.51
637.00	1370.09
637.19	1296.36
637.38	1333.23
637.57	1331.18
637.76	1322.99
637.95	1339.37
638.14	1335.28
638.33	1236.97
638.52	1359.85
638.71	1138.67
638.89	1271.79
639.08	1292.27
639.27	1292.27
639.46	1314.80
639.65	1331.18
639.84	1325.04
640.03	1353.71
640.22	1302.51
640.41	1279.98
640.60	1298.41
640.79	1282.03
640.98	1286.12
641.17	1290.22
641.36	1325.04
641.55	1257.45
641.74	1224.69
641.92	1286.12
642.11	1322.99
642.30	1271.79
642.49	1239.02
642.68	1279.98
642.87	1247.21
643.06	1329.13
643.25	1232.88
643.44	1279.98
643.63	1284.08
643.82	1288.17
644.00	1327.08
644.19	1312.75
644.38	1249.26
644.57	1294.32
644.76	1204.21
644.95	1320.94
645.14	1218.54
645.33	1322.99
645.52	1255.40
645.71	1275.88
645.89	1275.88
646.08	1284.08
646.27	1318.89
646.46	1232.88
646.65	1296.36
646.84	1232.88
647.03	1333.23
647.22	1298.41
647.40	1329.13
647.59	1249.26
647.78	1275.88
647.97	1198.06
648.16	1216.49
648.35	1243.12
648.54	1269.74
648.73	1257.45
648.91	1269.74
649.10	1255.40
649.29	1279.98
649.48	1249.26
649.67	1269.74
649.86	1304.56
650.05	1302.51
650.23	1294.32
650.42	1286.12
650.61	1275.88
650.80	1232.88
650.99	1263.60
651.18	1282.03
651.36	1292.27
651.55	1271.79
651.74	1306.60
651.93	1236.97
652.12	1257.45
652.31	1265.64
652.49	1318.89
652.68	1288.17
652.87	1312.75
653.06	1226.73
653.25	1269.74
653.44	1228.78
653.62	1214.45
653.81	1232.88
654.00	1304.56
654.19	1277.93
654.38	1284.08
654.56	1267.69
654.75	1230.83
654.94	1259.50
655.13	1327.08
655.32	1306.60
655.51	1273.84
655.69	1290.22
655.88	1296.36
656.07	1224.69
656.26	1322.99
656.45	1279.98
656.63	1331.18
656.82	1196.01
657.01	1296.36
657.20	1351.66
657.38	1273.84
657.57	1347.56
657.76	1243.12
657.95	1259.50
658.14	1286.12
658.32	1333.23
658.51	1288.17
658.70	1333.23
658.89	1232.88
659.08	1198.06
659.26	1232.88
659.45	1306.60
659.64	1247.21
659.83	1288.17
660.01	1251.31
660.20	1355.76
660.39	1259.50
660.58	1249.26
660.76	1304.56
660.95	1230.83
661.14	1290.22
661.33	1265.64
661.51	1388.52
661.70	1277.93
661.89	1286.12
662.08	1239.02
662.26	1257.45
662.45	1277.93
662.64	1239.02
662.83	1200.11
663.01	1247.21
663.20	1300.46
663.39	1333.23
663.58	1247.21
663.76	1279.98
663.95	1277.93
664.14	1257.45
664.32	1277.93
664.51	1314.80
664.70	1236.97
664.89	1325.04
665.07	1251.31
665.26	1449.96
665.45	1224.69
665.64	1370.09
665.82	1279.98
666.01	1193.97
666.20	1157.10
666.38	1322.99
666.57	1232.88
666.76	1271.79
666.95	1273.84
667.13	1267.69
667.32	1279.98
667.51	1284.08
667.69	1232.88
667.88	1279.98
668.07	1294.32
668.25	1316.84
668.44	1284.08
668.63	1292.27
668.81	1269.74
669.00	1271.79
669.19	1380.33
669.38	1255.40
669.56	1202.16
669.75	1249.26
669.94	1247.21
670.12	1257.45
670.31	1277.93
670.50	1296.36
670.68	1304.56
670.87	1241.07
671.06	1259.50
671.24	1318.89
671.43	1277.93
671.62	1282.03
671.80	1230.83
671.99	1230.83
672.18	1302.51
672.36	1259.50
672.55	1277.93
672.74	1304.56
672.92	1218.54
673.11	1296.36
673.29	1277.93
673.48	1177.58
673.67	1294.32
673.85	1251.31
674.04	1316.84
674.23	1220.59
674.41	1306.60
674.60	1212.40
674.79	1294.32
674.97	1249.26
675.16	1312.75
675.34	1302.51
675.53	1253.36
675.72	1279.98
675.90	1359.85
676.09	1320.94
676.28	1257.45
676.46	1220.59
676.65	1247.21
676.83	1255.40
677.02	1261.55
677.21	1241.07
677.39	1265.64
677.58	1247.21
677.77	1228.78
677.95	1325.04
678.14	1265.64
678.32	1241.07
678.51	1257.45
678.70	1288.17
678.88	1230.83
679.07	1267.69
679.25	1296.36
679.44	1292.27
679.63	1245.16
679.81	1288.17
680.00	1353.71
680.18	1271.79
680.37	1277.93
680.55	1245.16
680.74	1300.46
680.93	1222.64
681.11	1224.69
681.30	1210.35
681.48	1300.46
681.67	1257.45
681.85	1239.02
682.04	1269.74
682.23	1282.03
682.41	1206.25
682.60	1275.88
682.78	1261.55
682.97	1208.30
683.15	1277.93
683.34	1239.02
683.53	1200.11
683.71	1196.01
683.90	1284.08
684.08	1189.87
684.27	1265.64
684.45	1234.93
684.64	1288.17
684.82	1216.49
685.01	1263.60
685.19	1345.52
685.38	1335.28
685.57	1331.18
685.75	1314.80
685.94	1343.47
686.12	1196.01
686.31	1251.31
686.49	1331.18
686.68	1245.16
686.86	1245.16
687.05	1273.84
687.23	1306.60
687.42	1269.74
687.60	1247.21
687.79	1312.75
687.97	1298.41
688.16	1138.67
688.34	1300.46
688.53	1257.45
688.71	1224.69
688.90	1310.70
689.08	1273.84
689.27	1316.84
689.45	1370.09
689.64	1320.94
689.82	1316.84
690.01	1292.27
690.19	1271.79
690.38	1277.93
690.56	1263.60
690.75	1318.89
690.93	1259.50
691.12	1236.97
691.30	1251.31
691.49	1167.34
691.67	1320.94
691.86	1275.88
692.04	1200.11
692.23	1230.83
692.41	1284.08
692.60	1261.55
692.78	1306.60
692.97	1265.64
693.15	1245.16
693.34	1206.25
693.52	1300.46
693.71	1337.32
693.89	1296.36
694.08	1261.55
694.26	1288.17
694.44	1279.98
694.63	1290.22
694.81	1189.87
695.00	1232.88
695.18	1218.54
695.37	1263.60
695.55	1288.17
695.74	1273.84
695.92	1306.60
696.10	1263.60
696.29	1322.99
696.47	1322.99
696.66	1245.16
696.84	1282.03
697.03	1255.40
697.21	1284.08
697.40	1282.03
697.58	1302.51
697.76	1257.45
697.95	1249.26
698.13	1277.93
698.32	1294.32
698.50	1249.26
698.68	1243.12
698.87	1337.32
699.05	1271.79
699.24	1232.88
699.42	1316.84
699.61	1269.74
699.79	1267.69
699.97	1269.74
700.16	1247.21
700.34	1212.40
700.53	1247.21
700.71	1316.84
700.89	1351.66
701.08	1277.93
701.26	1318.89
701.45	1247.21
701.63	1308.65
701.81	1302.51
702.00	1243.12
702.18	1284.08
702.37	1306.60
702.55	1267.69
702.73	1288.17
702.92	1290.22
703.10	1306.60
703.28	1230.83
703.47	1269.74
703.65	1222.64
703.84	1226.73
704.02	1269.74
704.20	1271.79
704.39	1255.40
704.57	1247.21
704.75	1322.99
704.94	1282.03
705.12	1288.17
705.30	1230.83
705.49	1218.54
705.67	1273.84
705.86	1249.26
706.04	1279.98
706.22	1271.79
706.41	1257.45
706.59	1271.79
706.77	1236.97
706.96	1282.03
707.14	1216.49
707.32	1300.46
707.51	1198.06
707.69	1255.40
707.87	1318.89
708.06	1286.12
708.24	1216.49
708.42	1284.08
708.61	1322.99
708.79	1198.06
708.97	1325.04
709.16	1282.03
709.34	1224.69
709.52	1279.98
709.71	1265.64
709.89	1241.07
710.07	1286.12
710.26	1177.58
710.44	1331.18
710.62	1239.02
710.80	1347.56
710.99	1343.47
711.17	1210.35
711.35	1345.52
711.54	1232.88
711.72	1245.16
711.90	1325.04
712.09	1263.60
712.27	1210.35
712.45	1265.64
712.63	1236.97
712.82	1318.89
713.00	1216.49
713.18	1257.45
713.37	1294.32
713.55	1275.88
713.73	1275.88
713.91	1269.74
714.10	1232.88
714.28	1239.02
714.46	1247.21
714.65	1243.12
714.83	1310.70
715.01	1224.69
715.19	1279.98
715.38	1257.45
715.56	1241.07
715.74	1267.69
715.92	1247.21
716.11	1216.49
716.29	1290.22
716.47	1292.27
716.65	1286.12
716.84	1271.79
717.02	1265.64
717.20	1261.55
717.38	1261.55
717.57	1204.21
717.75	1224.69
717.93	1204.21
718.11	1277.93
718.30	1183.73
718.48	1314.80
718.66	1294.32
718.84	1286.12
719.03	1279.98
719.21	1224.69
719.39	1282.03
719.57	1214.45
719.75	1292.27
719.94	1208.30
720.12	1259.50
720.30	1279.98
720.48	1226.73
720.67	1222.64
720.85	1292.27
721.03	1296.36
721.21	1277.93
721.39	1284.08
721.58	1222.64
721.76	1306.60
721.94	1212.40
722.12	1265.64
722.30	1320.94
722.49	1222.64
722.67	1257.45
722.85	1302.51
723.03	1241.07
723.21	1243.12
723.40	1302.51
723.58	1263.60
723.76	1296.36
723.94	1290.22
724.12	1259.50
724.30	1296.36
724.49	1284.08
724.67	1259.50
724.85	1202.16
725.03	1267.69
725.21	1314.80
725.40	1277.93
725.58	1216.49
725.76	1243.12
725.94	1288.17
726.12	1345.52
726.30	1290.22
726.49	1200.11
726.67	1316.84
726.85	1269.74
727.03	1286.12
727.21	1331.18
727.39	1261.55
727.57	1263.60
727.76	1234.93
727.94	1245.16
728.12	1265.64
728.30	1382.38
728.48	1277.93
728.66	1294.32
728.84	1325.04
729.03	1347.56
729.21	1236.97
729.39	1288.17
729.57	1243.12
729.75	1267.69
729.93	1261.55
730.11	1218.54
730.30	1277.93
730.48	1228.78
730.66	1318.89
730.84	1222.64
731.02	1259.50
731.20	1228.78
731.38	1292.27
731.56	1255.40
731.74	1239.02
731.93	1337.32
732.11	1255.40
732.29	1308.65
732.47	1316.84
732.65	1302.51
732.83	1284.08
733.01	1290.22
733.19	1304.56
733.37	1251.31
733.56	1271.79
733.74	1265.64
733.92	1316.84
734.10	1232.88
734.28	1288.17
734.46	1296.36
734.64	1277.93
734.82	1310.70
735.00	1337.32
735.18	1249.26
735.36	1200.11
735.54	1286.12
735.73	1241.07
735.91	1259.50
736.09	1263.60
736.27	1267.69
736.45	1314.80
736.63	1316.84
736.81	1314.80
736.99	1341.42
737.17	1335.28
737.35	1314.80
737.53	1294.32
737.71	1222.64
737.89	1212.40
738.07	1257.45
738.25	1298.41
738.43	1269.74
738.61	1214.45
738.80	1200.11
738.98	1286.12
739.16	1273.84
739.34	1316.84
739.52	1255.40
739.70	1220.59
739.88	1249.26
740.06	1247.21
740.24	1286.12
740.42	1230.83
740.60	1241.07
740.78	1269.74
740.96	1249.26
741.14	1234.93
741.32	1247.21
741.50	1259.50
741.68	1322.99
741.86	1202.16
742.04	1296.36
742.22	1271.79
742.40	1316.84
742.58	1241.07
742.76	1288.17
742.94	1269.74
743.12	1284.08
743.30	1230.83
743.48	1271.79
743.66	1331.18
743.84	1318.89
744.02	1267.69
744.20	1228.78
744.38	1322.99
744.56	1198.06
744.74	1251.31
744.92	1279.98
745.10	1284.08
745.28	1288.17
745.46	1253.36
745.64	1325.04
745.82	1247.21
746.00	1341.42
746.18	1347.56
746.36	1271.79
746.54	1314.80
746.72	1269.74
746.90	1296.36
747.08	1208.30
747.26	1277.93
747.44	1255.40
747.62	1308.65
747.80	1302.51
747.98	1243.12
748.15	1269.74
748.33	1263.60
748.51	1275.88
748.69	1210.35
748.87	1206.25
749.05	1222.64
749.23	1316.84
749.41	1222.64
749.59	1279.98
749.77	1202.16
749.95	1302.51
750.13	1267.69
750.31	1288.17
750.49	1241.07
750.67	1271.79
750.85	1245.16
751.03	1226.73
751.20	1245.16
751.38	1275.88
751.56	1296.36
751.74	1322.99
751.92	1279.98
752.10	1312.75
752.28	1273.84
752.46	1226.73
752.64	1204.21
752.82	1314.80
753.00	1208.30
753.18	1282.03
753.35	1241.07
753.53	1234.93
753.71	1208.30
753.89	1275.88
754.07	1284.08
754.25	1216.49
754.43	1269.74
754.61	1279.98
754.79	1263.60
754.97	1288.17
755.14	1322.99
755.32	1189.87
755.50	1339.37
755.68	1304.56
755.86	1212.40
756.04	1271.79
756.22	1243.12
756.40	1304.56
756.57	1214.45
756.75	1245.16
756.93	1316.84
757.11	1220.59
757.29	1290.22
757.47	1294.32
757.65	1265.64
757.82	1212.40
758.00	1331.18
758.18	1259.50
758.36	1261.55
758.54	1255.40
758.72	1265.64
758.90	1249.26
759.07	1308.65
759.25	1282.03
759.43	1234.93
759.61	1267.69
759.79	1312.75
759.97	1279.98
760.15	1302.51
760.32	1269.74
760.50	1294.32
760.68	1296.36
760.86	1261.55
761.04	1269.74
761.22	1286.12
761.39	1236.97
761.57	1257.45
761.75	1337.32
761.93	1253.36
762.11	1163.25
762.28	1220.59
762.46	1286.12
762.64	1216.49
762.82	1216.49
763.00	1224.69
763.18	1263.60
763.35	1265.64
763.53	1273.84
763.71	1198.06
763.89	1286.12
764.07	1249.26
764.24	1320.94
764.42	1226.73
764.60	1290.22
764.78	1253.36
764.96	1290.22
765.13	1212.40
765.31	1269.74
765.49	1322.99
765.67	1286.12
765.84	1189.87
766.02	1218.54
766.20	1247.21
766.38	1294.32
766.56	1228.78
766.73	1214.45
766.91	1347.56
767.09	1310.70
767.27	1298.41
767.44	1216.49
767.62	1255.40
767.80	1288.17
767.98	1318.89
768.15	1204.21
768.33	1265.64
768.51	1318.89
768.69	1279.98
768.87	1257.45
769.04	1259.50
769.22	1296.36
769.40	1308.65
769.58	1257.45
769.75	1284.08
769.93	1257.45
770.11	1245.16
770.28	1208.30
770.46	1284.08
770.64	1247.21
770.82	1210.35
770.99	1255.40
771.17	1212.40
771.35	1312.75
771.53	1333.23
771.70	1282.03
771.88	1343.47
772.06	1261.55
772.23	1257.45
772.41	1337.32
772.59	1210.35
772.77	1245.16
772.94	1249.26
773.12	1310.70
773.30	1279.98
773.47	1282.03
773.65	1257.45
773.83	1282.03
774.01	1251.31
774.18	1241.07
774.36	1261.55
774.54	1331.18
774.71	1275.88
774.89	1204.21
775.07	1275.88
775.24	1296.36
775.42	1265.64
775.60	1228.78
775.78	1333.23
775.95	1267.69
776.13	1265.64
776.31	1288.17
776.48	1265.64
776.66	1224.69
776.84	1218.54
777.01	1232.88
777.19	1257.45
777.37	1261.55
777.54	1212.40
777.72	1298.41
777.90	1337.32
778.07	1267.69
778.25	1288.17
778.43	1296.36
778.60	1286.12
778.78	1329.13
778.96	1337.32
779.13	1275.88
779.31	1212.40
779.49	1241.07
779.66	1261.55
779.84	1206.25
780.01	1292.27
780.19	1253.36
780.37	1226.73
780.54	1275.88
780.72	1191.92
780.90	1222.64
781.07	1212.40
781.25	1226.73
781.43	1286.12
781.60	1232.88
781.78	1255.40
781.95	1327.08
782.13	1265.64
782.31	1253.36
782.48	1288.17
782.66	1241.07
782.83	1286.12
783.01	1296.36
783.19	1286.12
783.36	1269.74
783.54	1224.69
783.72	1269.74
783.89	1304.56
784.07	1275.88
784.24	1220.59
784.42	1345.52
784.60	1296.36
784.77	1271.79
784.95	1271.79
785.12	1349.61
785.30	1302.51
785.47	1345.52
785.65	1255.40
785.83	1263.60
786.00	1228.78
786.18	1265.64
786.35	1304.56
786.53	1361.90
786.71	1261.55
786.88	1216.49
787.06	1247.21
787.23	1265.64
787.41	1200.11
787.58	1234.93
787.76	1189.87
787.94	1337.32
788.11	1263.60
788.29	1177.58
788.46	1189.87
788.64	1267.69
788.81	1257.45
788.99	1320.94
789.16	1277.93
789.34	1253.36
789.52	1267.69
789.69	1296.36
789.87	1263.60
790.04	1273.84
790.22	1275.88
790.39	1312.75
790.57	1249.26
790.74	1224.69
790.92	1296.36
791.09	1263.60
791.27	1279.98
791.44	1269.74
791.62	1304.56
791.79	1210.35
791.97	1247.21
792.15	1310.70
792.32	1279.98
792.50	1296.36
792.67	1282.03
792.85	1318.89
793.02	1183.73
793.20	1316.84
793.37	1226.73
793.55	1257.45
793.72	1286.12
793.90	1322.99
794.07	1210.35
794.25	1198.06
794.42	1239.02
794.60	1327.08
794.77	1310.70
794.95	1286.12
795.12	1284.08
795.30	1222.64
795.47	1277.93
795.65	1320.94
795.82	1255.40
796.00	1273.84
796.17	1245.16
796.34	1241.07
796.52	1253.36
796.69	1329.13
796.87	1208.30
797.04	1261.55
797.22	1249.26
797.39	1196.01
797.57	1236.97
797.74	1327.08
797.92	1234.93
798.09	1314.80
798.27	1259.50
798.44	1230.83
798.62	1206.25
798.79	1273.84
798.96	1247.21
799.14	1230.83
799.31	1253.36
799.49	1200.11
799.66	1263.60
799.84	1232.88
800.01	1257.45
800.19	1327.08
800.36	1290.22
800.53	1314.80
800.71	1257.45
800.88	1255.40
801.06	1259.50
801.23	1220.59
801.41	1241.07
801.58	1310.70
801.75	1251.31
801.93	1279.98
802.10	1257.45
802.28	1271.79
802.45	1232.88
802.63	1282.03
802.80	1245.16
802.97	1261.55
803.15	1269.74
803.32	1241.07
803.50	1175.53
803.67	1228.78
803.84	1212.40
804.02	1322.99
804.19	1193.97
804.37	1241.07
804.54	1206.25
804.71	1247.21
804.89	1259.50
805.06	1210.35
805.24	1327.08
805.41	1290.22
805.58	1273.84
805.76	1386.47
805.93	1247.21
806.10	1286.12
806.28	1189.87
806.45	1249.26
806.63	1267.69
806.80	1243.12
806.97	1230.83
807.15	1284.08
807.32	1249.26
807.49	1271.79
807.67	1331.18
807.84	1288.17
808.01	1331.18
808.19	1372.14
808.36	1294.32
808.54	1298.41
808.71	1267.69
808.88	1255.40
809.06	1232.88
809.23	1277.93
809.40	1288.17
809.58	1218.54
809.75	1273.84
809.92	1247.21
810.10	1243.12
810.27	1249.26
810.44	1288.17
810.62	1257.45
810.79	1253.36
810.96	1335.28
811.14	1220.59
811.31	1265.64
811.48	1265.64
811.66	1286.12
811.83	1312.75
812.00	1294.32
812.18	1247.21
812.35	1265.64
812.52	1257.45
812.69	1296.36
812.87	1255.40
813.04	1337.32
813.21	1339.37
813.39	1265.64
813.56	1290.22
813.73	1292.27
813.91	1220.59
814.08	1310.70
814.25	1177.58
814.42	1382.38
814.60	1284.08
814.77	1239.02
814.94	1357.80
815.12	1292.27
815.29	1267.69
815.46	1200.11
815.63	1284.08
815.81	1234.93
815.98	1206.25
816.15	1263.60
816.33	1265.64
816.50	1314.80
816.67	1273.84
816.84	1273.84
817.02	1257.45
817.19	1265.64
817.36	1269.74
817.53	1230.83
817.71	1306.60
817.88	1298.41
818.05	1296.36
818.22	1277.93
818.40	1257.45
818.57	1253.36
818.74	1222.64
818.91	1261.55
819.09	1290.22
819.26	1263.60
819.43	1286.12
819.60	1249.26
819.78	1310.70
819.95	1318.89
820.12	1275.88
820.29	1284.08
820.47	1185.77
820.64	1282.03
820.81	1302.51
820.98	1224.69
821.15	1284.08
821.33	1302.51
821.50	1251.31
821.67	1265.64
821.84	1288.17
822.02	1294.32
822.19	1282.03
822.36	1273.84
822.53	1257.45
822.70	1318.89
822.88	1247.21
823.05	1325.04
823.22	1251.31
823.39	1292.27
823.56	1279.98
823.74	1290.22
823.91	1292.27
824.08	1189.87
824.25	1255.40
824.42	1269.74
824.60	1222.64
824.77	1259.50
824.94	1282.03
825.11	1269.74
825.28	1267.69
825.45	1327.08
825.63	1267.69
825.80	1239.02
825.97	1230.83
826.14	1284.08
826.31	1300.46
826.48	1247.21
826.66	1259.50
826.83	1300.46
827.00	1273.84
827.17	1255.40
827.34	1193.97
827.51	1302.51
827.69	1298.41
827.86	1282.03
828.03	1257.45
828.20	1265.64
828.37	1275.88
828.54	1290.22
828.71	1222.64
828.89	1282.03
829.06	1312.75
829.23	1253.36
829.40	1288.17
829.57	1243.12
829.74	1271.79
829.91	1259.50
830.09	1261.55
830.26	1304.56
830.43	1232.88
830.60	1245.16
830.77	1247.21
830.94	1224.69
831.11	1224.69
831.28	1269.74
831.46	1314.80
831.63	1349.61
831.80	1224.69
831.97	1292.27
832.14	1312.75
832.31	1273.84
832.48	1294.32
832.65	1239.02
832.82	1196.01
832.99	1241.07
833.17	1224.69
833.34	1198.06
833.51	1232.88
833.68	1249.26
833.85	1329.13
834.02	1251.31
834.19	1212.40
834.36	1288.17
834.53	1288.17
834.70	1273.84
834.87	1224.69
835.04	1286.12
835.22	1327.08
835.39	1300.46
835.56	1196.01
835.73	1296.36
835.90	1189.87
836.07	1286.12
836.24	1316.84
836.41	1290.22
836.58	1249.26
836.75	1253.36
836.92	1226.73
837.09	1222.64
837.26	1284.08
837.43	1245.16
837.60	1320.94
837.77	1210.35
837.94	1243.12
838.12	1282.03
838.29	1359.85
838.46	1249.26
838.63	1224.69
838.80	1298.41
838.97	1312.75
839.14	1255.40
839.31	1265.64
839.48	1228.78
839.65	1249.26
839.82	1255.40
839.99	1210.35
840.16	1236.97
840.33	1282.03
840.50	1261.55
840.67	1310.70
840.84	1306.60
841.01	1322.99
841.18	1230.83
841.35	1234.93
841.52	1265.64
841.69	1273.84
841.86	1304.56
842.03	1294.32
842.20	1208.30
842.37	1273.84
842.54	1261.55
842.71	1222.64
842.88	1273.84
843.05	1304.56
843.22	1265.64
843.39	1308.65
843.56	1241.07
843.73	1290.22
843.90	1239.02
844.07	1232.88
844.24	1263.60
844.41	1230.83
844.58	1232.88
844.75	1167.34
844.92	1210.35
845.09	1251.31
845.26	1306.60
845.43	1265.64
845.60	1247.21
845.77	1245.16
845.94	1257.45
846.10	1249.26
846.27	1230.83
846.44	1290.22
846.61	1267.69
846.78	1267.69
846.95	1265.64
847.12	1263.60
847.29	1259.50
847.46	1253.36
847.63	1277.93
847.80	1273.84
847.97	1314.80
848.14	1241.07
848.31	1286.12
848.48	1337.32
848.65	1277.93
848.82	1241.07
848.98	1228.78
849.15	1226.73
849.32	1251.31
849.49	1265.64
849.66	1249.26
849.83	1202.16
850.00	1255.40
850.17	1275.88
850.34	1290.22
850.51	1220.59
850.68	1312.75
850.85	1251.31
851.01	1374.19
851.18	1236.97
851.35	1187.82
851.52	1230.83
851.69	1282.03
851.86	1247.21
852.03	1292.27
852.20	1263.60
852.37	1239.02
852.53	1294.32
852.70	1288.17
852.87	1247.21
853.04	1327.08
853.21	1251.31
853.38	1312.75
853.55	1290.22
853.72	1228.78
853.89	1265.64
854.05	1189.87
854.22	1230.83
854.39	1251.31
854.56	1243.12
854.73	1331.18
854.90	1257.45
855.07	1259.50
855.23	1198.06
855.40	1224.69
855.57	1261.55
855.74	1292.27
855.91	1243.12
856.08	1228.78
856.25	1224.69
856.41	1277.93
856.58	1249.26
856.75	1294.32
856.92	1275.88
857.09	1241.07
857.26	1234.93
857.42	1304.56
857.59	1232.88
857.76	1251.31
857.93	1296.36
858.10	1312.75
858.27	1265.64
858.43	1310.70
858.60	1232.88
858.77	1282.03
858.94	1202.16
859.11	1282.03
859.27	1257.45
859.44	1290.22
859.61	1327.08
859.78	1322.99
859.95	1355.76
860.12	1327.08
860.28	1267.69
860.45	1320.94
860.62	1249.26
860.79	1267.69
860.95	1214.45
861.12	1247.21
861.29	1234.93
861.46	1189.87
861.63	1198.06
861.79	1212.40
861.96	1247.21
862.13	1366.00
862.30	1236.97
862.47	1255.40
862.63	1286.12
862.80	1239.02
862.97	1333.23
863.14	1261.55
863.30	1288.17
863.47	1247.21
863.64	1236.97
863.81	1320.94
863.97	1216.49
864.14	1236.97
864.31	1329.13
864.48	1251.31
864.65	1343.47
864.81	1349.61
864.98	1320.94
865.15	1243.12
865.32	1269.74
865.48	1239.02
865.65	1249.26
865.82	1271.79
865.98	1273.84
866.15	1292.27
866.32	1232.88
866.49	1296.36
866.65	1279.98
866.82	1277.93
866.99	1210.35
867.16	1275.88
867.32	1320.94
867.49	1171.44
867.66	1224.69
867.83	1218.54
867.99	1249.26
868.16	1171.44
868.33	1265.64
868.49	1273.84
868.66	1335.28
868.83	1220.59
868.99	1232.88
869.16	1230.83
869.33	1202.16
869.50	1286.12
869.66	1275.88
869.83	1302.51
870.00	1253.36
870.16	1222.64
870.33	1288.17
870.50	1271.79
870.66	1331.18
870.83	1316.84
871.00	1230.83
871.17	1208.30
871.33	1273.84
871.50	1267.69
871.67	1251.31
871.83	1314.80
872.00	1273.84
872.17	1275.88
872.33	1226.73
872.50	1251.31
872.67	1290.22
872.83	1263.60
873.00	1222.64
873.17	1357.80
873.33	1251.31
873.50	1247.21
873.67	1298.41
873.83	1259.50
874.00	1320.94
874.16	1236.97
874.33	1284.08
874.50	1239.02
874.66	1206.25
874.83	1316.84
875.00	1312.75
875.16	1230.83
875.33	1251.31
875.50	1214.45
875.66	1275.88
875.83	1314.80
875.99	1189.87
876.16	1269.74
876.33	1249.26
876.49	1312.75
876.66	1290.22
876.83	1294.32
876.99	1251.31
877.16	1255.40
877.32	1320.94
877.49	1273.84
877.66	1241.07
877.82	1282.03
877.99	1302.51
878.15	1226.73
878.32	1249.26
878.49	1298.41
878.65	1198.06
878.82	1310.70
878.98	1257.45
879.15	1271.79
879.32	1255.40
879.48	1288.17
879.65	1267.69
879.81	1261.55
879.98	1249.26
880.15	1200.11
880.31	1345.52
880.48	1308.65
880.64	1191.92
880.81	1251.31
880.97	1294.32
881.14	1282.03
881.31	1269.74
881.47	1290.22
881.64	1236.97
881.80	1259.50
881.97	1263.60
882.13	1210.35
882.30	1236.97
882.47	1294.32
882.63	1253.36
882.80	1200.11
882.96	1251.31
883.13	1271.79
883.29	1253.36
883.46	1312.75
883.62	1292.27
883.79	1284.08
883.95	1234.93
884.12	1263.60
884.29	1306.60
884.45	1236.97
884.62	1200.11
884.78	1257.45
884.95	1234.93
885.11	1208.30
885.28	1212.40
885.44	1306.60
885.61	1361.90
885.77	1222.64
885.94	1304.56
886.10	1304.56
886.27	1265.64
886.43	1206.25
886.60	1322.99
886.76	1265.64
886.93	1216.49
887.09	1269.74
887.26	1269.74
887.42	1243.12
887.59	1243.12
887.75	1290.22
887.92	1243.12
888.08	1286.12
888.25	1259.50
888.41	1239.02
888.58	1220.59
888.74	1228.78
888.91	1228.78
>>>>>End Processed Spectral Data<<<<<
