SpectraSuite Data File
++++++++++++++++++++++++++++++++++++
Date: Sun Apr 03 19:55:45 CEST 2016
User: root
Dark Spectrum Present: No
Reference Spectrum Present: No
Number of Sampled Component Spectra: 1
Spectrometers: USB4C02835
Integration Time (usec): 10000 (USB4C02835)
Spectra Averaged: 1 (USB4C02835)
Boxcar Smoothing: 0 (USB4C02835)
Correct for Electrical Dark: No (USB4C02835)
Strobe/Lamp Enabled: No (USB4C02835)
Correct for Detector Non-linearity: No (USB4C02835)
Correct for Stray Light: No (USB4C02835)
Number of Pixels in Processed Spectrum: 3648
>>>>>Begin Processed Spectral Data<<<<<
177.47	1267.69
177.69	1267.69
177.91	1267.69
178.13	1230.83
178.36	1351.66
178.58	1263.60
178.80	1259.50
179.02	1255.40
179.24	1282.03
179.46	1220.59
179.68	1359.85
179.90	1372.14
180.13	1273.84
180.35	1320.94
180.57	1265.64
180.79	1277.93
181.01	1234.93
181.23	1243.12
181.45	1249.26
181.67	1320.94
181.90	1306.60
182.12	1243.12
182.34	1273.84
182.56	1302.51
182.78	1267.69
183.00	1261.55
183.22	1241.07
183.44	1261.55
183.66	1290.22
183.89	1290.22
184.11	1288.17
184.33	1187.82
184.55	1314.80
184.77	1247.21
184.99	1263.60
185.21	1269.74
185.43	1249.26
185.65	1196.01
185.87	1290.22
186.10	1302.51
186.32	1269.74
186.54	1255.40
186.76	1286.12
186.98	1261.55
187.20	1234.93
187.42	1273.84
187.64	1267.69
187.86	1263.60
188.08	1257.45
188.30	1202.16
188.52	1257.45
188.75	1181.68
188.97	1298.41
189.19	1245.16
189.41	1257.45
189.63	1196.01
189.85	1265.64
190.07	1284.08
190.29	1271.79
190.51	1234.93
190.73	1228.78
190.95	1331.18
191.17	1282.03
191.39	1296.36
191.61	1222.64
191.84	1253.36
192.06	1259.50
192.28	1249.26
192.50	1316.84
192.72	1273.84
192.94	1302.51
193.16	1212.40
193.38	1284.08
193.60	1241.07
193.82	1302.51
194.04	1249.26
194.26	1288.17
194.48	1251.31
194.70	1234.93
194.92	1294.32
195.14	1224.69
195.36	1279.98
195.58	1261.55
195.80	1241.07
196.02	1222.64
196.24	1271.79
196.46	1296.36
196.69	1259.50
196.91	1331.18
197.13	1261.55
197.35	1228.78
197.57	1345.52
197.79	1208.30
198.01	1290.22
198.23	1189.87
198.45	1214.45
198.67	1173.49
198.89	1271.79
199.11	1275.88
199.33	1193.97
199.55	1279.98
199.77	1216.49
199.99	1261.55
200.21	1234.93
200.43	1343.47
200.65	1335.28
200.87	1236.97
201.09	1239.02
201.31	1273.84
201.53	1282.03
201.75	1224.69
201.97	1329.13
202.19	1290.22
202.41	1290.22
202.63	1337.32
202.85	1263.60
203.07	1279.98
203.29	1245.16
203.51	1267.69
203.73	1189.87
203.95	1206.25
204.17	1304.56
204.39	1259.50
204.61	1265.64
204.83	1261.55
205.05	1265.64
205.27	1243.12
205.49	1290.22
205.71	1249.26
205.93	1292.27
206.15	1269.74
206.37	1263.60
206.59	1263.60
206.81	1216.49
207.03	1263.60
207.25	1247.21
207.47	1226.73
207.69	1325.04
207.91	1349.61
208.13	1339.37
208.34	1279.98
208.56	1290.22
208.78	1251.31
209.00	1310.70
209.22	1282.03
209.44	1318.89
209.66	1265.64
209.88	1249.26
210.10	1339.37
210.32	1320.94
210.54	1200.11
210.76	1253.36
210.98	1218.54
211.20	1226.73
211.42	1239.02
211.64	1273.84
211.86	1206.25
212.08	1255.40
212.30	1218.54
212.52	1298.41
212.74	1273.84
212.96	1314.80
213.17	1320.94
213.39	1241.07
213.61	1232.88
213.83	1241.07
214.05	1243.12
214.27	1296.36
214.49	1206.25
214.71	1198.06
214.93	1304.56
215.15	1263.60
215.37	1263.60
215.59	1249.26
215.81	1263.60
216.03	1200.11
216.24	1312.75
216.46	1265.64
216.68	1261.55
216.90	1269.74
217.12	1247.21
217.34	1290.22
217.56	1298.41
217.78	1277.93
218.00	1349.61
218.22	1261.55
218.44	1210.35
218.66	1277.93
218.87	1320.94
219.09	1296.36
219.31	1273.84
219.53	1185.77
219.75	1279.98
219.97	1275.88
220.19	1234.93
220.41	1273.84
220.63	1230.83
220.85	1286.12
221.06	1261.55
221.28	1298.41
221.50	1249.26
221.72	1284.08
221.94	1257.45
222.16	1296.36
222.38	1290.22
222.60	1312.75
222.82	1314.80
223.03	1224.69
223.25	1294.32
223.47	1290.22
223.69	1243.12
223.91	1267.69
224.13	1255.40
224.35	1241.07
224.57	1259.50
224.78	1222.64
225.00	1279.98
225.22	1202.16
225.44	1271.79
225.66	1282.03
225.88	1218.54
226.10	1351.66
226.32	1306.60
226.53	1290.22
226.75	1222.64
226.97	1282.03
227.19	1298.41
227.41	1210.35
227.63	1228.78
227.85	1271.79
228.06	1243.12
228.28	1294.32
228.50	1372.14
228.72	1257.45
228.94	1279.98
229.16	1243.12
229.37	1255.40
229.59	1333.23
229.81	1265.64
230.03	1230.83
230.25	1265.64
230.47	1177.58
230.69	1263.60
230.90	1279.98
231.12	1222.64
231.34	1189.87
231.56	1343.47
231.78	1185.77
232.00	1253.36
232.21	1302.51
232.43	1249.26
232.65	1253.36
232.87	1294.32
233.09	1177.58
233.30	1282.03
233.52	1251.31
233.74	1343.47
233.96	1259.50
234.18	1308.65
234.40	1269.74
234.61	1288.17
234.83	1234.93
235.05	1284.08
235.27	1193.97
235.49	1298.41
235.70	1294.32
235.92	1322.99
236.14	1212.40
236.36	1271.79
236.58	1232.88
236.79	1265.64
237.01	1294.32
237.23	1337.32
237.45	1261.55
237.67	1202.16
237.88	1331.18
238.10	1292.27
238.32	1318.89
238.54	1251.31
238.76	1310.70
238.97	1249.26
239.19	1249.26
239.41	1277.93
239.63	1320.94
239.85	1282.03
240.06	1277.93
240.28	1302.51
240.50	1296.36
240.72	1259.50
240.93	1255.40
241.15	1306.60
241.37	1282.03
241.59	1269.74
241.81	1208.30
242.02	1296.36
242.24	1236.97
242.46	1275.88
242.68	1249.26
242.89	1208.30
243.11	1269.74
243.33	1218.54
243.55	1255.40
243.76	1306.60
243.98	1224.69
244.20	1255.40
244.42	1261.55
244.64	1288.17
244.85	1234.93
245.07	1269.74
245.29	1294.32
245.51	1290.22
245.72	1247.21
245.94	1255.40
246.16	1263.60
246.38	1269.74
246.59	1236.97
246.81	1302.51
247.03	1236.97
247.24	1282.03
247.46	1304.56
247.68	1249.26
247.90	1279.98
248.11	1279.98
248.33	1253.36
248.55	1239.02
248.77	1284.08
248.98	1290.22
249.20	1216.49
249.42	1286.12
249.64	1259.50
249.85	1216.49
250.07	1269.74
250.29	1310.70
250.50	1239.02
250.72	1222.64
250.94	1282.03
251.16	1363.95
251.37	1337.32
251.59	1304.56
251.81	1232.88
252.02	1271.79
252.24	1241.07
252.46	1322.99
252.68	1294.32
252.89	1306.60
253.11	1255.40
253.33	1232.88
253.54	1345.52
253.76	1175.53
253.98	1263.60
254.20	1331.18
254.41	1257.45
254.63	1277.93
254.85	1251.31
255.06	1236.97
255.28	1202.16
255.50	1253.36
255.71	1265.64
255.93	1312.75
256.15	1253.36
256.36	1331.18
256.58	1288.17
256.80	1288.17
257.02	1277.93
257.23	1239.02
257.45	1224.69
257.67	1282.03
257.88	1220.59
258.10	1239.02
258.32	1234.93
258.53	1290.22
258.75	1245.16
258.97	1263.60
259.18	1288.17
259.40	1220.59
259.62	1245.16
259.83	1368.04
260.05	1257.45
260.27	1322.99
260.48	1327.08
260.70	1284.08
260.92	1257.45
261.13	1316.84
261.35	1275.88
261.57	1247.21
261.78	1187.82
262.00	1243.12
262.22	1302.51
262.43	1290.22
262.65	1284.08
262.86	1288.17
263.08	1265.64
263.30	1230.83
263.51	1245.16
263.73	1204.21
263.95	1267.69
264.16	1282.03
264.38	1269.74
264.60	1282.03
264.81	1241.07
265.03	1232.88
265.25	1212.40
265.46	1282.03
265.68	1226.73
265.89	1314.80
266.11	1220.59
266.33	1310.70
266.54	1271.79
266.76	1259.50
266.98	1333.23
267.19	1294.32
267.41	1253.36
267.62	1230.83
267.84	1249.26
268.06	1275.88
268.27	1249.26
268.49	1261.55
268.70	1265.64
268.92	1269.74
269.14	1247.21
269.35	1245.16
269.57	1277.93
269.79	1282.03
270.00	1204.21
270.22	1284.08
270.43	1204.21
270.65	1290.22
270.87	1294.32
271.08	1257.45
271.30	1282.03
271.51	1282.03
271.73	1282.03
271.95	1292.27
272.16	1284.08
272.38	1320.94
272.59	1253.36
272.81	1265.64
273.02	1314.80
273.24	1191.92
273.46	1302.51
273.67	1269.74
273.89	1284.08
274.10	1353.71
274.32	1331.18
274.54	1306.60
274.75	1255.40
274.97	1224.69
275.18	1288.17
275.40	1255.40
275.61	1226.73
275.83	1239.02
276.05	1206.25
276.26	1308.65
276.48	1247.21
276.69	1292.27
276.91	1236.97
277.12	1357.80
277.34	1320.94
277.55	1296.36
277.77	1263.60
277.99	1241.07
278.20	1191.92
278.42	1230.83
278.63	1249.26
278.85	1339.37
279.06	1269.74
279.28	1224.69
279.49	1335.28
279.71	1175.53
279.93	1296.36
280.14	1245.16
280.36	1249.26
280.57	1290.22
280.79	1214.45
281.00	1210.35
281.22	1228.78
281.43	1277.93
281.65	1230.83
281.86	1216.49
282.08	1220.59
282.29	1302.51
282.51	1265.64
282.73	1249.26
282.94	1284.08
283.16	1249.26
283.37	1300.46
283.59	1210.35
283.80	1282.03
284.02	1249.26
284.23	1255.40
284.45	1284.08
284.66	1265.64
284.88	1191.92
285.09	1257.45
285.31	1331.18
285.52	1206.25
285.74	1279.98
285.95	1333.23
286.17	1261.55
286.38	1239.02
286.60	1230.83
286.81	1224.69
287.03	1275.88
287.24	1257.45
287.46	1265.64
287.67	1310.70
287.89	1239.02
288.10	1310.70
288.32	1200.11
288.53	1208.30
288.75	1327.08
288.96	1257.45
289.18	1341.42
289.39	1249.26
289.61	1265.64
289.82	1316.84
290.04	1329.13
290.25	1310.70
290.47	1288.17
290.68	1284.08
290.90	1261.55
291.11	1271.79
291.33	1257.45
291.54	1251.31
291.76	1245.16
291.97	1210.35
292.18	1304.56
292.40	1306.60
292.61	1271.79
292.83	1296.36
293.04	1234.93
293.26	1150.96
293.47	1296.36
293.69	1275.88
293.90	1259.50
294.12	1284.08
294.33	1267.69
294.55	1222.64
294.76	1259.50
294.97	1294.32
295.19	1282.03
295.40	1259.50
295.62	1310.70
295.83	1265.64
296.05	1239.02
296.26	1224.69
296.48	1290.22
296.69	1253.36
296.90	1232.88
297.12	1275.88
297.33	1284.08
297.55	1253.36
297.76	1286.12
297.98	1339.37
298.19	1292.27
298.41	1277.93
298.62	1282.03
298.83	1271.79
299.05	1308.65
299.26	1245.16
299.48	1255.40
299.69	1261.55
299.90	1382.38
300.12	1224.69
300.33	1271.79
300.55	1300.46
300.76	1216.49
300.98	1312.75
301.19	1265.64
301.40	1226.73
301.62	1232.88
301.83	1296.36
302.05	1320.94
302.26	1259.50
302.47	1290.22
302.69	1275.88
302.90	1214.45
303.12	1284.08
303.33	1310.70
303.54	1269.74
303.76	1279.98
303.97	1228.78
304.19	1259.50
304.40	1245.16
304.61	1286.12
304.83	1286.12
305.04	1343.47
305.26	1314.80
305.47	1243.12
305.68	1247.21
305.90	1216.49
306.11	1247.21
306.33	1275.88
306.54	1310.70
306.75	1204.21
306.97	1314.80
307.18	1183.73
307.39	1269.74
307.61	1265.64
307.82	1253.36
308.04	1290.22
308.25	1279.98
308.46	1282.03
308.68	1306.60
308.89	1241.07
309.10	1318.89
309.32	1232.88
309.53	1312.75
309.74	1363.95
309.96	1208.30
310.17	1282.03
310.39	1236.97
310.60	1247.21
310.81	1255.40
311.03	1216.49
311.24	1312.75
311.45	1331.18
311.67	1286.12
311.88	1263.60
312.09	1292.27
312.31	1300.46
312.52	1230.83
312.73	1267.69
312.95	1241.07
313.16	1282.03
313.37	1261.55
313.59	1247.21
313.80	1269.74
314.01	1241.07
314.23	1218.54
314.44	1325.04
314.65	1288.17
314.87	1228.78
315.08	1253.36
315.29	1284.08
315.51	1220.59
315.72	1314.80
315.93	1228.78
316.15	1298.41
316.36	1286.12
316.57	1290.22
316.79	1269.74
317.00	1222.64
317.21	1214.45
317.43	1257.45
317.64	1245.16
317.85	1247.21
318.07	1255.40
318.28	1325.04
318.49	1263.60
318.70	1263.60
318.92	1267.69
319.13	1269.74
319.34	1300.46
319.56	1286.12
319.77	1247.21
319.98	1230.83
320.20	1243.12
320.41	1249.26
320.62	1282.03
320.83	1245.16
321.05	1322.99
321.26	1335.28
321.47	1343.47
321.69	1255.40
321.90	1288.17
322.11	1216.49
322.32	1249.26
322.54	1200.11
322.75	1400.81
322.96	1191.92
323.18	1269.74
323.39	1284.08
323.60	1249.26
323.81	1210.35
324.03	1306.60
324.24	1269.74
324.45	1220.59
324.66	1253.36
324.88	1241.07
325.09	1269.74
325.30	1253.36
325.52	1292.27
325.73	1294.32
325.94	1239.02
326.15	1288.17
326.37	1341.42
326.58	1218.54
326.79	1214.45
327.00	1294.32
327.22	1290.22
327.43	1239.02
327.64	1232.88
327.85	1230.83
328.07	1284.08
328.28	1249.26
328.49	1294.32
328.70	1298.41
328.92	1236.97
329.13	1322.99
329.34	1257.45
329.55	1292.27
329.76	1310.70
329.98	1286.12
330.19	1308.65
330.40	1325.04
330.61	1290.22
330.83	1210.35
331.04	1218.54
331.25	1216.49
331.46	1286.12
331.68	1314.80
331.89	1284.08
332.10	1271.79
332.31	1236.97
332.52	1257.45
332.74	1241.07
332.95	1257.45
333.16	1249.26
333.37	1239.02
333.58	1230.83
333.80	1318.89
334.01	1292.27
334.22	1327.08
334.43	1265.64
334.64	1263.60
334.86	1150.96
335.07	1269.74
335.28	1314.80
335.49	1230.83
335.70	1243.12
335.92	1286.12
336.13	1226.73
336.34	1265.64
336.55	1327.08
336.76	1292.27
336.98	1329.13
337.19	1204.21
337.40	1337.32
337.61	1200.11
337.82	1320.94
338.04	1284.08
338.25	1273.84
338.46	1269.74
338.67	1269.74
338.88	1296.36
339.09	1253.36
339.31	1255.40
339.52	1282.03
339.73	1275.88
339.94	1282.03
340.15	1222.64
340.36	1345.52
340.58	1279.98
340.79	1241.07
341.00	1212.40
341.21	1282.03
341.42	1302.51
341.63	1257.45
341.85	1230.83
342.06	1241.07
342.27	1265.64
342.48	1273.84
342.69	1232.88
342.90	1345.52
343.12	1298.41
343.33	1228.78
343.54	1249.26
343.75	1253.36
343.96	1277.93
344.17	1265.64
344.38	1359.85
344.60	1284.08
344.81	1273.84
345.02	1279.98
345.23	1212.40
345.44	1267.69
345.65	1318.89
345.86	1220.59
346.07	1306.60
346.29	1302.51
346.50	1271.79
346.71	1236.97
346.92	1187.82
347.13	1316.84
347.34	1251.31
347.55	1288.17
347.76	1253.36
347.98	1232.88
348.19	1279.98
348.40	1257.45
348.61	1314.80
348.82	1277.93
349.03	1312.75
349.24	1224.69
349.45	1255.40
349.66	1196.01
349.88	1286.12
350.09	1232.88
350.30	1210.35
350.51	1302.51
350.72	1296.36
350.93	1255.40
351.14	1298.41
351.35	1255.40
351.56	1253.36
351.77	1228.78
351.99	1236.97
352.20	1239.02
352.41	1298.41
352.62	1259.50
352.83	1245.16
353.04	1282.03
353.25	1300.46
353.46	1267.69
353.67	1351.66
353.88	1269.74
354.09	1251.31
354.30	1282.03
354.52	1314.80
354.73	1306.60
354.94	1216.49
355.15	1390.57
355.36	1247.21
355.57	1232.88
355.78	1339.37
355.99	1337.32
356.20	1255.40
356.41	1245.16
356.62	1210.35
356.83	1286.12
357.04	1255.40
357.25	1251.31
357.46	1304.56
357.68	1308.65
357.89	1259.50
358.10	1298.41
358.31	1222.64
358.52	1290.22
358.73	1214.45
358.94	1292.27
359.15	1298.41
359.36	1314.80
359.57	1265.64
359.78	1314.80
359.99	1239.02
360.20	1300.46
360.41	1179.63
360.62	1259.50
360.83	1269.74
361.04	1296.36
361.25	1218.54
361.46	1214.45
361.67	1241.07
361.88	1251.31
362.09	1243.12
362.30	1230.83
362.51	1282.03
362.72	1263.60
362.93	1228.78
363.14	1298.41
363.35	1218.54
363.56	1294.32
363.78	1202.16
363.99	1259.50
364.20	1310.70
364.41	1232.88
364.62	1239.02
364.83	1325.04
365.04	1275.88
365.25	1216.49
365.46	1314.80
365.67	1222.64
365.88	1241.07
366.09	1316.84
366.30	1239.02
366.51	1271.79
366.72	1271.79
366.93	1261.55
367.14	1282.03
367.35	1347.56
367.56	1259.50
367.77	1275.88
367.98	1273.84
368.18	1265.64
368.39	1284.08
368.60	1193.97
368.81	1259.50
369.02	1290.22
369.23	1273.84
369.44	1220.59
369.65	1335.28
369.86	1312.75
370.07	1267.69
370.28	1247.21
370.49	1312.75
370.70	1251.31
370.91	1261.55
371.12	1267.69
371.33	1306.60
371.54	1261.55
371.75	1316.84
371.96	1271.79
372.17	1337.32
372.38	1271.79
372.59	1267.69
372.80	1271.79
373.01	1241.07
373.22	1214.45
373.43	1308.65
373.64	1298.41
373.85	1173.49
374.06	1335.28
374.26	1339.37
374.47	1327.08
374.68	1241.07
374.89	1292.27
375.10	1241.07
375.31	1304.56
375.52	1251.31
375.73	1312.75
375.94	1259.50
376.15	1298.41
376.36	1353.71
376.57	1273.84
376.78	1312.75
376.99	1269.74
377.20	1296.36
377.40	1312.75
377.61	1226.73
377.82	1322.99
378.03	1216.49
378.24	1300.46
378.45	1220.59
378.66	1236.97
378.87	1220.59
379.08	1322.99
379.29	1257.45
379.50	1257.45
379.71	1386.47
379.91	1320.94
380.12	1259.50
380.33	1294.32
380.54	1241.07
380.75	1271.79
380.96	1253.36
381.17	1271.79
381.38	1259.50
381.59	1302.51
381.80	1322.99
382.00	1226.73
382.21	1267.69
382.42	1236.97
382.63	1265.64
382.84	1308.65
383.05	1255.40
383.26	1212.40
383.47	1214.45
383.68	1273.84
383.88	1257.45
384.09	1273.84
384.30	1304.56
384.51	1269.74
384.72	1261.55
384.93	1198.06
385.14	1296.36
385.35	1241.07
385.55	1288.17
385.76	1290.22
385.97	1245.16
386.18	1265.64
386.39	1214.45
386.60	1294.32
386.81	1253.36
387.02	1234.93
387.22	1312.75
387.43	1218.54
387.64	1308.65
387.85	1298.41
388.06	1308.65
388.27	1314.80
388.48	1294.32
388.68	1257.45
388.89	1265.64
389.10	1363.95
389.31	1335.28
389.52	1329.13
389.73	1249.26
389.93	1222.64
390.14	1296.36
390.35	1226.73
390.56	1298.41
390.77	1275.88
390.98	1249.26
391.18	1290.22
391.39	1318.89
391.60	1228.78
391.81	1300.46
392.02	1288.17
392.23	1302.51
392.43	1249.26
392.64	1228.78
392.85	1296.36
393.06	1296.36
393.27	1253.36
393.47	1210.35
393.68	1300.46
393.89	1189.87
394.10	1239.02
394.31	1222.64
394.52	1247.21
394.72	1271.79
394.93	1234.93
395.14	1300.46
395.35	1247.21
395.56	1353.71
395.76	1292.27
395.97	1220.59
396.18	1257.45
396.39	1204.21
396.60	1279.98
396.80	1220.59
397.01	1337.32
397.22	1210.35
397.43	1241.07
397.64	1286.12
397.84	1251.31
398.05	1269.74
398.26	1290.22
398.47	1200.11
398.67	1294.32
398.88	1232.88
399.09	1269.74
399.30	1286.12
399.51	1255.40
399.71	1310.70
399.92	1275.88
400.13	1251.31
400.34	1282.03
400.54	1308.65
400.75	1302.51
400.96	1249.26
401.17	1312.75
401.37	1314.80
401.58	1306.60
401.79	1224.69
402.00	1294.32
402.21	1249.26
402.41	1218.54
402.62	1249.26
402.83	1320.94
403.04	1296.36
403.24	1224.69
403.45	1228.78
403.66	1257.45
403.87	1284.08
404.07	1263.60
404.28	1273.84
404.49	1224.69
404.70	1265.64
404.90	1273.84
405.11	1228.78
405.32	1226.73
405.52	1232.88
405.73	1298.41
405.94	1286.12
406.15	1318.89
406.35	1212.40
406.56	1232.88
406.77	1374.19
406.98	1224.69
407.18	1251.31
407.39	1304.56
407.60	1265.64
407.80	1304.56
408.01	1288.17
408.22	1187.82
408.43	1292.27
408.63	1243.12
408.84	1267.69
409.05	1275.88
409.25	1370.09
409.46	1292.27
409.67	1265.64
409.88	1255.40
410.08	1279.98
410.29	1245.16
410.50	1304.56
410.70	1286.12
410.91	1296.36
411.12	1255.40
411.32	1245.16
411.53	1275.88
411.74	1290.22
411.95	1222.64
412.15	1269.74
412.36	1236.97
412.57	1269.74
412.77	1314.80
412.98	1220.59
413.19	1251.31
413.39	1239.02
413.60	1224.69
413.81	1247.21
414.01	1257.45
414.22	1138.67
414.43	1282.03
414.63	1249.26
414.84	1294.32
415.05	1245.16
415.25	1265.64
415.46	1247.21
415.67	1286.12
415.87	1239.02
416.08	1277.93
416.29	1218.54
416.49	1261.55
416.70	1273.84
416.91	1273.84
417.11	1255.40
417.32	1265.64
417.53	1249.26
417.73	1271.79
417.94	1284.08
418.15	1253.36
418.35	1349.61
418.56	1290.22
418.77	1202.16
418.97	1222.64
419.18	1263.60
419.38	1290.22
419.59	1279.98
419.80	1316.84
420.00	1298.41
420.21	1257.45
420.42	1279.98
420.62	1267.69
420.83	1251.31
421.04	1232.88
421.24	1239.02
421.45	1263.60
421.65	1208.30
421.86	1273.84
422.07	1226.73
422.27	1265.64
422.48	1259.50
422.69	1257.45
422.89	1187.82
423.10	1271.79
423.30	1247.21
423.51	1263.60
423.72	1226.73
423.92	1284.08
424.13	1241.07
424.33	1259.50
424.54	1228.78
424.75	1236.97
424.95	1320.94
425.16	1259.50
425.36	1218.54
425.57	1249.26
425.78	1234.93
425.98	1271.79
426.19	1298.41
426.39	1296.36
426.60	1232.88
426.81	1294.32
427.01	1210.35
427.22	1282.03
427.42	1239.02
427.63	1255.40
427.83	1269.74
428.04	1275.88
428.25	1271.79
428.45	1345.52
428.66	1286.12
428.86	1320.94
429.07	1290.22
429.28	1284.08
429.48	1212.40
429.69	1255.40
429.89	1261.55
430.10	1277.93
430.30	1220.59
430.51	1292.27
430.71	1273.84
430.92	1265.64
431.13	1267.69
431.33	1339.37
431.54	1279.98
431.74	1353.71
431.95	1267.69
432.15	1228.78
432.36	1273.84
432.56	1230.83
432.77	1269.74
432.98	1239.02
433.18	1212.40
433.39	1290.22
433.59	1275.88
433.80	1314.80
434.00	1222.64
434.21	1232.88
434.41	1298.41
434.62	1306.60
434.82	1341.42
435.03	1316.84
435.23	1239.02
435.44	1187.82
435.64	1341.42
435.85	1241.07
436.06	1228.78
436.26	1247.21
436.47	1302.51
436.67	1245.16
436.88	1298.41
437.08	1241.07
437.29	1316.84
437.49	1284.08
437.70	1257.45
437.90	1210.35
438.11	1314.80
438.31	1277.93
438.52	1298.41
438.72	1249.26
438.93	1302.51
439.13	1259.50
439.34	1333.23
439.54	1228.78
439.75	1245.16
439.95	1337.32
440.16	1300.46
440.36	1265.64
440.57	1282.03
440.77	1253.36
440.98	1245.16
441.18	1302.51
441.39	1296.36
441.59	1290.22
441.80	1282.03
442.00	1288.17
442.21	1304.56
442.41	1322.99
442.62	1302.51
442.82	1259.50
443.02	1286.12
443.23	1306.60
443.43	1261.55
443.64	1279.98
443.84	1277.93
444.05	1318.89
444.25	1232.88
444.46	1353.71
444.66	1255.40
444.87	1310.70
445.07	1204.21
445.28	1259.50
445.48	1236.97
445.69	1267.69
445.89	1339.37
446.09	1282.03
446.30	1292.27
446.50	1308.65
446.71	1228.78
446.91	1275.88
447.12	1327.08
447.32	1306.60
447.53	1331.18
447.73	1282.03
447.93	1243.12
448.14	1282.03
448.34	1261.55
448.55	1271.79
448.75	1320.94
448.96	1290.22
449.16	1279.98
449.36	1249.26
449.57	1275.88
449.77	1294.32
449.98	1204.21
450.18	1284.08
450.39	1316.84
450.59	1302.51
450.79	1263.60
451.00	1284.08
451.20	1257.45
451.41	1267.69
451.61	1302.51
451.81	1286.12
452.02	1247.21
452.22	1329.13
452.43	1279.98
452.63	1302.51
452.84	1275.88
453.04	1259.50
453.24	1269.74
453.45	1306.60
453.65	1224.69
453.86	1290.22
454.06	1327.08
454.26	1257.45
454.47	1294.32
454.67	1302.51
454.87	1333.23
455.08	1300.46
455.28	1232.88
455.49	1345.52
455.69	1234.93
455.89	1298.41
456.10	1298.41
456.30	1292.27
456.51	1337.32
456.71	1214.45
456.91	1318.89
457.12	1300.46
457.32	1355.76
457.52	1271.79
457.73	1312.75
457.93	1275.88
458.14	1284.08
458.34	1290.22
458.54	1261.55
458.75	1265.64
458.95	1243.12
459.15	1331.18
459.36	1198.06
459.56	1234.93
459.76	1300.46
459.97	1220.59
460.17	1286.12
460.37	1224.69
460.58	1230.83
460.78	1298.41
460.99	1288.17
461.19	1249.26
461.39	1212.40
461.60	1331.18
461.80	1310.70
462.00	1236.97
462.21	1243.12
462.41	1310.70
462.61	1251.31
462.82	1263.60
463.02	1214.45
463.22	1308.65
463.43	1282.03
463.63	1302.51
463.83	1224.69
464.04	1224.69
464.24	1282.03
464.44	1306.60
464.64	1279.98
464.85	1247.21
465.05	1294.32
465.25	1298.41
465.46	1234.93
465.66	1310.70
465.86	1275.88
466.07	1372.14
466.27	1255.40
466.47	1288.17
466.68	1337.32
466.88	1286.12
467.08	1296.36
467.29	1282.03
467.49	1304.56
467.69	1259.50
467.89	1310.70
468.10	1181.68
468.30	1331.18
468.50	1294.32
468.71	1208.30
468.91	1279.98
469.11	1277.93
469.31	1314.80
469.52	1232.88
469.72	1257.45
469.92	1247.21
470.13	1273.84
470.33	1257.45
470.53	1298.41
470.73	1267.69
470.94	1269.74
471.14	1226.73
471.34	1316.84
471.54	1275.88
471.75	1241.07
471.95	1222.64
472.15	1292.27
472.36	1251.31
472.56	1325.04
472.76	1312.75
472.96	1288.17
473.17	1275.88
473.37	1253.36
473.57	1236.97
473.77	1304.56
473.98	1304.56
474.18	1265.64
474.38	1191.92
474.58	1302.51
474.79	1269.74
474.99	1236.97
475.19	1243.12
475.39	1296.36
475.60	1300.46
475.80	1273.84
476.00	1286.12
476.20	1189.87
476.41	1261.55
476.61	1343.47
476.81	1265.64
477.01	1224.69
477.21	1236.97
477.42	1206.25
477.62	1269.74
477.82	1261.55
478.02	1232.88
478.23	1247.21
478.43	1220.59
478.63	1220.59
478.83	1253.36
479.03	1275.88
479.24	1249.26
479.44	1224.69
479.64	1277.93
479.84	1288.17
480.04	1245.16
480.25	1265.64
480.45	1193.97
480.65	1210.35
480.85	1261.55
481.06	1267.69
481.26	1236.97
481.46	1269.74
481.66	1239.02
481.86	1265.64
482.06	1302.51
482.27	1294.32
482.47	1245.16
482.67	1292.27
482.87	1259.50
483.07	1288.17
483.28	1257.45
483.48	1290.22
483.68	1294.32
483.88	1318.89
484.08	1185.77
484.29	1294.32
484.49	1333.23
484.69	1298.41
484.89	1267.69
485.09	1236.97
485.29	1296.36
485.50	1249.26
485.70	1269.74
485.90	1294.32
486.10	1243.12
486.30	1347.56
486.50	1224.69
486.71	1308.65
486.91	1257.45
487.11	1306.60
487.31	1243.12
487.51	1245.16
487.71	1282.03
487.91	1273.84
488.12	1241.07
488.32	1253.36
488.52	1306.60
488.72	1249.26
488.92	1259.50
489.12	1339.37
489.32	1245.16
489.53	1345.52
489.73	1304.56
489.93	1329.13
490.13	1296.36
490.33	1253.36
490.53	1333.23
490.73	1269.74
490.94	1314.80
491.14	1261.55
491.34	1214.45
491.54	1300.46
491.74	1245.16
491.94	1316.84
492.14	1208.30
492.34	1228.78
492.54	1308.65
492.75	1247.21
492.95	1286.12
493.15	1275.88
493.35	1284.08
493.55	1314.80
493.75	1351.66
493.95	1298.41
494.15	1284.08
494.35	1282.03
494.56	1296.36
494.76	1288.17
494.96	1273.84
495.16	1288.17
495.36	1245.16
495.56	1249.26
495.76	1296.36
495.96	1239.02
496.16	1312.75
496.36	1214.45
496.56	1222.64
496.77	1316.84
496.97	1212.40
497.17	1241.07
497.37	1275.88
497.57	1284.08
497.77	1329.13
497.97	1286.12
498.17	1271.79
498.37	1279.98
498.57	1198.06
498.77	1269.74
498.97	1255.40
499.17	1249.26
499.38	1163.25
499.58	1226.73
499.78	1222.64
499.98	1296.36
500.18	1279.98
500.38	1275.88
500.58	1236.97
500.78	1282.03
500.98	1296.36
501.18	1310.70
501.38	1298.41
501.58	1288.17
501.78	1288.17
501.98	1230.83
502.18	1245.16
502.38	1275.88
502.58	1314.80
502.78	1314.80
502.98	1271.79
503.18	1282.03
503.38	1204.21
503.59	1257.45
503.79	1216.49
503.99	1286.12
504.19	1304.56
504.39	1249.26
504.59	1312.75
504.79	1310.70
504.99	1306.60
505.19	1292.27
505.39	1310.70
505.59	1327.08
505.79	1269.74
505.99	1286.12
506.19	1294.32
506.39	1263.60
506.59	1271.79
506.79	1304.56
506.99	1316.84
507.19	1306.60
507.39	1284.08
507.59	1304.56
507.79	1214.45
507.99	1265.64
508.19	1241.07
508.39	1292.27
508.59	1302.51
508.79	1267.69
508.99	1232.88
509.19	1247.21
509.39	1267.69
509.59	1220.59
509.79	1282.03
509.99	1335.28
510.19	1267.69
510.39	1359.85
510.59	1226.73
510.79	1308.65
510.99	1259.50
511.19	1216.49
511.39	1277.93
511.59	1320.94
511.79	1275.88
511.99	1275.88
512.19	1339.37
512.38	1282.03
512.58	1325.04
512.78	1271.79
512.98	1257.45
513.18	1318.89
513.38	1271.79
513.58	1298.41
513.78	1245.16
513.98	1298.41
514.18	1300.46
514.38	1269.74
514.58	1257.45
514.78	1277.93
514.98	1275.88
515.18	1406.95
515.38	1363.95
515.58	1259.50
515.78	1265.64
515.98	1263.60
516.18	1275.88
516.38	1273.84
516.57	1224.69
516.77	1239.02
516.97	1337.32
517.17	1296.36
517.37	1253.36
517.57	1228.78
517.77	1265.64
517.97	1282.03
518.17	1208.30
518.37	1261.55
518.57	1269.74
518.77	1263.60
518.97	1308.65
519.16	1286.12
519.36	1277.93
519.56	1302.51
519.76	1316.84
519.96	1249.26
520.16	1300.46
520.36	1327.08
520.56	1286.12
520.76	1351.66
520.96	1298.41
521.16	1345.52
521.35	1263.60
521.55	1312.75
521.75	1341.42
521.95	1259.50
522.15	1306.60
522.35	1286.12
522.55	1376.24
522.75	1290.22
522.95	1343.47
523.14	1232.88
523.34	1253.36
523.54	1329.13
523.74	1220.59
523.94	1243.12
524.14	1224.69
524.34	1269.74
524.54	1263.60
524.73	1316.84
524.93	1288.17
525.13	1255.40
525.33	1290.22
525.53	1296.36
525.73	1251.31
525.93	1265.64
526.13	1277.93
526.32	1269.74
526.52	1267.69
526.72	1220.59
526.92	1294.32
527.12	1296.36
527.32	1206.25
527.52	1265.64
527.71	1247.21
527.91	1263.60
528.11	1243.12
528.31	1296.36
528.51	1331.18
528.71	1277.93
528.90	1282.03
529.10	1282.03
529.30	1249.26
529.50	1292.27
529.70	1298.41
529.90	1290.22
530.09	1277.93
530.29	1322.99
530.49	1318.89
530.69	1302.51
530.89	1271.79
531.09	1306.60
531.28	1304.56
531.48	1337.32
531.68	1271.79
531.88	1279.98
532.08	1300.46
532.28	1298.41
532.47	1265.64
532.67	1331.18
532.87	1320.94
533.07	1282.03
533.27	1286.12
533.46	1353.71
533.66	1263.60
533.86	1271.79
534.06	1339.37
534.26	1273.84
534.45	1290.22
534.65	1337.32
534.85	1273.84
535.05	1247.21
535.25	1347.56
535.44	1271.79
535.64	1308.65
535.84	1300.46
536.04	1273.84
536.24	1320.94
536.43	1265.64
536.63	1200.11
536.83	1273.84
537.03	1290.22
537.22	1202.16
537.42	1345.52
537.62	1314.80
537.82	1320.94
538.02	1251.31
538.21	1292.27
538.41	1312.75
538.61	1292.27
538.81	1263.60
539.00	1212.40
539.20	1220.59
539.40	1232.88
539.60	1249.26
539.79	1249.26
539.99	1245.16
540.19	1224.69
540.39	1277.93
540.58	1314.80
540.78	1263.60
540.98	1261.55
541.18	1302.51
541.37	1290.22
541.57	1243.12
541.77	1304.56
541.97	1253.36
542.16	1284.08
542.36	1284.08
542.56	1253.36
542.76	1247.21
542.95	1286.12
543.15	1339.37
543.35	1306.60
543.54	1300.46
543.74	1273.84
543.94	1294.32
544.14	1241.07
544.33	1304.56
544.53	1322.99
544.73	1290.22
544.93	1259.50
545.12	1320.94
545.32	1265.64
545.52	1329.13
545.71	1185.77
545.91	1318.89
546.11	1200.11
546.30	1259.50
546.50	1296.36
546.70	1191.92
546.90	1290.22
547.09	1351.66
547.29	1269.74
547.49	1265.64
547.68	1300.46
547.88	1306.60
548.08	1286.12
548.27	1392.62
548.47	1273.84
548.67	1304.56
548.87	1265.64
549.06	1308.65
549.26	1298.41
549.46	1265.64
549.65	1325.04
549.85	1292.27
550.05	1337.32
550.24	1239.02
550.44	1267.69
550.64	1259.50
550.83	1271.79
551.03	1282.03
551.23	1282.03
551.42	1355.76
551.62	1314.80
551.82	1220.59
552.01	1341.42
552.21	1267.69
552.41	1279.98
552.60	1288.17
552.80	1267.69
553.00	1300.46
553.19	1298.41
553.39	1275.88
553.59	1275.88
553.78	1290.22
553.98	1267.69
554.17	1241.07
554.37	1331.18
554.57	1286.12
554.76	1300.46
554.96	1236.97
555.16	1298.41
555.35	1263.60
555.55	1288.17
555.75	1314.80
555.94	1224.69
556.14	1300.46
556.33	1249.26
556.53	1320.94
556.73	1308.65
556.92	1261.55
557.12	1267.69
557.32	1296.36
557.51	1259.50
557.71	1290.22
557.90	1312.75
558.10	1286.12
558.30	1249.26
558.49	1312.75
558.69	1337.32
558.88	1294.32
559.08	1259.50
559.28	1228.78
559.47	1138.67
559.67	1236.97
559.86	1263.60
560.06	1288.17
560.26	1218.54
560.45	1331.18
560.65	1241.07
560.84	1183.73
561.04	1300.46
561.24	1335.28
561.43	1306.60
561.63	1337.32
561.82	1288.17
562.02	1284.08
562.22	1265.64
562.41	1224.69
562.61	1216.49
562.80	1263.60
563.00	1247.21
563.19	1288.17
563.39	1224.69
563.59	1259.50
563.78	1290.22
563.98	1198.06
564.17	1320.94
564.37	1247.21
564.56	1271.79
564.76	1232.88
564.96	1273.84
565.15	1265.64
565.35	1249.26
565.54	1220.59
565.74	1322.99
565.93	1198.06
566.13	1265.64
566.32	1269.74
566.52	1230.83
566.71	1261.55
566.91	1351.66
567.11	1243.12
567.30	1216.49
567.50	1298.41
567.69	1316.84
567.89	1341.42
568.08	1159.15
568.28	1345.52
568.47	1288.17
568.67	1318.89
568.86	1267.69
569.06	1267.69
569.25	1275.88
569.45	1275.88
569.64	1314.80
569.84	1239.02
570.04	1335.28
570.23	1243.12
570.43	1230.83
570.62	1222.64
570.82	1255.40
571.01	1294.32
571.21	1269.74
571.40	1288.17
571.60	1204.21
571.79	1267.69
571.99	1277.93
572.18	1279.98
572.38	1378.28
572.57	1230.83
572.77	1269.74
572.96	1314.80
573.16	1277.93
573.35	1386.47
573.55	1271.79
573.74	1337.32
573.94	1337.32
574.13	1265.64
574.33	1232.88
574.52	1263.60
574.71	1282.03
574.91	1290.22
575.10	1286.12
575.30	1216.49
575.49	1239.02
575.69	1230.83
575.88	1331.18
576.08	1292.27
576.27	1320.94
576.47	1302.51
576.66	1312.75
576.86	1318.89
577.05	1327.08
577.25	1314.80
577.44	1284.08
577.64	1363.95
577.83	1277.93
578.02	1263.60
578.22	1355.76
578.41	1298.41
578.61	1267.69
578.80	1255.40
579.00	1333.23
579.19	1243.12
579.39	1208.30
579.58	1245.16
579.77	1306.60
579.97	1308.65
580.16	1261.55
580.36	1261.55
580.55	1249.26
580.75	1306.60
580.94	1241.07
581.13	1247.21
581.33	1236.97
581.52	1257.45
581.72	1302.51
581.91	1267.69
582.11	1275.88
582.30	1284.08
582.49	1341.42
582.69	1298.41
582.88	1335.28
583.08	1290.22
583.27	1378.28
583.47	1239.02
583.66	1286.12
583.85	1322.99
584.05	1279.98
584.24	1351.66
584.44	1224.69
584.63	1253.36
584.82	1318.89
585.02	1318.89
585.21	1279.98
585.41	1292.27
585.60	1279.98
585.79	1241.07
585.99	1320.94
586.18	1236.97
586.37	1312.75
586.57	1314.80
586.76	1269.74
586.96	1234.93
587.15	1286.12
587.34	1370.09
587.54	1265.64
587.73	1241.07
587.93	1277.93
588.12	1284.08
588.31	1312.75
588.51	1218.54
588.70	1257.45
588.89	1271.79
589.09	1263.60
589.28	1257.45
589.47	1275.88
589.67	1265.64
589.86	1277.93
590.06	1284.08
590.25	1279.98
590.44	1314.80
590.64	1241.07
590.83	1255.40
591.02	1286.12
591.22	1257.45
591.41	1337.32
591.60	1288.17
591.80	1298.41
591.99	1284.08
592.18	1236.97
592.38	1275.88
592.57	1310.70
592.76	1247.21
592.96	1331.18
593.15	1206.25
593.34	1267.69
593.54	1298.41
593.73	1232.88
593.92	1347.56
594.12	1282.03
594.31	1333.23
594.50	1329.13
594.70	1232.88
594.89	1308.65
595.08	1294.32
595.28	1271.79
595.47	1339.37
595.66	1196.01
595.86	1312.75
596.05	1247.21
596.24	1298.41
596.43	1241.07
596.63	1310.70
596.82	1265.64
597.01	1255.40
597.21	1310.70
597.40	1247.21
597.59	1271.79
597.79	1304.56
597.98	1216.49
598.17	1304.56
598.36	1247.21
598.56	1277.93
598.75	1234.93
598.94	1277.93
599.14	1279.98
599.33	1232.88
599.52	1230.83
599.71	1279.98
599.91	1310.70
600.10	1329.13
600.29	1234.93
600.48	1368.04
600.68	1376.24
600.87	1312.75
601.06	1298.41
601.26	1251.31
601.45	1224.69
601.64	1279.98
601.83	1253.36
602.03	1265.64
602.22	1269.74
602.41	1282.03
602.60	1273.84
602.80	1282.03
602.99	1333.23
603.18	1288.17
603.37	1327.08
603.57	1337.32
603.76	1232.88
603.95	1263.60
604.14	1288.17
604.34	1290.22
604.53	1282.03
604.72	1308.65
604.91	1298.41
605.10	1318.89
605.30	1310.70
605.49	1263.60
605.68	1355.76
605.87	1249.26
606.07	1290.22
606.26	1273.84
606.45	1308.65
606.64	1296.36
606.84	1279.98
607.03	1271.79
607.22	1259.50
607.41	1282.03
607.60	1241.07
607.80	1271.79
607.99	1304.56
608.18	1224.69
608.37	1347.56
608.56	1253.36
608.76	1286.12
608.95	1322.99
609.14	1320.94
609.33	1236.97
609.52	1239.02
609.72	1224.69
609.91	1357.80
610.10	1279.98
610.29	1284.08
610.48	1292.27
610.68	1284.08
610.87	1220.59
611.06	1279.98
611.25	1241.07
611.44	1294.32
611.63	1312.75
611.83	1320.94
612.02	1290.22
612.21	1366.00
612.40	1275.88
612.59	1279.98
612.79	1337.32
612.98	1370.09
613.17	1320.94
613.36	1239.02
613.55	1261.55
613.74	1290.22
613.93	1302.51
614.13	1279.98
614.32	1279.98
614.51	1282.03
614.70	1255.40
614.89	1337.32
615.08	1234.93
615.28	1290.22
615.47	1255.40
615.66	1265.64
615.85	1282.03
616.04	1294.32
616.23	1308.65
616.42	1296.36
616.62	1255.40
616.81	1312.75
617.00	1300.46
617.19	1257.45
617.38	1187.82
617.57	1255.40
617.76	1267.69
617.95	1247.21
618.15	1261.55
618.34	1310.70
618.53	1263.60
618.72	1322.99
618.91	1177.58
619.10	1335.28
619.29	1294.32
619.48	1310.70
619.68	1245.16
619.87	1308.65
620.06	1284.08
620.25	1302.51
620.44	1249.26
620.63	1214.45
620.82	1282.03
621.01	1320.94
621.20	1239.02
621.39	1298.41
621.59	1308.65
621.78	1298.41
621.97	1214.45
622.16	1306.60
622.35	1296.36
622.54	1261.55
622.73	1259.50
622.92	1298.41
623.11	1310.70
623.30	1232.88
623.49	1269.74
623.68	1279.98
623.88	1368.04
624.07	1271.79
624.26	1329.13
624.45	1290.22
624.64	1271.79
624.83	1310.70
625.02	1243.12
625.21	1267.69
625.40	1255.40
625.59	1329.13
625.78	1304.56
625.97	1296.36
626.16	1359.85
626.35	1310.70
626.54	1392.62
626.74	1325.04
626.93	1222.64
627.12	1310.70
627.31	1343.47
627.50	1331.18
627.69	1226.73
627.88	1245.16
628.07	1282.03
628.26	1353.71
628.45	1265.64
628.64	1265.64
628.83	1320.94
629.02	1320.94
629.21	1318.89
629.40	1273.84
629.59	1310.70
629.78	1218.54
629.97	1308.65
630.16	1284.08
630.35	1279.98
630.54	1325.04
630.73	1355.76
630.92	1310.70
631.11	1271.79
631.30	1306.60
631.49	1312.75
631.68	1347.56
631.87	1484.78
632.06	1490.92
632.25	1505.26
632.44	1443.82
632.63	1437.67
632.82	1673.19
633.01	2011.11
633.20	1746.92
633.39	1837.03
633.58	1892.32
633.77	1791.97
633.96	1720.29
634.15	1781.73
634.34	1851.36
634.53	1794.02
634.72	1685.48
634.91	1597.42
635.10	1503.21
635.29	1476.59
635.48	1435.63
635.67	1564.65
635.86	1544.17
636.05	1421.29
636.24	1343.47
636.43	1361.90
636.62	1347.56
636.81	1368.04
637.00	1357.80
637.19	1347.56
637.38	1286.12
637.57	1357.80
637.76	1337.32
637.95	1282.03
638.14	1404.91
638.33	1355.76
638.52	1284.08
638.71	1302.51
638.89	1314.80
639.08	1304.56
639.27	1251.31
639.46	1271.79
639.65	1290.22
639.84	1232.88
640.03	1294.32
640.22	1288.17
640.41	1224.69
640.60	1220.59
640.79	1292.27
640.98	1247.21
641.17	1308.65
641.36	1239.02
641.55	1239.02
641.74	1208.30
641.92	1279.98
642.11	1261.55
642.30	1255.40
642.49	1263.60
642.68	1267.69
642.87	1257.45
643.06	1245.16
643.25	1327.08
643.44	1275.88
643.63	1304.56
643.82	1273.84
644.00	1298.41
644.19	1239.02
644.38	1130.48
644.57	1269.74
644.76	1300.46
644.95	1298.41
645.14	1273.84
645.33	1269.74
645.52	1230.83
645.71	1325.04
645.89	1249.26
646.08	1257.45
646.27	1277.93
646.46	1273.84
646.65	1271.79
646.84	1284.08
647.03	1325.04
647.22	1325.04
647.40	1234.93
647.59	1257.45
647.78	1232.88
647.97	1251.31
648.16	1284.08
648.35	1253.36
648.54	1337.32
648.73	1228.78
648.91	1261.55
649.10	1294.32
649.29	1191.92
649.48	1320.94
649.67	1243.12
649.86	1243.12
650.05	1183.73
650.23	1339.37
650.42	1290.22
650.61	1322.99
650.80	1277.93
650.99	1253.36
651.18	1286.12
651.36	1247.21
651.55	1267.69
651.74	1263.60
651.93	1267.69
652.12	1269.74
652.31	1269.74
652.49	1343.47
652.68	1214.45
652.87	1341.42
653.06	1327.08
653.25	1271.79
653.44	1341.42
653.62	1232.88
653.81	1277.93
654.00	1241.07
654.19	1236.97
654.38	1236.97
654.56	1296.36
654.75	1265.64
654.94	1302.51
655.13	1288.17
655.32	1269.74
655.51	1198.06
655.69	1275.88
655.88	1216.49
656.07	1322.99
656.26	1263.60
656.45	1239.02
656.63	1234.93
656.82	1259.50
657.01	1335.28
657.20	1300.46
657.38	1288.17
657.57	1327.08
657.76	1224.69
657.95	1251.31
658.14	1296.36
658.32	1316.84
658.51	1282.03
658.70	1290.22
658.89	1249.26
659.08	1316.84
659.26	1304.56
659.45	1322.99
659.64	1298.41
659.83	1273.84
660.01	1273.84
660.20	1296.36
660.39	1236.97
660.58	1243.12
660.76	1247.21
660.95	1290.22
661.14	1312.75
661.33	1302.51
661.51	1318.89
661.70	1314.80
661.89	1284.08
662.08	1232.88
662.26	1263.60
662.45	1255.40
662.64	1271.79
662.83	1210.35
663.01	1259.50
663.20	1337.32
663.39	1320.94
663.58	1193.97
663.76	1200.11
663.95	1228.78
664.14	1282.03
664.32	1232.88
664.51	1290.22
664.70	1275.88
664.89	1347.56
665.07	1312.75
665.26	1277.93
665.45	1318.89
665.64	1261.55
665.82	1267.69
666.01	1286.12
666.20	1210.35
666.38	1335.28
666.57	1259.50
666.76	1320.94
666.95	1275.88
667.13	1267.69
667.32	1230.83
667.51	1277.93
667.69	1249.26
667.88	1275.88
668.07	1296.36
668.25	1337.32
668.44	1275.88
668.63	1234.93
668.81	1333.23
669.00	1298.41
669.19	1271.79
669.38	1322.99
669.56	1286.12
669.75	1296.36
669.94	1257.45
670.12	1273.84
670.31	1255.40
670.50	1294.32
670.68	1304.56
670.87	1284.08
671.06	1318.89
671.24	1290.22
671.43	1245.16
671.62	1210.35
671.80	1282.03
671.99	1255.40
672.18	1349.61
672.36	1320.94
672.55	1267.69
672.74	1282.03
672.92	1234.93
673.11	1230.83
673.29	1218.54
673.48	1308.65
673.67	1316.84
673.85	1243.12
674.04	1269.74
674.23	1214.45
674.41	1232.88
674.60	1220.59
674.79	1261.55
674.97	1288.17
675.16	1325.04
675.34	1279.98
675.53	1249.26
675.72	1310.70
675.90	1341.42
676.09	1191.92
676.28	1363.95
676.46	1306.60
676.65	1228.78
676.83	1263.60
677.02	1234.93
677.21	1269.74
677.39	1257.45
677.58	1183.73
677.77	1224.69
677.95	1314.80
678.14	1222.64
678.32	1277.93
678.51	1269.74
678.70	1296.36
678.88	1220.59
679.07	1271.79
679.25	1204.21
679.44	1302.51
679.63	1236.97
679.81	1286.12
680.00	1259.50
680.18	1247.21
680.37	1308.65
680.55	1239.02
680.74	1288.17
680.93	1267.69
681.11	1228.78
681.30	1327.08
681.48	1241.07
681.67	1249.26
681.85	1261.55
682.04	1253.36
682.23	1302.51
682.41	1290.22
682.60	1259.50
682.78	1273.84
682.97	1220.59
683.15	1226.73
683.34	1296.36
683.53	1316.84
683.71	1273.84
683.90	1359.85
684.08	1277.93
684.27	1275.88
684.45	1265.64
684.64	1314.80
684.82	1243.12
685.01	1245.16
685.19	1259.50
685.38	1363.95
685.57	1241.07
685.75	1241.07
685.94	1263.60
686.12	1331.18
686.31	1353.71
686.49	1271.79
686.68	1316.84
686.86	1320.94
687.05	1325.04
687.23	1228.78
687.42	1282.03
687.60	1329.13
687.79	1304.56
687.97	1296.36
688.16	1234.93
688.34	1261.55
688.53	1245.16
688.71	1273.84
688.90	1263.60
689.08	1333.23
689.27	1265.64
689.45	1292.27
689.64	1243.12
689.82	1345.52
690.01	1222.64
690.19	1251.31
690.38	1269.74
690.56	1220.59
690.75	1329.13
690.93	1218.54
691.12	1198.06
691.30	1222.64
691.49	1218.54
691.67	1288.17
691.86	1286.12
692.04	1320.94
692.23	1335.28
692.41	1308.65
692.60	1320.94
692.78	1318.89
692.97	1241.07
693.15	1331.18
693.34	1261.55
693.52	1279.98
693.71	1257.45
693.89	1232.88
694.08	1234.93
694.26	1275.88
694.44	1302.51
694.63	1198.06
694.81	1286.12
695.00	1331.18
695.18	1247.21
695.37	1308.65
695.55	1312.75
695.74	1302.51
695.92	1224.69
696.10	1255.40
696.29	1351.66
696.47	1314.80
696.66	1245.16
696.84	1306.60
697.03	1239.02
697.21	1232.88
697.40	1335.28
697.58	1273.84
697.76	1310.70
697.95	1282.03
698.13	1259.50
698.32	1247.21
698.50	1239.02
698.68	1294.32
698.87	1226.73
699.05	1265.64
699.24	1181.68
699.42	1263.60
699.61	1243.12
699.79	1282.03
699.97	1302.51
700.16	1288.17
700.34	1298.41
700.53	1185.77
700.71	1257.45
700.89	1247.21
701.08	1304.56
701.26	1234.93
701.45	1226.73
701.63	1320.94
701.81	1245.16
702.00	1241.07
702.18	1331.18
702.37	1308.65
702.55	1220.59
702.73	1345.52
702.92	1253.36
703.10	1224.69
703.28	1247.21
703.47	1255.40
703.65	1261.55
703.84	1292.27
704.02	1251.31
704.20	1368.04
704.39	1267.69
704.57	1257.45
704.75	1251.31
704.94	1275.88
705.12	1247.21
705.30	1290.22
705.49	1310.70
705.67	1292.27
705.86	1253.36
706.04	1304.56
706.22	1279.98
706.41	1239.02
706.59	1257.45
706.77	1290.22
706.96	1241.07
707.14	1329.13
707.32	1337.32
707.51	1277.93
707.69	1241.07
707.87	1312.75
708.06	1181.68
708.24	1249.26
708.42	1249.26
708.61	1288.17
708.79	1329.13
708.97	1253.36
709.16	1271.79
709.34	1304.56
709.52	1292.27
709.71	1257.45
709.89	1249.26
710.07	1255.40
710.26	1312.75
710.44	1267.69
710.62	1284.08
710.80	1279.98
710.99	1267.69
711.17	1234.93
711.35	1273.84
711.54	1198.06
711.72	1343.47
711.90	1275.88
712.09	1261.55
712.27	1288.17
712.45	1320.94
712.63	1202.16
712.82	1228.78
713.00	1222.64
713.18	1292.27
713.37	1339.37
713.55	1249.26
713.73	1234.93
713.91	1300.46
714.10	1310.70
714.28	1273.84
714.46	1349.61
714.65	1300.46
714.83	1335.28
715.01	1345.52
715.19	1202.16
715.38	1234.93
715.56	1316.84
715.74	1239.02
715.92	1175.53
716.11	1298.41
716.29	1218.54
716.47	1255.40
716.65	1277.93
716.84	1282.03
717.02	1222.64
717.20	1302.51
717.38	1230.83
717.57	1279.98
717.75	1257.45
717.93	1234.93
718.11	1277.93
718.30	1239.02
718.48	1329.13
718.66	1269.74
718.84	1269.74
719.03	1191.92
719.21	1218.54
719.39	1239.02
719.57	1341.42
719.75	1298.41
719.94	1222.64
720.12	1277.93
720.30	1212.40
720.48	1290.22
720.67	1304.56
720.85	1294.32
721.03	1290.22
721.21	1286.12
721.39	1292.27
721.58	1282.03
721.76	1320.94
721.94	1232.88
722.12	1284.08
722.30	1243.12
722.49	1230.83
722.67	1273.84
722.85	1161.20
723.03	1316.84
723.21	1298.41
723.40	1267.69
723.58	1304.56
723.76	1298.41
723.94	1222.64
724.12	1216.49
724.30	1292.27
724.49	1245.16
724.67	1269.74
724.85	1263.60
725.03	1359.85
725.21	1363.95
725.40	1271.79
725.58	1318.89
725.76	1353.71
725.94	1214.45
726.12	1181.68
726.30	1290.22
726.49	1191.92
726.67	1263.60
726.85	1245.16
727.03	1218.54
727.21	1292.27
727.39	1331.18
727.57	1310.70
727.76	1193.97
727.94	1279.98
728.12	1230.83
728.30	1214.45
728.48	1247.21
728.66	1273.84
728.84	1302.51
729.03	1322.99
729.21	1204.21
729.39	1253.36
729.57	1200.11
729.75	1212.40
729.93	1193.97
730.11	1279.98
730.30	1316.84
730.48	1251.31
730.66	1220.59
730.84	1277.93
731.02	1249.26
731.20	1226.73
731.38	1290.22
731.56	1196.01
731.74	1294.32
731.93	1224.69
732.11	1247.21
732.29	1302.51
732.47	1265.64
732.65	1230.83
732.83	1300.46
733.01	1292.27
733.19	1275.88
733.37	1251.31
733.56	1259.50
733.74	1363.95
733.92	1239.02
734.10	1306.60
734.28	1282.03
734.46	1288.17
734.64	1294.32
734.82	1269.74
735.00	1245.16
735.18	1173.49
735.36	1212.40
735.54	1204.21
735.73	1288.17
735.91	1232.88
736.09	1220.59
736.27	1308.65
736.45	1294.32
736.63	1269.74
736.81	1239.02
736.99	1232.88
737.17	1216.49
737.35	1316.84
737.53	1226.73
737.71	1277.93
737.89	1259.50
738.07	1257.45
738.25	1286.12
738.43	1161.20
738.61	1255.40
738.80	1290.22
738.98	1239.02
739.16	1282.03
739.34	1251.31
739.52	1277.93
739.70	1284.08
739.88	1249.26
740.06	1275.88
740.24	1259.50
740.42	1234.93
740.60	1257.45
740.78	1265.64
740.96	1251.31
741.14	1284.08
741.32	1214.45
741.50	1257.45
741.68	1204.21
741.86	1265.64
742.04	1288.17
742.22	1243.12
742.40	1200.11
742.58	1257.45
742.76	1218.54
742.94	1300.46
743.12	1253.36
743.30	1259.50
743.48	1216.49
743.66	1298.41
743.84	1275.88
744.02	1263.60
744.20	1312.75
744.38	1273.84
744.56	1284.08
744.74	1288.17
744.92	1257.45
745.10	1259.50
745.28	1275.88
745.46	1304.56
745.64	1210.35
745.82	1198.06
746.00	1298.41
746.18	1290.22
746.36	1322.99
746.54	1257.45
746.72	1247.21
746.90	1243.12
747.08	1286.12
747.26	1261.55
747.44	1306.60
747.62	1214.45
747.80	1273.84
747.98	1294.32
748.15	1251.31
748.33	1284.08
748.51	1282.03
748.69	1236.97
748.87	1277.93
749.05	1277.93
749.23	1253.36
749.41	1218.54
749.59	1230.83
749.77	1282.03
749.95	1198.06
750.13	1263.60
750.31	1167.34
750.49	1263.60
750.67	1228.78
750.85	1236.97
751.03	1261.55
751.20	1300.46
751.38	1232.88
751.56	1318.89
751.74	1277.93
751.92	1304.56
752.10	1236.97
752.28	1288.17
752.46	1296.36
752.64	1331.18
752.82	1210.35
753.00	1208.30
753.18	1292.27
753.35	1327.08
753.53	1341.42
753.71	1255.40
753.89	1331.18
754.07	1263.60
754.25	1382.38
754.43	1247.21
754.61	1239.02
754.79	1349.61
754.97	1222.64
755.14	1216.49
755.32	1257.45
755.50	1294.32
755.68	1261.55
755.86	1271.79
756.04	1314.80
756.22	1226.73
756.40	1341.42
756.57	1273.84
756.75	1314.80
756.93	1253.36
757.11	1247.21
757.29	1296.36
757.47	1224.69
757.65	1279.98
757.82	1284.08
758.00	1265.64
758.18	1263.60
758.36	1304.56
758.54	1331.18
758.72	1212.40
758.90	1245.16
759.07	1239.02
759.25	1279.98
759.43	1220.59
759.61	1216.49
759.79	1210.35
759.97	1273.84
760.15	1230.83
760.32	1243.12
760.50	1288.17
760.68	1267.69
760.86	1183.73
761.04	1304.56
761.22	1282.03
761.39	1286.12
761.57	1290.22
761.75	1222.64
761.93	1241.07
762.11	1247.21
762.28	1312.75
762.46	1228.78
762.64	1239.02
762.82	1265.64
763.00	1261.55
763.18	1218.54
763.35	1277.93
763.53	1273.84
763.71	1245.16
763.89	1298.41
764.07	1183.73
764.24	1316.84
764.42	1255.40
764.60	1202.16
764.78	1226.73
764.96	1314.80
765.13	1232.88
765.31	1302.51
765.49	1263.60
765.67	1255.40
765.84	1271.79
766.02	1257.45
766.20	1214.45
766.38	1349.61
766.56	1257.45
766.73	1226.73
766.91	1257.45
767.09	1232.88
767.27	1339.37
767.44	1255.40
767.62	1306.60
767.80	1271.79
767.98	1329.13
768.15	1249.26
768.33	1273.84
768.51	1271.79
768.69	1257.45
768.87	1247.21
769.04	1226.73
769.22	1279.98
769.40	1245.16
769.58	1269.74
769.75	1263.60
769.93	1282.03
770.11	1202.16
770.28	1261.55
770.46	1228.78
770.64	1296.36
770.82	1292.27
770.99	1312.75
771.17	1255.40
771.35	1263.60
771.53	1247.21
771.70	1247.21
771.88	1284.08
772.06	1277.93
772.23	1290.22
772.41	1267.69
772.59	1267.69
772.77	1226.73
772.94	1245.16
773.12	1314.80
773.30	1271.79
773.47	1198.06
773.65	1243.12
773.83	1261.55
774.01	1345.52
774.18	1292.27
774.36	1226.73
774.54	1265.64
774.71	1298.41
774.89	1214.45
775.07	1267.69
775.24	1234.93
775.42	1222.64
775.60	1269.74
775.78	1185.77
775.95	1239.02
776.13	1243.12
776.31	1214.45
776.48	1218.54
776.66	1312.75
776.84	1273.84
777.01	1273.84
777.19	1210.35
777.37	1241.07
777.54	1239.02
777.72	1257.45
777.90	1273.84
778.07	1259.50
778.25	1236.97
778.43	1316.84
778.60	1253.36
778.78	1257.45
778.96	1273.84
779.13	1314.80
779.31	1372.14
779.49	1251.31
779.66	1261.55
779.84	1241.07
780.01	1294.32
780.19	1298.41
780.37	1257.45
780.54	1265.64
780.72	1251.31
780.90	1257.45
781.07	1296.36
781.25	1241.07
781.43	1312.75
781.60	1279.98
781.78	1259.50
781.95	1263.60
782.13	1298.41
782.31	1296.36
782.48	1273.84
782.66	1243.12
782.83	1286.12
783.01	1249.26
783.19	1290.22
783.36	1222.64
783.54	1306.60
783.72	1310.70
783.89	1294.32
784.07	1247.21
784.24	1325.04
784.42	1259.50
784.60	1310.70
784.77	1271.79
784.95	1265.64
785.12	1247.21
785.30	1261.55
785.47	1275.88
785.65	1241.07
785.83	1175.53
786.00	1329.13
786.18	1320.94
786.35	1224.69
786.53	1259.50
786.71	1282.03
786.88	1361.90
787.06	1292.27
787.23	1359.85
787.41	1349.61
787.58	1232.88
787.76	1251.31
787.94	1259.50
788.11	1204.21
788.29	1189.87
788.46	1239.02
788.64	1226.73
788.81	1331.18
788.99	1343.47
789.16	1282.03
789.34	1310.70
789.52	1284.08
789.69	1282.03
789.87	1275.88
790.04	1282.03
790.22	1279.98
790.39	1265.64
790.57	1228.78
790.74	1271.79
790.92	1282.03
791.09	1253.36
791.27	1273.84
791.44	1298.41
791.62	1249.26
791.79	1232.88
791.97	1232.88
792.15	1318.89
792.32	1196.01
792.50	1265.64
792.67	1187.82
792.85	1292.27
793.02	1224.69
793.20	1247.21
793.37	1241.07
793.55	1286.12
793.72	1155.05
793.90	1277.93
794.07	1253.36
794.25	1261.55
794.42	1255.40
794.60	1314.80
794.77	1279.98
794.95	1351.66
795.12	1273.84
795.30	1304.56
795.47	1271.79
795.65	1288.17
795.82	1286.12
796.00	1273.84
796.17	1234.93
796.34	1245.16
796.52	1249.26
796.69	1263.60
796.87	1296.36
797.04	1320.94
797.22	1249.26
797.39	1273.84
797.57	1259.50
797.74	1273.84
797.92	1267.69
798.09	1273.84
798.27	1312.75
798.44	1251.31
798.62	1222.64
798.79	1275.88
798.96	1243.12
799.14	1263.60
799.31	1327.08
799.49	1271.79
799.66	1236.97
799.84	1318.89
800.01	1275.88
800.19	1275.88
800.36	1230.83
800.53	1320.94
800.71	1327.08
800.88	1267.69
801.06	1236.97
801.23	1218.54
801.41	1224.69
801.58	1318.89
801.75	1298.41
801.93	1277.93
802.10	1241.07
802.28	1228.78
802.45	1212.40
802.63	1339.37
802.80	1222.64
802.97	1308.65
803.15	1257.45
803.32	1245.16
803.50	1255.40
803.67	1298.41
803.84	1249.26
804.02	1241.07
804.19	1210.35
804.37	1263.60
804.54	1325.04
804.71	1288.17
804.89	1208.30
805.06	1282.03
805.24	1230.83
805.41	1243.12
805.58	1259.50
805.76	1261.55
805.93	1239.02
806.10	1236.97
806.28	1253.36
806.45	1263.60
806.63	1267.69
806.80	1247.21
806.97	1234.93
807.15	1306.60
807.32	1239.02
807.49	1286.12
807.67	1277.93
807.84	1292.27
808.01	1271.79
808.19	1329.13
808.36	1226.73
808.54	1208.30
808.71	1265.64
808.88	1265.64
809.06	1282.03
809.23	1296.36
809.40	1275.88
809.58	1232.88
809.75	1196.01
809.92	1343.47
810.10	1271.79
810.27	1335.28
810.44	1318.89
810.62	1343.47
810.79	1279.98
810.96	1243.12
811.14	1306.60
811.31	1263.60
811.48	1282.03
811.66	1304.56
811.83	1273.84
812.00	1292.27
812.18	1302.51
812.35	1339.37
812.52	1320.94
812.69	1277.93
812.87	1224.69
813.04	1271.79
813.21	1304.56
813.39	1239.02
813.56	1314.80
813.73	1296.36
813.91	1294.32
814.08	1216.49
814.25	1191.92
814.42	1200.11
814.60	1331.18
814.77	1232.88
814.94	1234.93
815.12	1312.75
815.29	1241.07
815.46	1222.64
815.63	1267.69
815.81	1269.74
815.98	1318.89
816.15	1306.60
816.33	1269.74
816.50	1265.64
816.67	1259.50
816.84	1236.97
817.02	1243.12
817.19	1314.80
817.36	1236.97
817.53	1288.17
817.71	1243.12
817.88	1253.36
818.05	1230.83
818.22	1224.69
818.40	1185.77
818.57	1265.64
818.74	1284.08
818.91	1202.16
819.09	1259.50
819.26	1316.84
819.43	1183.73
819.60	1261.55
819.78	1263.60
819.95	1269.74
820.12	1290.22
820.29	1245.16
820.47	1310.70
820.64	1198.06
820.81	1259.50
820.98	1290.22
821.15	1359.85
821.33	1282.03
821.50	1277.93
821.67	1234.93
821.84	1249.26
822.02	1224.69
822.19	1202.16
822.36	1245.16
822.53	1257.45
822.70	1353.71
822.88	1275.88
823.05	1284.08
823.22	1234.93
823.39	1290.22
823.56	1275.88
823.74	1228.78
823.91	1245.16
824.08	1271.79
824.25	1261.55
824.42	1214.45
824.60	1269.74
824.77	1282.03
824.94	1314.80
825.11	1265.64
825.28	1255.40
825.45	1282.03
825.63	1298.41
825.80	1208.30
825.97	1277.93
826.14	1255.40
826.31	1216.49
826.48	1191.92
826.66	1189.87
826.83	1279.98
827.00	1292.27
827.17	1208.30
827.34	1318.89
827.51	1202.16
827.69	1216.49
827.86	1181.68
828.03	1320.94
828.20	1212.40
828.37	1247.21
828.54	1304.56
828.71	1257.45
828.89	1255.40
829.06	1200.11
829.23	1282.03
829.40	1257.45
829.57	1259.50
829.74	1288.17
829.91	1294.32
830.09	1228.78
830.26	1286.12
830.43	1345.52
830.60	1263.60
830.77	1284.08
830.94	1257.45
831.11	1253.36
831.28	1329.13
831.46	1322.99
831.63	1314.80
831.80	1279.98
831.97	1353.71
832.14	1245.16
832.31	1253.36
832.48	1257.45
832.65	1253.36
832.82	1232.88
832.99	1316.84
833.17	1265.64
833.34	1249.26
833.51	1255.40
833.68	1306.60
833.85	1300.46
834.02	1277.93
834.19	1251.31
834.36	1181.68
834.53	1247.21
834.70	1241.07
834.87	1296.36
835.04	1277.93
835.22	1239.02
835.39	1247.21
835.56	1320.94
835.73	1261.55
835.90	1208.30
836.07	1273.84
836.24	1275.88
836.41	1306.60
836.58	1187.82
836.75	1214.45
836.92	1212.40
837.09	1210.35
837.26	1314.80
837.43	1273.84
837.60	1284.08
837.77	1304.56
837.94	1249.26
838.12	1290.22
838.29	1253.36
838.46	1232.88
838.63	1232.88
838.80	1282.03
838.97	1226.73
839.14	1216.49
839.31	1247.21
839.48	1224.69
839.65	1279.98
839.82	1331.18
839.99	1230.83
840.16	1308.65
840.33	1206.25
840.50	1234.93
840.67	1320.94
840.84	1212.40
841.01	1357.80
841.18	1226.73
841.35	1370.09
841.52	1327.08
841.69	1294.32
841.86	1265.64
842.03	1232.88
842.20	1304.56
842.37	1224.69
842.54	1255.40
842.71	1282.03
842.88	1263.60
843.05	1273.84
843.22	1183.73
843.39	1271.79
843.56	1265.64
843.73	1206.25
843.90	1273.84
844.07	1261.55
844.24	1298.41
844.41	1279.98
844.58	1320.94
844.75	1263.60
844.92	1284.08
845.09	1316.84
845.26	1224.69
845.43	1279.98
845.60	1331.18
845.77	1216.49
845.94	1279.98
846.10	1269.74
846.27	1263.60
846.44	1208.30
846.61	1187.82
846.78	1292.27
846.95	1314.80
847.12	1298.41
847.29	1277.93
847.46	1335.28
847.63	1247.21
847.80	1236.97
847.97	1316.84
848.14	1249.26
848.31	1273.84
848.48	1277.93
848.65	1224.69
848.82	1206.25
848.98	1316.84
849.15	1224.69
849.32	1265.64
849.49	1245.16
849.66	1320.94
849.83	1302.51
850.00	1322.99
850.17	1212.40
850.34	1220.59
850.51	1312.75
850.68	1284.08
850.85	1241.07
851.01	1267.69
851.18	1298.41
851.35	1271.79
851.52	1251.31
851.69	1296.36
851.86	1218.54
852.03	1282.03
852.20	1204.21
852.37	1275.88
852.53	1259.50
852.70	1331.18
852.87	1277.93
853.04	1241.07
853.21	1327.08
853.38	1247.21
853.55	1273.84
853.72	1345.52
853.89	1214.45
854.05	1261.55
854.22	1249.26
854.39	1341.42
854.56	1257.45
854.73	1286.12
854.90	1251.31
855.07	1282.03
855.23	1222.64
855.40	1202.16
855.57	1314.80
855.74	1239.02
855.91	1200.11
856.08	1316.84
856.25	1273.84
856.41	1243.12
856.58	1245.16
856.75	1271.79
856.92	1255.40
857.09	1333.23
857.26	1222.64
857.42	1257.45
857.59	1327.08
857.76	1224.69
857.93	1279.98
858.10	1253.36
858.27	1284.08
858.43	1267.69
858.60	1216.49
858.77	1198.06
858.94	1241.07
859.11	1273.84
859.27	1259.50
859.44	1290.22
859.61	1249.26
859.78	1279.98
859.95	1318.89
860.12	1245.16
860.28	1267.69
860.45	1218.54
860.62	1261.55
860.79	1243.12
860.95	1271.79
861.12	1290.22
861.29	1247.21
861.46	1279.98
861.63	1245.16
861.79	1316.84
861.96	1329.13
862.13	1216.49
862.30	1366.00
862.47	1294.32
862.63	1310.70
862.80	1288.17
862.97	1279.98
863.14	1277.93
863.30	1253.36
863.47	1284.08
863.64	1159.15
863.81	1265.64
863.97	1236.97
864.14	1245.16
864.31	1255.40
864.48	1288.17
864.65	1296.36
864.81	1257.45
864.98	1288.17
865.15	1265.64
865.32	1222.64
865.48	1230.83
865.65	1181.68
865.82	1267.69
865.98	1220.59
866.15	1191.92
866.32	1257.45
866.49	1265.64
866.65	1228.78
866.82	1249.26
866.99	1259.50
867.16	1290.22
867.32	1198.06
867.49	1239.02
867.66	1273.84
867.83	1286.12
867.99	1187.82
868.16	1298.41
868.33	1271.79
868.49	1224.69
868.66	1284.08
868.83	1314.80
868.99	1296.36
869.16	1288.17
869.33	1251.31
869.50	1214.45
869.66	1302.51
869.83	1316.84
870.00	1282.03
870.16	1259.50
870.33	1308.65
870.50	1251.31
870.66	1263.60
870.83	1273.84
871.00	1298.41
871.17	1329.13
871.33	1210.35
871.50	1230.83
871.67	1261.55
871.83	1290.22
872.00	1322.99
872.17	1239.02
872.33	1222.64
872.50	1241.07
872.67	1210.35
872.83	1277.93
873.00	1245.16
873.17	1333.23
873.33	1271.79
873.50	1325.04
873.67	1249.26
873.83	1273.84
874.00	1245.16
874.16	1232.88
874.33	1185.77
874.50	1294.32
874.66	1331.18
874.83	1279.98
875.00	1314.80
875.16	1308.65
875.33	1308.65
875.50	1251.31
875.66	1304.56
875.83	1257.45
875.99	1263.60
876.16	1300.46
876.33	1187.82
876.49	1353.71
876.66	1279.98
876.83	1257.45
876.99	1228.78
877.16	1236.97
877.32	1296.36
877.49	1239.02
877.66	1265.64
877.82	1210.35
877.99	1247.21
878.15	1196.01
878.32	1241.07
878.49	1288.17
878.65	1212.40
878.82	1333.23
878.98	1218.54
879.15	1234.93
879.32	1279.98
879.48	1251.31
879.65	1228.78
879.81	1230.83
879.98	1204.21
880.15	1212.40
880.31	1273.84
880.48	1273.84
880.64	1202.16
880.81	1234.93
880.97	1259.50
881.14	1198.06
881.31	1320.94
881.47	1290.22
881.64	1277.93
881.80	1312.75
881.97	1245.16
882.13	1241.07
882.30	1228.78
882.47	1245.16
882.63	1163.25
882.80	1300.46
882.96	1277.93
883.13	1302.51
883.29	1245.16
883.46	1261.55
883.62	1271.79
883.79	1208.30
883.95	1216.49
884.12	1322.99
884.29	1159.15
884.45	1286.12
884.62	1298.41
884.78	1257.45
884.95	1261.55
885.11	1234.93
885.28	1204.21
885.44	1243.12
885.61	1224.69
885.77	1288.17
885.94	1259.50
886.10	1302.51
886.27	1179.63
886.43	1271.79
886.60	1232.88
886.76	1241.07
886.93	1277.93
887.09	1236.97
887.26	1243.12
887.42	1234.93
887.59	1279.98
887.75	1265.64
887.92	1267.69
888.08	1314.80
888.25	1279.98
888.41	1343.47
888.58	1279.98
888.74	1236.97
888.91	1290.22
>>>>>End Processed Spectral Data<<<<<
