SpectraSuite Data File
++++++++++++++++++++++++++++++++++++
Date: Sun Apr 03 19:55:54 CEST 2016
User: root
Dark Spectrum Present: No
Reference Spectrum Present: No
Number of Sampled Component Spectra: 1
Spectrometers: USB4C02835
Integration Time (usec): 10000 (USB4C02835)
Spectra Averaged: 1 (USB4C02835)
Boxcar Smoothing: 0 (USB4C02835)
Correct for Electrical Dark: No (USB4C02835)
Strobe/Lamp Enabled: No (USB4C02835)
Correct for Detector Non-linearity: No (USB4C02835)
Correct for Stray Light: No (USB4C02835)
Number of Pixels in Processed Spectrum: 3648
>>>>>Begin Processed Spectral Data<<<<<
177.47	1277.93
177.69	1277.93
177.91	1277.93
178.13	1259.50
178.36	1224.69
178.58	1277.93
178.80	1279.98
179.02	1247.21
179.24	1277.93
179.46	1208.30
179.68	1257.45
179.90	1316.84
180.13	1265.64
180.35	1245.16
180.57	1275.88
180.79	1261.55
181.01	1196.01
181.23	1220.59
181.45	1325.04
181.67	1216.49
181.90	1255.40
182.12	1261.55
182.34	1337.32
182.56	1247.21
182.78	1290.22
183.00	1206.25
183.22	1232.88
183.44	1261.55
183.66	1265.64
183.89	1284.08
184.11	1259.50
184.33	1271.79
184.55	1267.69
184.77	1290.22
184.99	1288.17
185.21	1239.02
185.43	1202.16
185.65	1245.16
185.87	1230.83
186.10	1296.36
186.32	1286.12
186.54	1212.40
186.76	1255.40
186.98	1212.40
187.20	1218.54
187.42	1286.12
187.64	1255.40
187.86	1230.83
188.08	1249.26
188.30	1288.17
188.52	1267.69
188.75	1214.45
188.97	1273.84
189.19	1249.26
189.41	1327.08
189.63	1255.40
189.85	1243.12
190.07	1239.02
190.29	1277.93
190.51	1216.49
190.73	1243.12
190.95	1243.12
191.17	1298.41
191.39	1212.40
191.61	1249.26
191.84	1261.55
192.06	1251.31
192.28	1255.40
192.50	1241.07
192.72	1220.59
192.94	1263.60
193.16	1220.59
193.38	1275.88
193.60	1241.07
193.82	1333.23
194.04	1304.56
194.26	1296.36
194.48	1122.29
194.70	1226.73
194.92	1265.64
195.14	1234.93
195.36	1282.03
195.58	1232.88
195.80	1318.89
196.02	1239.02
196.24	1294.32
196.46	1239.02
196.69	1249.26
196.91	1300.46
197.13	1249.26
197.35	1312.75
197.57	1226.73
197.79	1267.69
198.01	1218.54
198.23	1267.69
198.45	1206.25
198.67	1239.02
198.89	1257.45
199.11	1325.04
199.33	1277.93
199.55	1226.73
199.77	1277.93
199.99	1241.07
200.21	1306.60
200.43	1249.26
200.65	1257.45
200.87	1232.88
201.09	1286.12
201.31	1286.12
201.53	1292.27
201.75	1267.69
201.97	1275.88
202.19	1277.93
202.41	1210.35
202.63	1345.52
202.85	1206.25
203.07	1255.40
203.29	1255.40
203.51	1271.79
203.73	1210.35
203.95	1206.25
204.17	1275.88
204.39	1298.41
204.61	1204.21
204.83	1314.80
205.05	1304.56
205.27	1218.54
205.49	1253.36
205.71	1368.04
205.93	1232.88
206.15	1255.40
206.37	1259.50
206.59	1257.45
206.81	1247.21
207.03	1230.83
207.25	1279.98
207.47	1230.83
207.69	1325.04
207.91	1230.83
208.13	1257.45
208.34	1222.64
208.56	1253.36
208.78	1181.68
209.00	1224.69
209.22	1286.12
209.44	1363.95
209.66	1290.22
209.88	1273.84
210.10	1269.74
210.32	1253.36
210.54	1279.98
210.76	1302.51
210.98	1257.45
211.20	1239.02
211.42	1331.18
211.64	1196.01
211.86	1284.08
212.08	1306.60
212.30	1304.56
212.52	1232.88
212.74	1236.97
212.96	1167.34
213.17	1255.40
213.39	1304.56
213.61	1247.21
213.83	1239.02
214.05	1273.84
214.27	1290.22
214.49	1337.32
214.71	1282.03
214.93	1314.80
215.15	1261.55
215.37	1296.36
215.59	1325.04
215.81	1302.51
216.03	1282.03
216.24	1325.04
216.46	1251.31
216.68	1310.70
216.90	1312.75
217.12	1259.50
217.34	1204.21
217.56	1261.55
217.78	1331.18
218.00	1249.26
218.22	1302.51
218.44	1302.51
218.66	1306.60
218.87	1335.28
219.09	1232.88
219.31	1222.64
219.53	1296.36
219.75	1230.83
219.97	1327.08
220.19	1255.40
220.41	1234.93
220.63	1259.50
220.85	1288.17
221.06	1140.72
221.28	1200.11
221.50	1302.51
221.72	1243.12
221.94	1296.36
222.16	1220.59
222.38	1253.36
222.60	1257.45
222.82	1298.41
223.03	1261.55
223.25	1214.45
223.47	1284.08
223.69	1265.64
223.91	1220.59
224.13	1322.99
224.35	1271.79
224.57	1312.75
224.78	1243.12
225.00	1361.90
225.22	1263.60
225.44	1259.50
225.66	1337.32
225.88	1308.65
226.10	1273.84
226.32	1247.21
226.53	1357.80
226.75	1257.45
226.97	1261.55
227.19	1269.74
227.41	1275.88
227.63	1196.01
227.85	1290.22
228.06	1224.69
228.28	1236.97
228.50	1396.71
228.72	1267.69
228.94	1310.70
229.16	1230.83
229.37	1304.56
229.59	1255.40
229.81	1290.22
230.03	1288.17
230.25	1265.64
230.47	1214.45
230.69	1259.50
230.90	1220.59
231.12	1304.56
231.34	1251.31
231.56	1249.26
231.78	1312.75
232.00	1257.45
232.21	1306.60
232.43	1277.93
232.65	1325.04
232.87	1298.41
233.09	1226.73
233.30	1253.36
233.52	1290.22
233.74	1249.26
233.96	1286.12
234.18	1271.79
234.40	1273.84
234.61	1300.46
234.83	1288.17
235.05	1220.59
235.27	1218.54
235.49	1265.64
235.70	1247.21
235.92	1273.84
236.14	1273.84
236.36	1226.73
236.58	1259.50
236.79	1288.17
237.01	1271.79
237.23	1271.79
237.45	1312.75
237.67	1271.79
237.88	1243.12
238.10	1341.42
238.32	1298.41
238.54	1239.02
238.76	1263.60
238.97	1269.74
239.19	1249.26
239.41	1257.45
239.63	1243.12
239.85	1277.93
240.06	1247.21
240.28	1273.84
240.50	1288.17
240.72	1304.56
240.93	1249.26
241.15	1277.93
241.37	1230.83
241.59	1286.12
241.81	1331.18
242.02	1236.97
242.24	1261.55
242.46	1310.70
242.68	1282.03
242.89	1271.79
243.11	1193.97
243.33	1335.28
243.55	1232.88
243.76	1218.54
243.98	1263.60
244.20	1269.74
244.42	1273.84
244.64	1275.88
244.85	1189.87
245.07	1269.74
245.29	1257.45
245.51	1314.80
245.72	1331.18
245.94	1253.36
246.16	1273.84
246.38	1263.60
246.59	1292.27
246.81	1249.26
247.03	1261.55
247.24	1265.64
247.46	1263.60
247.68	1249.26
247.90	1314.80
248.11	1282.03
248.33	1308.65
248.55	1290.22
248.77	1269.74
248.98	1245.16
249.20	1269.74
249.42	1273.84
249.64	1222.64
249.85	1298.41
250.07	1259.50
250.29	1282.03
250.50	1230.83
250.72	1261.55
250.94	1288.17
251.16	1200.11
251.37	1275.88
251.59	1296.36
251.81	1296.36
252.02	1310.70
252.24	1187.82
252.46	1304.56
252.68	1269.74
252.89	1314.80
253.11	1239.02
253.33	1320.94
253.54	1267.69
253.76	1251.31
253.98	1267.69
254.20	1232.88
254.41	1241.07
254.63	1298.41
254.85	1269.74
255.06	1329.13
255.28	1279.98
255.50	1226.73
255.71	1300.46
255.93	1224.69
256.15	1308.65
256.36	1308.65
256.58	1275.88
256.80	1327.08
257.02	1220.59
257.23	1183.73
257.45	1243.12
257.67	1376.24
257.88	1279.98
258.10	1251.31
258.32	1290.22
258.53	1271.79
258.75	1265.64
258.97	1228.78
259.18	1312.75
259.40	1286.12
259.62	1298.41
259.83	1236.97
260.05	1241.07
260.27	1269.74
260.48	1214.45
260.70	1230.83
260.92	1275.88
261.13	1300.46
261.35	1257.45
261.57	1294.32
261.78	1288.17
262.00	1177.58
262.22	1216.49
262.43	1230.83
262.65	1228.78
262.86	1212.40
263.08	1302.51
263.30	1249.26
263.51	1302.51
263.73	1329.13
263.95	1259.50
264.16	1218.54
264.38	1251.31
264.60	1271.79
264.81	1239.02
265.03	1277.93
265.25	1239.02
265.46	1294.32
265.68	1259.50
265.89	1191.92
266.11	1208.30
266.33	1269.74
266.54	1249.26
266.76	1296.36
266.98	1290.22
267.19	1296.36
267.41	1245.16
267.62	1263.60
267.84	1288.17
268.06	1271.79
268.27	1269.74
268.49	1292.27
268.70	1331.18
268.92	1378.28
269.14	1347.56
269.35	1310.70
269.57	1275.88
269.79	1173.49
270.00	1253.36
270.22	1290.22
270.43	1234.93
270.65	1232.88
270.87	1259.50
271.08	1290.22
271.30	1239.02
271.51	1263.60
271.73	1345.52
271.95	1269.74
272.16	1255.40
272.38	1243.12
272.59	1271.79
272.81	1245.16
273.02	1216.49
273.24	1337.32
273.46	1253.36
273.67	1259.50
273.89	1263.60
274.10	1232.88
274.32	1265.64
274.54	1234.93
274.75	1292.27
274.97	1282.03
275.18	1302.51
275.40	1282.03
275.61	1339.37
275.83	1290.22
276.05	1253.36
276.26	1284.08
276.48	1200.11
276.69	1216.49
276.91	1232.88
277.12	1282.03
277.34	1208.30
277.55	1335.28
277.77	1333.23
277.99	1255.40
278.20	1249.26
278.42	1249.26
278.63	1341.42
278.85	1331.18
279.06	1294.32
279.28	1308.65
279.49	1191.92
279.71	1239.02
279.93	1271.79
280.14	1279.98
280.36	1273.84
280.57	1282.03
280.79	1282.03
281.00	1347.56
281.22	1284.08
281.43	1329.13
281.65	1300.46
281.86	1230.83
282.08	1271.79
282.29	1286.12
282.51	1292.27
282.73	1288.17
282.94	1316.84
283.16	1191.92
283.37	1333.23
283.59	1204.21
283.80	1226.73
284.02	1247.21
284.23	1171.44
284.45	1212.40
284.66	1341.42
284.88	1212.40
285.09	1245.16
285.31	1302.51
285.52	1290.22
285.74	1269.74
285.95	1249.26
286.17	1286.12
286.38	1304.56
286.60	1226.73
286.81	1216.49
287.03	1210.35
287.24	1251.31
287.46	1271.79
287.67	1261.55
287.89	1273.84
288.10	1224.69
288.32	1271.79
288.53	1277.93
288.75	1347.56
288.96	1275.88
289.18	1277.93
289.39	1241.07
289.61	1271.79
289.82	1349.61
290.04	1294.32
290.25	1277.93
290.47	1306.60
290.68	1230.83
290.90	1236.97
291.11	1243.12
291.33	1296.36
291.54	1234.93
291.76	1271.79
291.97	1175.53
292.18	1294.32
292.40	1212.40
292.61	1333.23
292.83	1310.70
293.04	1265.64
293.26	1273.84
293.47	1232.88
293.69	1306.60
293.90	1196.01
294.12	1296.36
294.33	1259.50
294.55	1312.75
294.76	1335.28
294.97	1255.40
295.19	1288.17
295.40	1249.26
295.62	1263.60
295.83	1224.69
296.05	1245.16
296.26	1286.12
296.48	1226.73
296.69	1251.31
296.90	1304.56
297.12	1341.42
297.33	1216.49
297.55	1314.80
297.76	1306.60
297.98	1302.51
298.19	1298.41
298.41	1222.64
298.62	1234.93
298.83	1282.03
299.05	1286.12
299.26	1279.98
299.48	1247.21
299.69	1292.27
299.90	1214.45
300.12	1273.84
300.33	1300.46
300.55	1269.74
300.76	1282.03
300.98	1320.94
301.19	1298.41
301.40	1245.16
301.62	1290.22
301.83	1265.64
302.05	1322.99
302.26	1304.56
302.47	1257.45
302.69	1259.50
302.90	1314.80
303.12	1271.79
303.33	1239.02
303.54	1308.65
303.76	1245.16
303.97	1322.99
304.19	1185.77
304.40	1316.84
304.61	1335.28
304.83	1322.99
305.04	1253.36
305.26	1271.79
305.47	1255.40
305.68	1282.03
305.90	1286.12
306.11	1241.07
306.33	1273.84
306.54	1273.84
306.75	1286.12
306.97	1267.69
307.18	1241.07
307.39	1271.79
307.61	1314.80
307.82	1230.83
308.04	1288.17
308.25	1214.45
308.46	1263.60
308.68	1236.97
308.89	1286.12
309.10	1302.51
309.32	1277.93
309.53	1284.08
309.74	1294.32
309.96	1263.60
310.17	1253.36
310.39	1316.84
310.60	1290.22
310.81	1316.84
311.03	1251.31
311.24	1353.71
311.45	1296.36
311.67	1277.93
311.88	1247.21
312.09	1271.79
312.31	1226.73
312.52	1247.21
312.73	1277.93
312.95	1122.29
313.16	1265.64
313.37	1279.98
313.59	1296.36
313.80	1290.22
314.01	1300.46
314.23	1239.02
314.44	1310.70
314.65	1302.51
314.87	1286.12
315.08	1296.36
315.29	1241.07
315.51	1198.06
315.72	1253.36
315.93	1251.31
316.15	1282.03
316.36	1249.26
316.57	1263.60
316.79	1198.06
317.00	1232.88
317.21	1271.79
317.43	1298.41
317.64	1277.93
317.85	1208.30
318.07	1241.07
318.28	1253.36
318.49	1265.64
318.70	1300.46
318.92	1284.08
319.13	1312.75
319.34	1226.73
319.56	1273.84
319.77	1282.03
319.98	1292.27
320.20	1200.11
320.41	1243.12
320.62	1171.44
320.83	1263.60
321.05	1249.26
321.26	1222.64
321.47	1243.12
321.69	1210.35
321.90	1265.64
322.11	1257.45
322.32	1294.32
322.54	1255.40
322.75	1216.49
322.96	1279.98
323.18	1259.50
323.39	1257.45
323.60	1265.64
323.81	1222.64
324.03	1263.60
324.24	1298.41
324.45	1265.64
324.66	1236.97
324.88	1298.41
325.09	1331.18
325.30	1273.84
325.52	1204.21
325.73	1243.12
325.94	1185.77
326.15	1255.40
326.37	1234.93
326.58	1296.36
326.79	1345.52
327.00	1288.17
327.22	1329.13
327.43	1363.95
327.64	1241.07
327.85	1257.45
328.07	1308.65
328.28	1267.69
328.49	1273.84
328.70	1306.60
328.92	1232.88
329.13	1245.16
329.34	1259.50
329.55	1247.21
329.76	1271.79
329.98	1245.16
330.19	1304.56
330.40	1265.64
330.61	1167.34
330.83	1255.40
331.04	1218.54
331.25	1302.51
331.46	1284.08
331.68	1263.60
331.89	1277.93
332.10	1251.31
332.31	1273.84
332.52	1243.12
332.74	1304.56
332.95	1239.02
333.16	1241.07
333.37	1249.26
333.58	1308.65
333.80	1284.08
334.01	1314.80
334.22	1218.54
334.43	1261.55
334.64	1359.85
334.86	1279.98
335.07	1245.16
335.28	1363.95
335.49	1245.16
335.70	1320.94
335.92	1187.82
336.13	1300.46
336.34	1286.12
336.55	1255.40
336.76	1273.84
336.98	1310.70
337.19	1304.56
337.40	1337.32
337.61	1226.73
337.82	1253.36
338.04	1325.04
338.25	1206.25
338.46	1263.60
338.67	1286.12
338.88	1265.64
339.09	1275.88
339.31	1284.08
339.52	1273.84
339.73	1251.31
339.94	1243.12
340.15	1210.35
340.36	1273.84
340.58	1292.27
340.79	1255.40
341.00	1224.69
341.21	1288.17
341.42	1265.64
341.63	1267.69
341.85	1288.17
342.06	1290.22
342.27	1265.64
342.48	1257.45
342.69	1308.65
342.90	1247.21
343.12	1150.96
343.33	1245.16
343.54	1263.60
343.75	1179.63
343.96	1257.45
344.17	1157.10
344.38	1290.22
344.60	1273.84
344.81	1259.50
345.02	1271.79
345.23	1349.61
345.44	1370.09
345.65	1267.69
345.86	1269.74
346.07	1335.28
346.29	1161.20
346.50	1294.32
346.71	1331.18
346.92	1234.93
347.13	1273.84
347.34	1210.35
347.55	1239.02
347.76	1298.41
347.98	1286.12
348.19	1386.47
348.40	1273.84
348.61	1204.21
348.82	1228.78
349.03	1290.22
349.24	1288.17
349.45	1239.02
349.66	1206.25
349.88	1288.17
350.09	1304.56
350.30	1277.93
350.51	1265.64
350.72	1273.84
350.93	1271.79
351.14	1300.46
351.35	1327.08
351.56	1298.41
351.77	1265.64
351.99	1247.21
352.20	1230.83
352.41	1253.36
352.62	1284.08
352.83	1255.40
353.04	1279.98
353.25	1306.60
353.46	1216.49
353.67	1271.79
353.88	1263.60
354.09	1232.88
354.30	1286.12
354.52	1271.79
354.73	1310.70
354.94	1263.60
355.15	1253.36
355.36	1296.36
355.57	1263.60
355.78	1226.73
355.99	1263.60
356.20	1261.55
356.41	1308.65
356.62	1329.13
356.83	1259.50
357.04	1296.36
357.25	1290.22
357.46	1327.08
357.68	1312.75
357.89	1284.08
358.10	1279.98
358.31	1306.60
358.52	1286.12
358.73	1243.12
358.94	1269.74
359.15	1273.84
359.36	1230.83
359.57	1191.92
359.78	1378.28
359.99	1329.13
360.20	1241.07
360.41	1269.74
360.62	1239.02
360.83	1263.60
361.04	1306.60
361.25	1271.79
361.46	1241.07
361.67	1271.79
361.88	1302.51
362.09	1329.13
362.30	1296.36
362.51	1343.47
362.72	1271.79
362.93	1255.40
363.14	1236.97
363.35	1265.64
363.56	1335.28
363.78	1320.94
363.99	1193.97
364.20	1296.36
364.41	1277.93
364.62	1218.54
364.83	1300.46
365.04	1226.73
365.25	1236.97
365.46	1345.52
365.67	1292.27
365.88	1228.78
366.09	1298.41
366.30	1249.26
366.51	1302.51
366.72	1228.78
366.93	1271.79
367.14	1269.74
367.35	1241.07
367.56	1204.21
367.77	1337.32
367.98	1263.60
368.18	1228.78
368.39	1202.16
368.60	1298.41
368.81	1304.56
369.02	1277.93
369.23	1228.78
369.44	1228.78
369.65	1253.36
369.86	1220.59
370.07	1306.60
370.28	1286.12
370.49	1300.46
370.70	1368.04
370.91	1232.88
371.12	1306.60
371.33	1232.88
371.54	1300.46
371.75	1189.87
371.96	1282.03
372.17	1306.60
372.38	1257.45
372.59	1298.41
372.80	1230.83
373.01	1247.21
373.22	1243.12
373.43	1253.36
373.64	1236.97
373.85	1243.12
374.06	1159.15
374.26	1306.60
374.47	1243.12
374.68	1304.56
374.89	1347.56
375.10	1210.35
375.31	1302.51
375.52	1257.45
375.73	1214.45
375.94	1263.60
376.15	1263.60
376.36	1265.64
376.57	1236.97
376.78	1314.80
376.99	1271.79
377.20	1294.32
377.40	1257.45
377.61	1226.73
377.82	1308.65
378.03	1196.01
378.24	1282.03
378.45	1251.31
378.66	1249.26
378.87	1265.64
379.08	1286.12
379.29	1236.97
379.50	1331.18
379.71	1222.64
379.91	1279.98
380.12	1300.46
380.33	1265.64
380.54	1300.46
380.75	1236.97
380.96	1208.30
381.17	1245.16
381.38	1234.93
381.59	1314.80
381.80	1232.88
382.00	1359.85
382.21	1218.54
382.42	1382.38
382.63	1298.41
382.84	1279.98
383.05	1282.03
383.26	1318.89
383.47	1230.83
383.68	1300.46
383.88	1243.12
384.09	1206.25
384.30	1302.51
384.51	1290.22
384.72	1239.02
384.93	1273.84
385.14	1304.56
385.35	1255.40
385.55	1206.25
385.76	1290.22
385.97	1284.08
386.18	1275.88
386.39	1290.22
386.60	1241.07
386.81	1271.79
387.02	1259.50
387.22	1300.46
387.43	1282.03
387.64	1298.41
387.85	1271.79
388.06	1255.40
388.27	1259.50
388.48	1310.70
388.68	1306.60
388.89	1275.88
389.10	1236.97
389.31	1308.65
389.52	1329.13
389.73	1269.74
389.93	1265.64
390.14	1245.16
390.35	1263.60
390.56	1298.41
390.77	1269.74
390.98	1271.79
391.18	1304.56
391.39	1249.26
391.60	1267.69
391.81	1239.02
392.02	1314.80
392.23	1261.55
392.43	1220.59
392.64	1298.41
392.85	1187.82
393.06	1286.12
393.27	1298.41
393.47	1335.28
393.68	1253.36
393.89	1267.69
394.10	1290.22
394.31	1224.69
394.52	1234.93
394.72	1263.60
394.93	1241.07
395.14	1249.26
395.35	1253.36
395.56	1222.64
395.76	1210.35
395.97	1204.21
396.18	1228.78
396.39	1179.63
396.60	1241.07
396.80	1306.60
397.01	1232.88
397.22	1273.84
397.43	1288.17
397.64	1327.08
397.84	1294.32
398.05	1253.36
398.26	1206.25
398.47	1279.98
398.67	1290.22
398.88	1292.27
399.09	1310.70
399.30	1271.79
399.51	1298.41
399.71	1239.02
399.92	1210.35
400.13	1290.22
400.34	1251.31
400.54	1298.41
400.75	1290.22
400.96	1193.97
401.17	1322.99
401.37	1202.16
401.58	1288.17
401.79	1251.31
402.00	1269.74
402.21	1243.12
402.41	1296.36
402.62	1257.45
402.83	1255.40
403.04	1175.53
403.24	1245.16
403.45	1290.22
403.66	1282.03
403.87	1265.64
404.07	1206.25
404.28	1183.73
404.49	1267.69
404.70	1279.98
404.90	1267.69
405.11	1277.93
405.32	1279.98
405.52	1320.94
405.73	1279.98
405.94	1202.16
406.15	1294.32
406.35	1253.36
406.56	1327.08
406.77	1257.45
406.98	1275.88
407.18	1271.79
407.39	1320.94
407.60	1210.35
407.80	1296.36
408.01	1271.79
408.22	1275.88
408.43	1218.54
408.63	1234.93
408.84	1298.41
409.05	1279.98
409.25	1279.98
409.46	1228.78
409.67	1255.40
409.88	1296.36
410.08	1251.31
410.29	1263.60
410.50	1302.51
410.70	1253.36
410.91	1359.85
411.12	1253.36
411.32	1265.64
411.53	1263.60
411.74	1298.41
411.95	1286.12
412.15	1314.80
412.36	1298.41
412.57	1265.64
412.77	1239.02
412.98	1251.31
413.19	1241.07
413.39	1208.30
413.60	1279.98
413.81	1224.69
414.01	1196.01
414.22	1267.69
414.43	1259.50
414.63	1230.83
414.84	1298.41
415.05	1245.16
415.25	1234.93
415.46	1314.80
415.67	1263.60
415.87	1275.88
416.08	1277.93
416.29	1282.03
416.49	1271.79
416.70	1312.75
416.91	1226.73
417.11	1249.26
417.32	1273.84
417.53	1210.35
417.73	1370.09
417.94	1267.69
418.15	1273.84
418.35	1279.98
418.56	1267.69
418.77	1255.40
418.97	1261.55
419.18	1273.84
419.38	1255.40
419.59	1241.07
419.80	1279.98
420.00	1279.98
420.21	1290.22
420.42	1269.74
420.62	1300.46
420.83	1290.22
421.04	1267.69
421.24	1236.97
421.45	1261.55
421.65	1294.32
421.86	1208.30
422.07	1271.79
422.27	1329.13
422.48	1249.26
422.69	1200.11
422.89	1247.21
423.10	1220.59
423.30	1329.13
423.51	1296.36
423.72	1261.55
423.92	1236.97
424.13	1247.21
424.33	1288.17
424.54	1236.97
424.75	1216.49
424.95	1306.60
425.16	1212.40
425.36	1271.79
425.57	1294.32
425.78	1255.40
425.98	1263.60
426.19	1288.17
426.39	1308.65
426.60	1302.51
426.81	1312.75
427.01	1267.69
427.22	1263.60
427.42	1222.64
427.63	1300.46
427.83	1243.12
428.04	1198.06
428.25	1257.45
428.45	1249.26
428.66	1314.80
428.86	1304.56
429.07	1247.21
429.28	1261.55
429.48	1247.21
429.69	1312.75
429.89	1275.88
430.10	1236.97
430.30	1269.74
430.51	1222.64
430.71	1224.69
430.92	1349.61
431.13	1300.46
431.33	1265.64
431.54	1316.84
431.74	1216.49
431.95	1298.41
432.15	1355.76
432.36	1351.66
432.56	1247.21
432.77	1288.17
432.98	1249.26
433.18	1282.03
433.39	1257.45
433.59	1202.16
433.80	1249.26
434.00	1279.98
434.21	1273.84
434.41	1247.21
434.62	1181.68
434.82	1329.13
435.03	1273.84
435.23	1304.56
435.44	1273.84
435.64	1251.31
435.85	1193.97
436.06	1282.03
436.26	1259.50
436.47	1267.69
436.67	1234.93
436.88	1318.89
437.08	1255.40
437.29	1290.22
437.49	1304.56
437.70	1173.49
437.90	1257.45
438.11	1318.89
438.31	1298.41
438.52	1255.40
438.72	1265.64
438.93	1259.50
439.13	1308.65
439.34	1232.88
439.54	1300.46
439.75	1294.32
439.95	1300.46
440.16	1232.88
440.36	1267.69
440.57	1177.58
440.77	1337.32
440.98	1249.26
441.18	1255.40
441.39	1236.97
441.59	1282.03
441.80	1245.16
442.00	1257.45
442.21	1263.60
442.41	1331.18
442.62	1265.64
442.82	1349.61
443.02	1353.71
443.23	1259.50
443.43	1298.41
443.64	1228.78
443.84	1259.50
444.05	1255.40
444.25	1296.36
444.46	1236.97
444.66	1216.49
444.87	1261.55
445.07	1224.69
445.28	1318.89
445.48	1308.65
445.69	1275.88
445.89	1310.70
446.09	1310.70
446.30	1234.93
446.50	1279.98
446.71	1316.84
446.91	1302.51
447.12	1316.84
447.32	1257.45
447.53	1329.13
447.73	1171.44
447.93	1255.40
448.14	1296.36
448.34	1318.89
448.55	1308.65
448.75	1271.79
448.96	1279.98
449.16	1210.35
449.36	1224.69
449.57	1308.65
449.77	1345.52
449.98	1300.46
450.18	1312.75
450.39	1302.51
450.59	1265.64
450.79	1259.50
451.00	1271.79
451.20	1277.93
451.41	1257.45
451.61	1294.32
451.81	1259.50
452.02	1282.03
452.22	1325.04
452.43	1241.07
452.63	1232.88
452.84	1275.88
453.04	1277.93
453.24	1241.07
453.45	1236.97
453.65	1294.32
453.86	1290.22
454.06	1327.08
454.26	1325.04
454.47	1312.75
454.67	1255.40
454.87	1257.45
455.08	1300.46
455.28	1222.64
455.49	1265.64
455.69	1288.17
455.89	1288.17
456.10	1261.55
456.30	1296.36
456.51	1304.56
456.71	1269.74
456.91	1253.36
457.12	1322.99
457.32	1288.17
457.52	1273.84
457.73	1284.08
457.93	1312.75
458.14	1288.17
458.34	1273.84
458.54	1259.50
458.75	1271.79
458.95	1249.26
459.15	1247.21
459.36	1327.08
459.56	1312.75
459.76	1316.84
459.97	1363.95
460.17	1269.74
460.37	1298.41
460.58	1277.93
460.78	1251.31
460.99	1202.16
461.19	1265.64
461.39	1251.31
461.60	1349.61
461.80	1251.31
462.00	1331.18
462.21	1241.07
462.41	1304.56
462.61	1239.02
462.82	1302.51
463.02	1277.93
463.22	1263.60
463.43	1327.08
463.63	1214.45
463.83	1255.40
464.04	1314.80
464.24	1269.74
464.44	1273.84
464.64	1286.12
464.85	1294.32
465.05	1249.26
465.25	1263.60
465.46	1222.64
465.66	1214.45
465.86	1271.79
466.07	1300.46
466.27	1273.84
466.47	1382.38
466.68	1282.03
466.88	1265.64
467.08	1230.83
467.29	1318.89
467.49	1167.34
467.69	1288.17
467.89	1275.88
468.10	1337.32
468.30	1284.08
468.50	1265.64
468.71	1279.98
468.91	1265.64
469.11	1374.19
469.31	1224.69
469.52	1241.07
469.72	1279.98
469.92	1251.31
470.13	1224.69
470.33	1318.89
470.53	1304.56
470.73	1269.74
470.94	1314.80
471.14	1322.99
471.34	1308.65
471.54	1236.97
471.75	1226.73
471.95	1251.31
472.15	1292.27
472.36	1292.27
472.56	1255.40
472.76	1259.50
472.96	1257.45
473.17	1251.31
473.37	1351.66
473.57	1196.01
473.77	1304.56
473.98	1251.31
474.18	1267.69
474.38	1224.69
474.58	1357.80
474.79	1241.07
474.99	1298.41
475.19	1251.31
475.39	1265.64
475.60	1282.03
475.80	1245.16
476.00	1232.88
476.20	1249.26
476.41	1259.50
476.61	1271.79
476.81	1310.70
477.01	1304.56
477.21	1222.64
477.42	1300.46
477.62	1269.74
477.82	1300.46
478.02	1275.88
478.23	1263.60
478.43	1273.84
478.63	1310.70
478.83	1251.31
479.03	1212.40
479.24	1267.69
479.44	1279.98
479.64	1232.88
479.84	1232.88
480.04	1310.70
480.25	1241.07
480.45	1304.56
480.65	1331.18
480.85	1290.22
481.06	1224.69
481.26	1253.36
481.46	1243.12
481.66	1253.36
481.86	1267.69
482.06	1234.93
482.27	1230.83
482.47	1267.69
482.67	1288.17
482.87	1218.54
483.07	1288.17
483.28	1288.17
483.48	1325.04
483.68	1347.56
483.88	1251.31
484.08	1257.45
484.29	1310.70
484.49	1339.37
484.69	1234.93
484.89	1282.03
485.09	1247.21
485.29	1263.60
485.50	1251.31
485.70	1288.17
485.90	1335.28
486.10	1263.60
486.30	1251.31
486.50	1206.25
486.71	1282.03
486.91	1263.60
487.11	1308.65
487.31	1314.80
487.51	1279.98
487.71	1218.54
487.91	1175.53
488.12	1247.21
488.32	1277.93
488.52	1249.26
488.72	1318.89
488.92	1279.98
489.12	1214.45
489.32	1345.52
489.53	1259.50
489.73	1279.98
489.93	1284.08
490.13	1294.32
490.33	1322.99
490.53	1263.60
490.73	1271.79
490.94	1271.79
491.14	1298.41
491.34	1284.08
491.54	1306.60
491.74	1253.36
491.94	1290.22
492.14	1286.12
492.34	1241.07
492.54	1304.56
492.75	1279.98
492.95	1294.32
493.15	1257.45
493.35	1345.52
493.55	1322.99
493.75	1273.84
493.95	1277.93
494.15	1239.02
494.35	1241.07
494.56	1243.12
494.76	1304.56
494.96	1218.54
495.16	1279.98
495.36	1230.83
495.56	1267.69
495.76	1257.45
495.96	1306.60
496.16	1282.03
496.36	1320.94
496.56	1267.69
496.77	1232.88
496.97	1286.12
497.17	1290.22
497.37	1302.51
497.57	1296.36
497.77	1269.74
497.97	1239.02
498.17	1251.31
498.37	1243.12
498.57	1318.89
498.77	1269.74
498.97	1204.21
499.17	1224.69
499.38	1318.89
499.58	1249.26
499.78	1243.12
499.98	1247.21
500.18	1253.36
500.38	1273.84
500.58	1320.94
500.78	1259.50
500.98	1269.74
501.18	1257.45
501.38	1314.80
501.58	1318.89
501.78	1234.93
501.98	1269.74
502.18	1312.75
502.38	1265.64
502.58	1322.99
502.78	1208.30
502.98	1241.07
503.18	1210.35
503.38	1249.26
503.59	1327.08
503.79	1312.75
503.99	1302.51
504.19	1247.21
504.39	1200.11
504.59	1310.70
504.79	1271.79
504.99	1282.03
505.19	1363.95
505.39	1247.21
505.59	1259.50
505.79	1277.93
505.99	1269.74
506.19	1355.76
506.39	1341.42
506.59	1296.36
506.79	1294.32
506.99	1222.64
507.19	1294.32
507.39	1212.40
507.59	1290.22
507.79	1265.64
507.99	1312.75
508.19	1290.22
508.39	1302.51
508.59	1253.36
508.79	1243.12
508.99	1316.84
509.19	1245.16
509.39	1284.08
509.59	1247.21
509.79	1290.22
509.99	1263.60
510.19	1294.32
510.39	1279.98
510.59	1343.47
510.79	1275.88
510.99	1269.74
511.19	1329.13
511.39	1390.57
511.59	1232.88
511.79	1333.23
511.99	1347.56
512.19	1296.36
512.38	1320.94
512.58	1257.45
512.78	1253.36
512.98	1277.93
513.18	1230.83
513.38	1259.50
513.58	1361.90
513.78	1284.08
513.98	1339.37
514.18	1249.26
514.38	1200.11
514.58	1206.25
514.78	1314.80
514.98	1271.79
515.18	1306.60
515.38	1349.61
515.58	1286.12
515.78	1286.12
515.98	1269.74
516.18	1273.84
516.38	1269.74
516.57	1263.60
516.77	1232.88
516.97	1275.88
517.17	1345.52
517.37	1282.03
517.57	1263.60
517.77	1302.51
517.97	1292.27
518.17	1247.21
518.37	1234.93
518.57	1310.70
518.77	1318.89
518.97	1322.99
519.16	1259.50
519.36	1282.03
519.56	1277.93
519.76	1339.37
519.96	1298.41
520.16	1331.18
520.36	1243.12
520.56	1267.69
520.76	1331.18
520.96	1290.22
521.16	1263.60
521.35	1183.73
521.55	1220.59
521.75	1247.21
521.95	1259.50
522.15	1249.26
522.35	1239.02
522.55	1286.12
522.75	1304.56
522.95	1304.56
523.14	1265.64
523.34	1257.45
523.54	1216.49
523.74	1339.37
523.94	1230.83
524.14	1277.93
524.34	1322.99
524.54	1263.60
524.73	1288.17
524.93	1220.59
525.13	1271.79
525.33	1310.70
525.53	1333.23
525.73	1296.36
525.93	1306.60
526.13	1308.65
526.32	1263.60
526.52	1304.56
526.72	1259.50
526.92	1265.64
527.12	1345.52
527.32	1279.98
527.52	1230.83
527.71	1216.49
527.91	1310.70
528.11	1261.55
528.31	1353.71
528.51	1288.17
528.71	1253.36
528.90	1282.03
529.10	1241.07
529.30	1290.22
529.50	1185.77
529.70	1249.26
529.90	1304.56
530.09	1222.64
530.29	1241.07
530.49	1322.99
530.69	1349.61
530.89	1265.64
531.09	1259.50
531.28	1294.32
531.48	1333.23
531.68	1290.22
531.88	1282.03
532.08	1247.21
532.28	1343.47
532.47	1333.23
532.67	1275.88
532.87	1296.36
533.07	1296.36
533.27	1275.88
533.46	1288.17
533.66	1288.17
533.86	1300.46
534.06	1226.73
534.26	1275.88
534.45	1286.12
534.65	1236.97
534.85	1357.80
535.05	1279.98
535.25	1304.56
535.44	1261.55
535.64	1372.14
535.84	1314.80
536.04	1241.07
536.24	1232.88
536.43	1255.40
536.63	1302.51
536.83	1247.21
537.03	1271.79
537.22	1234.93
537.42	1269.74
537.62	1351.66
537.82	1273.84
538.02	1320.94
538.21	1318.89
538.41	1351.66
538.61	1269.74
538.81	1343.47
539.00	1288.17
539.20	1302.51
539.40	1290.22
539.60	1267.69
539.79	1345.52
539.99	1251.31
540.19	1245.16
540.39	1255.40
540.58	1224.69
540.78	1333.23
540.98	1306.60
541.18	1241.07
541.37	1288.17
541.57	1282.03
541.77	1265.64
541.97	1282.03
542.16	1284.08
542.36	1275.88
542.56	1298.41
542.76	1261.55
542.95	1282.03
543.15	1343.47
543.35	1277.93
543.54	1294.32
543.74	1298.41
543.94	1273.84
544.14	1353.71
544.33	1228.78
544.53	1306.60
544.73	1304.56
544.93	1329.13
545.12	1331.18
545.32	1296.36
545.52	1345.52
545.71	1236.97
545.91	1267.69
546.11	1273.84
546.30	1357.80
546.50	1304.56
546.70	1265.64
546.90	1239.02
547.09	1277.93
547.29	1273.84
547.49	1222.64
547.68	1232.88
547.88	1241.07
548.08	1222.64
548.27	1304.56
548.47	1314.80
548.67	1253.36
548.87	1327.08
549.06	1282.03
549.26	1259.50
549.46	1325.04
549.65	1253.36
549.85	1282.03
550.05	1277.93
550.24	1218.54
550.44	1255.40
550.64	1271.79
550.83	1259.50
551.03	1308.65
551.23	1249.26
551.42	1298.41
551.62	1372.14
551.82	1208.30
552.01	1308.65
552.21	1335.28
552.41	1292.27
552.60	1353.71
552.80	1286.12
553.00	1306.60
553.19	1304.56
553.39	1267.69
553.59	1320.94
553.78	1331.18
553.98	1234.93
554.17	1316.84
554.37	1347.56
554.57	1290.22
554.76	1245.16
554.96	1290.22
555.16	1275.88
555.35	1228.78
555.55	1284.08
555.75	1308.65
555.94	1228.78
556.14	1314.80
556.33	1306.60
556.53	1290.22
556.73	1284.08
556.92	1292.27
557.12	1335.28
557.32	1273.84
557.51	1322.99
557.71	1300.46
557.90	1312.75
558.10	1292.27
558.30	1236.97
558.49	1247.21
558.69	1302.51
558.88	1296.36
559.08	1347.56
559.28	1316.84
559.47	1251.31
559.67	1288.17
559.86	1296.36
560.06	1271.79
560.26	1267.69
560.45	1228.78
560.65	1210.35
560.84	1247.21
561.04	1306.60
561.24	1263.60
561.43	1257.45
561.63	1247.21
561.82	1316.84
562.02	1290.22
562.22	1277.93
562.41	1310.70
562.61	1198.06
562.80	1304.56
563.00	1273.84
563.19	1302.51
563.39	1232.88
563.59	1290.22
563.78	1263.60
563.98	1331.18
564.17	1271.79
564.37	1263.60
564.56	1347.56
564.76	1265.64
564.96	1310.70
565.15	1232.88
565.35	1263.60
565.54	1275.88
565.74	1263.60
565.93	1228.78
566.13	1322.99
566.32	1322.99
566.52	1331.18
566.71	1304.56
566.91	1310.70
567.11	1273.84
567.30	1314.80
567.50	1271.79
567.69	1306.60
567.89	1245.16
568.08	1259.50
568.28	1228.78
568.47	1249.26
568.67	1279.98
568.86	1232.88
569.06	1286.12
569.25	1282.03
569.45	1247.21
569.64	1316.84
569.84	1361.90
570.04	1249.26
570.23	1275.88
570.43	1304.56
570.62	1322.99
570.82	1228.78
571.01	1216.49
571.21	1290.22
571.40	1298.41
571.60	1296.36
571.79	1310.70
571.99	1232.88
572.18	1257.45
572.38	1351.66
572.57	1290.22
572.77	1314.80
572.96	1308.65
573.16	1198.06
573.35	1269.74
573.55	1320.94
573.74	1359.85
573.94	1294.32
574.13	1308.65
574.33	1286.12
574.52	1253.36
574.71	1273.84
574.91	1277.93
575.10	1302.51
575.30	1243.12
575.49	1294.32
575.69	1243.12
575.88	1322.99
576.08	1236.97
576.27	1355.76
576.47	1241.07
576.66	1286.12
576.86	1376.24
577.05	1345.52
577.25	1325.04
577.44	1286.12
577.64	1335.28
577.83	1290.22
578.02	1294.32
578.22	1261.55
578.41	1316.84
578.61	1298.41
578.80	1241.07
579.00	1298.41
579.19	1320.94
579.39	1316.84
579.58	1347.56
579.77	1314.80
579.97	1239.02
580.16	1275.88
580.36	1206.25
580.55	1314.80
580.75	1267.69
580.94	1216.49
581.13	1300.46
581.33	1298.41
581.52	1239.02
581.72	1318.89
581.91	1304.56
582.11	1269.74
582.30	1267.69
582.49	1273.84
582.69	1318.89
582.88	1249.26
583.08	1265.64
583.27	1271.79
583.47	1236.97
583.66	1255.40
583.85	1257.45
584.05	1363.95
584.24	1271.79
584.44	1288.17
584.63	1290.22
584.82	1253.36
585.02	1247.21
585.21	1265.64
585.41	1239.02
585.60	1275.88
585.79	1300.46
585.99	1294.32
586.18	1325.04
586.37	1298.41
586.57	1224.69
586.76	1308.65
586.96	1282.03
587.15	1353.71
587.34	1277.93
587.54	1363.95
587.73	1329.13
587.93	1296.36
588.12	1361.90
588.31	1320.94
588.51	1269.74
588.70	1267.69
588.89	1273.84
589.09	1282.03
589.28	1337.32
589.47	1378.28
589.67	1335.28
589.86	1232.88
590.06	1302.51
590.25	1284.08
590.44	1224.69
590.64	1310.70
590.83	1255.40
591.02	1234.93
591.22	1261.55
591.41	1292.27
591.60	1271.79
591.80	1263.60
591.99	1249.26
592.18	1259.50
592.38	1277.93
592.57	1339.37
592.76	1282.03
592.96	1236.97
593.15	1263.60
593.34	1320.94
593.54	1304.56
593.73	1277.93
593.92	1308.65
594.12	1269.74
594.31	1292.27
594.50	1327.08
594.70	1282.03
594.89	1310.70
595.08	1312.75
595.28	1273.84
595.47	1259.50
595.66	1306.60
595.86	1288.17
596.05	1302.51
596.24	1298.41
596.43	1222.64
596.63	1298.41
596.82	1296.36
597.01	1318.89
597.21	1359.85
597.40	1265.64
597.59	1298.41
597.79	1316.84
597.98	1189.87
598.17	1306.60
598.36	1232.88
598.56	1245.16
598.75	1279.98
598.94	1312.75
599.14	1265.64
599.33	1325.04
599.52	1325.04
599.71	1253.36
599.91	1249.26
600.10	1220.59
600.29	1253.36
600.48	1245.16
600.68	1282.03
600.87	1269.74
601.06	1300.46
601.26	1327.08
601.45	1325.04
601.64	1308.65
601.83	1239.02
602.03	1318.89
602.22	1261.55
602.41	1318.89
602.60	1273.84
602.80	1286.12
602.99	1372.14
603.18	1257.45
603.37	1257.45
603.57	1261.55
603.76	1275.88
603.95	1302.51
604.14	1331.18
604.34	1349.61
604.53	1277.93
604.72	1218.54
604.91	1314.80
605.10	1353.71
605.30	1189.87
605.49	1245.16
605.68	1339.37
605.87	1245.16
606.07	1316.84
606.26	1304.56
606.45	1378.28
606.64	1222.64
606.84	1335.28
607.03	1333.23
607.22	1322.99
607.41	1257.45
607.60	1329.13
607.80	1286.12
607.99	1271.79
608.18	1298.41
608.37	1312.75
608.56	1304.56
608.76	1232.88
608.95	1265.64
609.14	1298.41
609.33	1302.51
609.52	1308.65
609.72	1224.69
609.91	1279.98
610.10	1265.64
610.29	1271.79
610.48	1331.18
610.68	1304.56
610.87	1286.12
611.06	1298.41
611.25	1251.31
611.44	1304.56
611.63	1284.08
611.83	1308.65
612.02	1277.93
612.21	1284.08
612.40	1269.74
612.59	1296.36
612.79	1259.50
612.98	1314.80
613.17	1193.97
613.36	1288.17
613.55	1316.84
613.74	1230.83
613.93	1257.45
614.13	1282.03
614.32	1308.65
614.51	1273.84
614.70	1263.60
614.89	1343.47
615.08	1271.79
615.28	1273.84
615.47	1290.22
615.66	1279.98
615.85	1239.02
616.04	1265.64
616.23	1284.08
616.42	1310.70
616.62	1374.19
616.81	1316.84
617.00	1288.17
617.19	1273.84
617.38	1193.97
617.57	1267.69
617.76	1269.74
617.95	1230.83
618.15	1363.95
618.34	1286.12
618.53	1290.22
618.72	1355.76
618.91	1312.75
619.10	1296.36
619.29	1269.74
619.48	1388.52
619.68	1290.22
619.87	1241.07
620.06	1196.01
620.25	1241.07
620.44	1290.22
620.63	1357.80
620.82	1314.80
621.01	1232.88
621.20	1308.65
621.39	1294.32
621.59	1275.88
621.78	1302.51
621.97	1339.37
622.16	1370.09
622.35	1261.55
622.54	1351.66
622.73	1292.27
622.92	1251.31
623.11	1288.17
623.30	1349.61
623.49	1304.56
623.68	1251.31
623.88	1286.12
624.07	1286.12
624.26	1263.60
624.45	1312.75
624.64	1245.16
624.83	1236.97
625.02	1302.51
625.21	1359.85
625.40	1331.18
625.59	1320.94
625.78	1318.89
625.97	1290.22
626.16	1269.74
626.35	1322.99
626.54	1314.80
626.74	1353.71
626.93	1310.70
627.12	1239.02
627.31	1333.23
627.50	1279.98
627.69	1253.36
627.88	1337.32
628.07	1263.60
628.26	1316.84
628.45	1243.12
628.64	1236.97
628.83	1300.46
629.02	1284.08
629.21	1337.32
629.40	1310.70
629.59	1314.80
629.78	1333.23
629.97	1349.61
630.16	1265.64
630.35	1349.61
630.54	1349.61
630.73	1380.33
630.92	1355.76
631.11	1337.32
631.30	1433.58
631.49	1359.85
631.68	1486.83
631.87	2078.69
632.06	3106.77
632.25	2586.58
632.44	2613.21
632.63	3385.29
632.82	6496.16
633.01	7841.67
633.20	7970.69
633.39	8933.24
633.58	12666.69
633.77	13238.07
633.96	11741.00
634.15	21561.02
634.34	30582.32
634.53	29101.64
634.72	22656.68
634.91	16668.42
635.10	12007.24
635.29	8032.13
635.48	5666.73
635.67	4136.90
635.86	2871.25
636.05	2209.76
636.24	1757.16
636.43	1554.41
636.62	1478.63
636.81	1445.87
637.00	1429.48
637.19	1402.86
637.38	1347.56
637.57	1353.71
637.76	1372.14
637.95	1357.80
638.14	1327.08
638.33	1374.19
638.52	1335.28
638.71	1314.80
638.89	1345.52
639.08	1286.12
639.27	1347.56
639.46	1294.32
639.65	1257.45
639.84	1343.47
640.03	1230.83
640.22	1312.75
640.41	1320.94
640.60	1263.60
640.79	1298.41
640.98	1193.97
641.17	1230.83
641.36	1286.12
641.55	1300.46
641.74	1257.45
641.92	1224.69
642.11	1277.93
642.30	1265.64
642.49	1312.75
642.68	1228.78
642.87	1320.94
643.06	1243.12
643.25	1290.22
643.44	1329.13
643.63	1282.03
643.82	1290.22
644.00	1290.22
644.19	1361.90
644.38	1277.93
644.57	1292.27
644.76	1232.88
644.95	1282.03
645.14	1329.13
645.33	1271.79
645.52	1290.22
645.71	1265.64
645.89	1261.55
646.08	1261.55
646.27	1224.69
646.46	1337.32
646.65	1224.69
646.84	1269.74
647.03	1273.84
647.22	1306.60
647.40	1292.27
647.59	1306.60
647.78	1236.97
647.97	1267.69
648.16	1388.52
648.35	1269.74
648.54	1345.52
648.73	1267.69
648.91	1312.75
649.10	1325.04
649.29	1277.93
649.48	1288.17
649.67	1263.60
649.86	1282.03
650.05	1312.75
650.23	1273.84
650.42	1239.02
650.61	1228.78
650.80	1249.26
650.99	1357.80
651.18	1263.60
651.36	1265.64
651.55	1306.60
651.74	1255.40
651.93	1331.18
652.12	1286.12
652.31	1284.08
652.49	1234.93
652.68	1261.55
652.87	1257.45
653.06	1269.74
653.25	1277.93
653.44	1284.08
653.62	1241.07
653.81	1312.75
654.00	1279.98
654.19	1267.69
654.38	1255.40
654.56	1269.74
654.75	1288.17
654.94	1249.26
655.13	1282.03
655.32	1286.12
655.51	1308.65
655.69	1255.40
655.88	1286.12
656.07	1236.97
656.26	1277.93
656.45	1263.60
656.63	1316.84
656.82	1273.84
657.01	1300.46
657.20	1294.32
657.38	1273.84
657.57	1286.12
657.76	1206.25
657.95	1320.94
658.14	1304.56
658.32	1232.88
658.51	1286.12
658.70	1282.03
658.89	1224.69
659.08	1294.32
659.26	1232.88
659.45	1261.55
659.64	1294.32
659.83	1222.64
660.01	1322.99
660.20	1308.65
660.39	1255.40
660.58	1306.60
660.76	1288.17
660.95	1224.69
661.14	1312.75
661.33	1339.37
661.51	1312.75
661.70	1331.18
661.89	1312.75
662.08	1310.70
662.26	1302.51
662.45	1288.17
662.64	1304.56
662.83	1232.88
663.01	1322.99
663.20	1167.34
663.39	1355.76
663.58	1222.64
663.76	1257.45
663.95	1232.88
664.14	1265.64
664.32	1294.32
664.51	1304.56
664.70	1214.45
664.89	1290.22
665.07	1243.12
665.26	1325.04
665.45	1214.45
665.64	1277.93
665.82	1286.12
666.01	1329.13
666.20	1284.08
666.38	1239.02
666.57	1263.60
666.76	1208.30
666.95	1226.73
667.13	1228.78
667.32	1327.08
667.51	1245.16
667.69	1290.22
667.88	1263.60
668.07	1284.08
668.25	1208.30
668.44	1294.32
668.63	1232.88
668.81	1228.78
669.00	1273.84
669.19	1269.74
669.38	1308.65
669.56	1292.27
669.75	1290.22
669.94	1198.06
670.12	1335.28
670.31	1310.70
670.50	1320.94
670.68	1249.26
670.87	1331.18
671.06	1255.40
671.24	1255.40
671.43	1228.78
671.62	1273.84
671.80	1273.84
671.99	1253.36
672.18	1370.09
672.36	1284.08
672.55	1298.41
672.74	1335.28
672.92	1253.36
673.11	1271.79
673.29	1247.21
673.48	1325.04
673.67	1288.17
673.85	1327.08
674.04	1255.40
674.23	1314.80
674.41	1302.51
674.60	1271.79
674.79	1284.08
674.97	1208.30
675.16	1355.76
675.34	1341.42
675.53	1224.69
675.72	1265.64
675.90	1265.64
676.09	1284.08
676.28	1226.73
676.46	1310.70
676.65	1226.73
676.83	1318.89
677.02	1286.12
677.21	1361.90
677.39	1253.36
677.58	1282.03
677.77	1218.54
677.95	1212.40
678.14	1261.55
678.32	1282.03
678.51	1253.36
678.70	1308.65
678.88	1269.74
679.07	1253.36
679.25	1257.45
679.44	1249.26
679.63	1282.03
679.81	1275.88
680.00	1284.08
680.18	1310.70
680.37	1253.36
680.55	1320.94
680.74	1286.12
680.93	1232.88
681.11	1261.55
681.30	1253.36
681.48	1267.69
681.67	1218.54
681.85	1249.26
682.04	1282.03
682.23	1230.83
682.41	1333.23
682.60	1267.69
682.78	1288.17
682.97	1277.93
683.15	1282.03
683.34	1337.32
683.53	1226.73
683.71	1236.97
683.90	1247.21
684.08	1265.64
684.27	1320.94
684.45	1296.36
684.64	1245.16
684.82	1218.54
685.01	1241.07
685.19	1228.78
685.38	1316.84
685.57	1255.40
685.75	1275.88
685.94	1353.71
686.12	1247.21
686.31	1314.80
686.49	1302.51
686.68	1212.40
686.86	1226.73
687.05	1304.56
687.23	1304.56
687.42	1267.69
687.60	1271.79
687.79	1271.79
687.97	1316.84
688.16	1257.45
688.34	1318.89
688.53	1263.60
688.71	1247.21
688.90	1257.45
689.08	1327.08
689.27	1212.40
689.45	1181.68
689.64	1230.83
689.82	1271.79
690.01	1196.01
690.19	1261.55
690.38	1277.93
690.56	1298.41
690.75	1312.75
690.93	1208.30
691.12	1339.37
691.30	1273.84
691.49	1251.31
691.67	1245.16
691.86	1269.74
692.04	1245.16
692.23	1275.88
692.41	1247.21
692.60	1191.92
692.78	1308.65
692.97	1310.70
693.15	1284.08
693.34	1294.32
693.52	1273.84
693.71	1314.80
693.89	1228.78
694.08	1234.93
694.26	1253.36
694.44	1212.40
694.63	1249.26
694.81	1183.73
695.00	1263.60
695.18	1353.71
695.37	1214.45
695.55	1304.56
695.74	1236.97
695.92	1245.16
696.10	1198.06
696.29	1292.27
696.47	1239.02
696.66	1302.51
696.84	1220.59
697.03	1329.13
697.21	1261.55
697.40	1366.00
697.58	1288.17
697.76	1234.93
697.95	1263.60
698.13	1300.46
698.32	1257.45
698.50	1210.35
698.68	1241.07
698.87	1282.03
699.05	1288.17
699.24	1277.93
699.42	1294.32
699.61	1279.98
699.79	1298.41
699.97	1259.50
700.16	1261.55
700.34	1286.12
700.53	1279.98
700.71	1302.51
700.89	1284.08
701.08	1282.03
701.26	1290.22
701.45	1236.97
701.63	1245.16
701.81	1302.51
702.00	1200.11
702.18	1216.49
702.37	1261.55
702.55	1259.50
702.73	1265.64
702.92	1228.78
703.10	1243.12
703.28	1265.64
703.47	1273.84
703.65	1230.83
703.84	1245.16
704.02	1273.84
704.20	1345.52
704.39	1232.88
704.57	1198.06
704.75	1267.69
704.94	1257.45
705.12	1189.87
705.30	1282.03
705.49	1284.08
705.67	1255.40
705.86	1327.08
706.04	1230.83
706.22	1302.51
706.41	1230.83
706.59	1224.69
706.77	1284.08
706.96	1304.56
707.14	1257.45
707.32	1249.26
707.51	1247.21
707.69	1222.64
707.87	1312.75
708.06	1265.64
708.24	1284.08
708.42	1298.41
708.61	1275.88
708.79	1226.73
708.97	1271.79
709.16	1275.88
709.34	1286.12
709.52	1290.22
709.71	1316.84
709.89	1273.84
710.07	1282.03
710.26	1284.08
710.44	1277.93
710.62	1300.46
710.80	1290.22
710.99	1232.88
711.17	1339.37
711.35	1255.40
711.54	1290.22
711.72	1271.79
711.90	1277.93
712.09	1337.32
712.27	1241.07
712.45	1241.07
712.63	1322.99
712.82	1247.21
713.00	1284.08
713.18	1220.59
713.37	1282.03
713.55	1300.46
713.73	1232.88
713.91	1300.46
714.10	1314.80
714.28	1218.54
714.46	1290.22
714.65	1253.36
714.83	1218.54
715.01	1220.59
715.19	1241.07
715.38	1294.32
715.56	1286.12
715.74	1263.60
715.92	1189.87
716.11	1253.36
716.29	1245.16
716.47	1230.83
716.65	1228.78
716.84	1282.03
717.02	1308.65
717.20	1245.16
717.38	1257.45
717.57	1314.80
717.75	1200.11
717.93	1253.36
718.11	1255.40
718.30	1183.73
718.48	1245.16
718.66	1230.83
718.84	1312.75
719.03	1286.12
719.21	1167.34
719.39	1298.41
719.57	1251.31
719.75	1302.51
719.94	1302.51
720.12	1349.61
720.30	1316.84
720.48	1177.58
720.67	1255.40
720.85	1271.79
721.03	1175.53
721.21	1286.12
721.39	1241.07
721.58	1253.36
721.76	1310.70
721.94	1239.02
722.12	1316.84
722.30	1277.93
722.49	1337.32
722.67	1279.98
722.85	1273.84
723.03	1275.88
723.21	1296.36
723.40	1263.60
723.58	1273.84
723.76	1316.84
723.94	1271.79
724.12	1296.36
724.30	1310.70
724.49	1325.04
724.67	1230.83
724.85	1234.93
725.03	1290.22
725.21	1271.79
725.40	1247.21
725.58	1314.80
725.76	1302.51
725.94	1255.40
726.12	1331.18
726.30	1245.16
726.49	1253.36
726.67	1214.45
726.85	1271.79
727.03	1234.93
727.21	1253.36
727.39	1185.77
727.57	1300.46
727.76	1251.31
727.94	1339.37
728.12	1284.08
728.30	1286.12
728.48	1196.01
728.66	1269.74
728.84	1241.07
729.03	1222.64
729.21	1251.31
729.39	1208.30
729.57	1230.83
729.75	1294.32
729.93	1245.16
730.11	1269.74
730.30	1224.69
730.48	1212.40
730.66	1294.32
730.84	1296.36
731.02	1222.64
731.20	1228.78
731.38	1236.97
731.56	1224.69
731.74	1259.50
731.93	1288.17
732.11	1302.51
732.29	1261.55
732.47	1234.93
732.65	1284.08
732.83	1257.45
733.01	1314.80
733.19	1286.12
733.37	1257.45
733.56	1200.11
733.74	1249.26
733.92	1331.18
734.10	1294.32
734.28	1302.51
734.46	1296.36
734.64	1275.88
734.82	1212.40
735.00	1228.78
735.18	1216.49
735.36	1277.93
735.54	1249.26
735.73	1271.79
735.91	1232.88
736.09	1292.27
736.27	1300.46
736.45	1300.46
736.63	1185.77
736.81	1282.03
736.99	1228.78
737.17	1300.46
737.35	1259.50
737.53	1247.21
737.71	1279.98
737.89	1290.22
738.07	1275.88
738.25	1230.83
738.43	1282.03
738.61	1200.11
738.80	1267.69
738.98	1234.93
739.16	1228.78
739.34	1302.51
739.52	1294.32
739.70	1200.11
739.88	1320.94
740.06	1212.40
740.24	1255.40
740.42	1232.88
740.60	1298.41
740.78	1216.49
740.96	1271.79
741.14	1277.93
741.32	1224.69
741.50	1220.59
741.68	1273.84
741.86	1267.69
742.04	1314.80
742.22	1288.17
742.40	1236.97
742.58	1333.23
742.76	1228.78
742.94	1277.93
743.12	1267.69
743.30	1245.16
743.48	1318.89
743.66	1251.31
743.84	1300.46
744.02	1306.60
744.20	1327.08
744.38	1232.88
744.56	1290.22
744.74	1320.94
744.92	1251.31
745.10	1265.64
745.28	1222.64
745.46	1331.18
745.64	1198.06
745.82	1265.64
746.00	1294.32
746.18	1259.50
746.36	1290.22
746.54	1202.16
746.72	1290.22
746.90	1269.74
747.08	1325.04
747.26	1253.36
747.44	1284.08
747.62	1314.80
747.80	1282.03
747.98	1275.88
748.15	1341.42
748.33	1331.18
748.51	1251.31
748.69	1292.27
748.87	1277.93
749.05	1243.12
749.23	1279.98
749.41	1206.25
749.59	1312.75
749.77	1296.36
749.95	1277.93
750.13	1230.83
750.31	1241.07
750.49	1253.36
750.67	1290.22
750.85	1286.12
751.03	1224.69
751.20	1249.26
751.38	1267.69
751.56	1273.84
751.74	1251.31
751.92	1304.56
752.10	1230.83
752.28	1292.27
752.46	1247.21
752.64	1271.79
752.82	1333.23
753.00	1234.93
753.18	1255.40
753.35	1288.17
753.53	1302.51
753.71	1263.60
753.89	1355.76
754.07	1259.50
754.25	1314.80
754.43	1234.93
754.61	1255.40
754.79	1243.12
754.97	1294.32
755.14	1263.60
755.32	1277.93
755.50	1312.75
755.68	1304.56
755.86	1220.59
756.04	1255.40
756.22	1196.01
756.40	1243.12
756.57	1253.36
756.75	1204.21
756.93	1304.56
757.11	1245.16
757.29	1275.88
757.47	1265.64
757.65	1284.08
757.82	1263.60
758.00	1261.55
758.18	1296.36
758.36	1282.03
758.54	1259.50
758.72	1316.84
758.90	1271.79
759.07	1339.37
759.25	1269.74
759.43	1316.84
759.61	1282.03
759.79	1316.84
759.97	1208.30
760.15	1193.97
760.32	1239.02
760.50	1333.23
760.68	1239.02
760.86	1249.26
761.04	1247.21
761.22	1257.45
761.39	1339.37
761.57	1290.22
761.75	1253.36
761.93	1296.36
762.11	1198.06
762.28	1210.35
762.46	1333.23
762.64	1253.36
762.82	1265.64
763.00	1163.25
763.18	1259.50
763.35	1226.73
763.53	1277.93
763.71	1312.75
763.89	1202.16
764.07	1239.02
764.24	1232.88
764.42	1198.06
764.60	1261.55
764.78	1310.70
764.96	1386.47
765.13	1271.79
765.31	1224.69
765.49	1288.17
765.67	1198.06
765.84	1265.64
766.02	1347.56
766.20	1234.93
766.38	1236.97
766.56	1236.97
766.73	1302.51
766.91	1288.17
767.09	1286.12
767.27	1316.84
767.44	1267.69
767.62	1251.31
767.80	1257.45
767.98	1298.41
768.15	1302.51
768.33	1253.36
768.51	1267.69
768.69	1300.46
768.87	1212.40
769.04	1222.64
769.22	1304.56
769.40	1329.13
769.58	1296.36
769.75	1316.84
769.93	1241.07
770.11	1228.78
770.28	1261.55
770.46	1329.13
770.64	1257.45
770.82	1325.04
770.99	1306.60
771.17	1271.79
771.35	1243.12
771.53	1271.79
771.70	1228.78
771.88	1220.59
772.06	1284.08
772.23	1236.97
772.41	1288.17
772.59	1273.84
772.77	1210.35
772.94	1196.01
773.12	1292.27
773.30	1267.69
773.47	1286.12
773.65	1327.08
773.83	1228.78
774.01	1284.08
774.18	1282.03
774.36	1269.74
774.54	1204.21
774.71	1265.64
774.89	1288.17
775.07	1249.26
775.24	1290.22
775.42	1290.22
775.60	1253.36
775.78	1269.74
775.95	1273.84
776.13	1222.64
776.31	1269.74
776.48	1300.46
776.66	1212.40
776.84	1171.44
777.01	1259.50
777.19	1257.45
777.37	1263.60
777.54	1292.27
777.72	1275.88
777.90	1247.21
778.07	1277.93
778.25	1271.79
778.43	1269.74
778.60	1288.17
778.78	1249.26
778.96	1253.36
779.13	1347.56
779.31	1245.16
779.49	1290.22
779.66	1208.30
779.84	1183.73
780.01	1257.45
780.19	1310.70
780.37	1253.36
780.54	1294.32
780.72	1226.73
780.90	1351.66
781.07	1241.07
781.25	1318.89
781.43	1232.88
781.60	1208.30
781.78	1333.23
781.95	1226.73
782.13	1255.40
782.31	1279.98
782.48	1263.60
782.66	1335.28
782.83	1335.28
783.01	1261.55
783.19	1251.31
783.36	1308.65
783.54	1296.36
783.72	1273.84
783.89	1183.73
784.07	1224.69
784.24	1265.64
784.42	1251.31
784.60	1277.93
784.77	1179.63
784.95	1239.02
785.12	1273.84
785.30	1247.21
785.47	1282.03
785.65	1210.35
785.83	1294.32
786.00	1247.21
786.18	1247.21
786.35	1245.16
786.53	1261.55
786.71	1249.26
786.88	1273.84
787.06	1273.84
787.23	1245.16
787.41	1261.55
787.58	1230.83
787.76	1263.60
787.94	1239.02
788.11	1222.64
788.29	1279.98
788.46	1290.22
788.64	1269.74
788.81	1193.97
788.99	1306.60
789.16	1290.22
789.34	1306.60
789.52	1245.16
789.69	1269.74
789.87	1230.83
790.04	1259.50
790.22	1353.71
790.39	1314.80
790.57	1261.55
790.74	1253.36
790.92	1226.73
791.09	1251.31
791.27	1288.17
791.44	1302.51
791.62	1241.07
791.79	1200.11
791.97	1341.42
792.15	1265.64
792.32	1239.02
792.50	1236.97
792.67	1343.47
792.85	1314.80
793.02	1275.88
793.20	1257.45
793.37	1265.64
793.55	1320.94
793.72	1343.47
793.90	1265.64
794.07	1277.93
794.25	1296.36
794.42	1241.07
794.60	1243.12
794.77	1210.35
794.95	1243.12
795.12	1316.84
795.30	1265.64
795.47	1267.69
795.65	1284.08
795.82	1208.30
796.00	1269.74
796.17	1251.31
796.34	1247.21
796.52	1253.36
796.69	1265.64
796.87	1236.97
797.04	1259.50
797.22	1259.50
797.39	1249.26
797.57	1253.36
797.74	1279.98
797.92	1185.77
798.09	1239.02
798.27	1312.75
798.44	1300.46
798.62	1300.46
798.79	1181.68
798.96	1249.26
799.14	1196.01
799.31	1302.51
799.49	1267.69
799.66	1318.89
799.84	1310.70
800.01	1202.16
800.19	1282.03
800.36	1155.05
800.53	1257.45
800.71	1310.70
800.88	1241.07
801.06	1269.74
801.23	1296.36
801.41	1290.22
801.58	1292.27
801.75	1204.21
801.93	1269.74
802.10	1294.32
802.28	1253.36
802.45	1288.17
802.63	1263.60
802.80	1255.40
802.97	1249.26
803.15	1296.36
803.32	1314.80
803.50	1343.47
803.67	1263.60
803.84	1275.88
804.02	1261.55
804.19	1253.36
804.37	1232.88
804.54	1298.41
804.71	1286.12
804.89	1196.01
805.06	1236.97
805.24	1282.03
805.41	1265.64
805.58	1234.93
805.76	1327.08
805.93	1265.64
806.10	1288.17
806.28	1208.30
806.45	1255.40
806.63	1341.42
806.80	1224.69
806.97	1277.93
807.15	1253.36
807.32	1241.07
807.49	1308.65
807.67	1245.16
807.84	1290.22
808.01	1265.64
808.19	1300.46
808.36	1282.03
808.54	1290.22
808.71	1296.36
808.88	1277.93
809.06	1296.36
809.23	1279.98
809.40	1292.27
809.58	1288.17
809.75	1255.40
809.92	1265.64
810.10	1329.13
810.27	1206.25
810.44	1255.40
810.62	1355.76
810.79	1304.56
810.96	1302.51
811.14	1216.49
811.31	1273.84
811.48	1267.69
811.66	1212.40
811.83	1333.23
812.00	1255.40
812.18	1286.12
812.35	1239.02
812.52	1210.35
812.69	1273.84
812.87	1331.18
813.04	1310.70
813.21	1269.74
813.39	1255.40
813.56	1259.50
813.73	1257.45
813.91	1185.77
814.08	1271.79
814.25	1267.69
814.42	1253.36
814.60	1335.28
814.77	1216.49
814.94	1236.97
815.12	1306.60
815.29	1296.36
815.46	1241.07
815.63	1304.56
815.81	1220.59
815.98	1234.93
816.15	1277.93
816.33	1257.45
816.50	1286.12
816.67	1269.74
816.84	1282.03
817.02	1251.31
817.19	1314.80
817.36	1212.40
817.53	1257.45
817.71	1286.12
817.88	1236.97
818.05	1239.02
818.22	1216.49
818.40	1269.74
818.57	1230.83
818.74	1277.93
818.91	1286.12
819.09	1236.97
819.26	1279.98
819.43	1236.97
819.60	1273.84
819.78	1302.51
819.95	1230.83
820.12	1220.59
820.29	1259.50
820.47	1241.07
820.64	1292.27
820.81	1253.36
820.98	1251.31
821.15	1150.96
821.33	1322.99
821.50	1282.03
821.67	1271.79
821.84	1206.25
822.02	1239.02
822.19	1282.03
822.36	1265.64
822.53	1282.03
822.70	1296.36
822.88	1230.83
823.05	1310.70
823.22	1218.54
823.39	1337.32
823.56	1337.32
823.74	1347.56
823.91	1308.65
824.08	1212.40
824.25	1351.66
824.42	1282.03
824.60	1204.21
824.77	1212.40
824.94	1247.21
825.11	1282.03
825.28	1191.92
825.45	1261.55
825.63	1253.36
825.80	1183.73
825.97	1241.07
826.14	1290.22
826.31	1263.60
826.48	1284.08
826.66	1251.31
826.83	1247.21
827.00	1277.93
827.17	1286.12
827.34	1236.97
827.51	1245.16
827.69	1265.64
827.86	1257.45
828.03	1290.22
828.20	1263.60
828.37	1300.46
828.54	1325.04
828.71	1294.32
828.89	1271.79
829.06	1202.16
829.23	1300.46
829.40	1279.98
829.57	1259.50
829.74	1202.16
829.91	1255.40
830.09	1308.65
830.26	1228.78
830.43	1271.79
830.60	1214.45
830.77	1239.02
830.94	1208.30
831.11	1282.03
831.28	1257.45
831.46	1298.41
831.63	1290.22
831.80	1267.69
831.97	1290.22
832.14	1196.01
832.31	1267.69
832.48	1329.13
832.65	1282.03
832.82	1200.11
832.99	1230.83
833.17	1220.59
833.34	1327.08
833.51	1294.32
833.68	1290.22
833.85	1230.83
834.02	1259.50
834.19	1232.88
834.36	1294.32
834.53	1253.36
834.70	1322.99
834.87	1236.97
835.04	1239.02
835.22	1279.98
835.39	1251.31
835.56	1286.12
835.73	1292.27
835.90	1271.79
836.07	1273.84
836.24	1302.51
836.41	1273.84
836.58	1320.94
836.75	1265.64
836.92	1343.47
837.09	1310.70
837.26	1206.25
837.43	1257.45
837.60	1196.01
837.77	1271.79
837.94	1224.69
838.12	1282.03
838.29	1333.23
838.46	1247.21
838.63	1312.75
838.80	1210.35
838.97	1251.31
839.14	1310.70
839.31	1310.70
839.48	1239.02
839.65	1273.84
839.82	1234.93
839.99	1200.11
840.16	1327.08
840.33	1193.97
840.50	1247.21
840.67	1277.93
840.84	1230.83
841.01	1282.03
841.18	1294.32
841.35	1265.64
841.52	1269.74
841.69	1302.51
841.86	1296.36
842.03	1249.26
842.20	1263.60
842.37	1239.02
842.54	1255.40
842.71	1228.78
842.88	1275.88
843.05	1247.21
843.22	1271.79
843.39	1245.16
843.56	1232.88
843.73	1251.31
843.90	1222.64
844.07	1349.61
844.24	1230.83
844.41	1247.21
844.58	1279.98
844.75	1296.36
844.92	1382.38
845.09	1183.73
845.26	1294.32
845.43	1300.46
845.60	1165.29
845.77	1245.16
845.94	1282.03
846.10	1306.60
846.27	1269.74
846.44	1322.99
846.61	1257.45
846.78	1259.50
846.95	1259.50
847.12	1290.22
847.29	1265.64
847.46	1300.46
847.63	1288.17
847.80	1271.79
847.97	1282.03
848.14	1284.08
848.31	1310.70
848.48	1249.26
848.65	1230.83
848.82	1290.22
848.98	1263.60
849.15	1212.40
849.32	1150.96
849.49	1290.22
849.66	1255.40
849.83	1300.46
850.00	1222.64
850.17	1353.71
850.34	1286.12
850.51	1275.88
850.68	1253.36
850.85	1253.36
851.01	1300.46
851.18	1265.64
851.35	1243.12
851.52	1282.03
851.69	1273.84
851.86	1247.21
852.03	1220.59
852.20	1312.75
852.37	1234.93
852.53	1232.88
852.70	1296.36
852.87	1290.22
853.04	1286.12
853.21	1177.58
853.38	1277.93
853.55	1277.93
853.72	1290.22
853.89	1306.60
854.05	1222.64
854.22	1146.86
854.39	1236.97
854.56	1267.69
854.73	1331.18
854.90	1245.16
855.07	1208.30
855.23	1284.08
855.40	1353.71
855.57	1249.26
855.74	1257.45
855.91	1300.46
856.08	1300.46
856.25	1177.58
856.41	1257.45
856.58	1234.93
856.75	1241.07
856.92	1232.88
857.09	1271.79
857.26	1267.69
857.42	1308.65
857.59	1271.79
857.76	1241.07
857.93	1220.59
858.10	1275.88
858.27	1204.21
858.43	1271.79
858.60	1304.56
858.77	1282.03
858.94	1243.12
859.11	1224.69
859.27	1253.36
859.44	1239.02
859.61	1263.60
859.78	1243.12
859.95	1251.31
860.12	1247.21
860.28	1247.21
860.45	1265.64
860.62	1236.97
860.79	1181.68
860.95	1251.31
861.12	1255.40
861.29	1208.30
861.46	1239.02
861.63	1226.73
861.79	1245.16
861.96	1247.21
862.13	1269.74
862.30	1259.50
862.47	1292.27
862.63	1202.16
862.80	1345.52
862.97	1263.60
863.14	1179.63
863.30	1279.98
863.47	1267.69
863.64	1269.74
863.81	1322.99
863.97	1357.80
864.14	1320.94
864.31	1257.45
864.48	1261.55
864.65	1187.82
864.81	1316.84
864.98	1249.26
865.15	1251.31
865.32	1232.88
865.48	1322.99
865.65	1232.88
865.82	1277.93
865.98	1265.64
866.15	1273.84
866.32	1232.88
866.49	1271.79
866.65	1216.49
866.82	1228.78
866.99	1316.84
867.16	1284.08
867.32	1329.13
867.49	1296.36
867.66	1273.84
867.83	1239.02
867.99	1318.89
868.16	1200.11
868.33	1249.26
868.49	1279.98
868.66	1316.84
868.83	1282.03
868.99	1236.97
869.16	1204.21
869.33	1298.41
869.50	1255.40
869.66	1255.40
869.83	1294.32
870.00	1298.41
870.16	1241.07
870.33	1232.88
870.50	1222.64
870.66	1286.12
870.83	1265.64
871.00	1261.55
871.17	1300.46
871.33	1245.16
871.50	1259.50
871.67	1228.78
871.83	1271.79
872.00	1265.64
872.17	1286.12
872.33	1325.04
872.50	1232.88
872.67	1261.55
872.83	1286.12
873.00	1210.35
873.17	1273.84
873.33	1245.16
873.50	1294.32
873.67	1269.74
873.83	1277.93
874.00	1243.12
874.16	1275.88
874.33	1282.03
874.50	1247.21
874.66	1341.42
874.83	1212.40
875.00	1210.35
875.16	1282.03
875.33	1331.18
875.50	1224.69
875.66	1243.12
875.83	1341.42
875.99	1265.64
876.16	1257.45
876.33	1298.41
876.49	1263.60
876.66	1267.69
876.83	1224.69
876.99	1253.36
877.16	1288.17
877.32	1271.79
877.49	1282.03
877.66	1308.65
877.82	1292.27
877.99	1241.07
878.15	1206.25
878.32	1236.97
878.49	1259.50
878.65	1251.31
878.82	1267.69
878.98	1355.76
879.15	1269.74
879.32	1196.01
879.48	1314.80
879.65	1247.21
879.81	1333.23
879.98	1335.28
880.15	1298.41
880.31	1282.03
880.48	1279.98
880.64	1282.03
880.81	1271.79
880.97	1339.37
881.14	1374.19
881.31	1251.31
881.47	1347.56
881.64	1290.22
881.80	1265.64
881.97	1255.40
882.13	1322.99
882.30	1282.03
882.47	1249.26
882.63	1230.83
882.80	1247.21
882.96	1298.41
883.13	1214.45
883.29	1294.32
883.46	1302.51
883.62	1241.07
883.79	1253.36
883.95	1210.35
884.12	1273.84
884.29	1204.21
884.45	1288.17
884.62	1341.42
884.78	1257.45
884.95	1296.36
885.11	1279.98
885.28	1325.04
885.44	1327.08
885.61	1275.88
885.77	1331.18
885.94	1247.21
886.10	1247.21
886.27	1310.70
886.43	1282.03
886.60	1290.22
886.76	1290.22
886.93	1253.36
887.09	1282.03
887.26	1232.88
887.42	1212.40
887.59	1226.73
887.75	1282.03
887.92	1228.78
888.08	1257.45
888.25	1351.66
888.41	1257.45
888.58	1308.65
888.74	1335.28
888.91	1249.26
>>>>>End Processed Spectral Data<<<<<
