SpectraSuite Data File
++++++++++++++++++++++++++++++++++++
Date: Sun Apr 03 19:55:29 CEST 2016
User: root
Dark Spectrum Present: No
Reference Spectrum Present: No
Number of Sampled Component Spectra: 1
Spectrometers: USB4C02835
Integration Time (usec): 10000 (USB4C02835)
Spectra Averaged: 1 (USB4C02835)
Boxcar Smoothing: 0 (USB4C02835)
Correct for Electrical Dark: No (USB4C02835)
Strobe/Lamp Enabled: No (USB4C02835)
Correct for Detector Non-linearity: No (USB4C02835)
Correct for Stray Light: No (USB4C02835)
Number of Pixels in Processed Spectrum: 3648
>>>>>Begin Processed Spectral Data<<<<<
177.47	1337.32
177.69	1337.32
177.91	1337.32
178.13	1290.22
178.36	1288.17
178.58	1236.97
178.80	1232.88
179.02	1239.02
179.24	1331.18
179.46	1286.12
179.68	1290.22
179.90	1267.69
180.13	1269.74
180.35	1247.21
180.57	1325.04
180.79	1253.36
181.01	1329.13
181.23	1222.64
181.45	1249.26
181.67	1224.69
181.90	1333.23
182.12	1304.56
182.34	1288.17
182.56	1212.40
182.78	1253.36
183.00	1261.55
183.22	1253.36
183.44	1228.78
183.66	1259.50
183.89	1196.01
184.11	1318.89
184.33	1282.03
184.55	1271.79
184.77	1310.70
184.99	1273.84
185.21	1322.99
185.43	1234.93
185.65	1282.03
185.87	1296.36
186.10	1257.45
186.32	1220.59
186.54	1288.17
186.76	1185.77
186.98	1261.55
187.20	1312.75
187.42	1286.12
187.64	1241.07
187.86	1296.36
188.08	1263.60
188.30	1288.17
188.52	1169.39
188.75	1339.37
188.97	1249.26
189.19	1210.35
189.41	1333.23
189.63	1271.79
189.85	1249.26
190.07	1216.49
190.29	1249.26
190.51	1249.26
190.73	1179.63
190.95	1296.36
191.17	1269.74
191.39	1216.49
191.61	1232.88
191.84	1261.55
192.06	1257.45
192.28	1218.54
192.50	1302.51
192.72	1206.25
192.94	1290.22
193.16	1224.69
193.38	1228.78
193.60	1232.88
193.82	1255.40
194.04	1286.12
194.26	1265.64
194.48	1259.50
194.70	1339.37
194.92	1245.16
195.14	1249.26
195.36	1239.02
195.58	1179.63
195.80	1269.74
196.02	1253.36
196.24	1269.74
196.46	1269.74
196.69	1210.35
196.91	1253.36
197.13	1253.36
197.35	1230.83
197.57	1214.45
197.79	1378.28
198.01	1279.98
198.23	1208.30
198.45	1239.02
198.67	1306.60
198.89	1269.74
199.11	1241.07
199.33	1292.27
199.55	1279.98
199.77	1220.59
199.99	1239.02
200.21	1353.71
200.43	1277.93
200.65	1255.40
200.87	1253.36
201.09	1290.22
201.31	1245.16
201.53	1259.50
201.75	1327.08
201.97	1288.17
202.19	1279.98
202.41	1279.98
202.63	1150.96
202.85	1279.98
203.07	1241.07
203.29	1177.58
203.51	1261.55
203.73	1222.64
203.95	1318.89
204.17	1314.80
204.39	1316.84
204.61	1255.40
204.83	1294.32
205.05	1249.26
205.27	1269.74
205.49	1259.50
205.71	1257.45
205.93	1189.87
206.15	1282.03
206.37	1282.03
206.59	1241.07
206.81	1265.64
207.03	1316.84
207.25	1279.98
207.47	1232.88
207.69	1249.26
207.91	1265.64
208.13	1277.93
208.34	1210.35
208.56	1333.23
208.78	1255.40
209.00	1210.35
209.22	1333.23
209.44	1298.41
209.66	1263.60
209.88	1259.50
210.10	1265.64
210.32	1271.79
210.54	1257.45
210.76	1220.59
210.98	1304.56
211.20	1284.08
211.42	1322.99
211.64	1234.93
211.86	1294.32
212.08	1269.74
212.30	1296.36
212.52	1257.45
212.74	1212.40
212.96	1253.36
213.17	1308.65
213.39	1239.02
213.61	1245.16
213.83	1300.46
214.05	1284.08
214.27	1259.50
214.49	1267.69
214.71	1243.12
214.93	1359.85
215.15	1204.21
215.37	1275.88
215.59	1261.55
215.81	1314.80
216.03	1228.78
216.24	1239.02
216.46	1257.45
216.68	1296.36
216.90	1245.16
217.12	1206.25
217.34	1310.70
217.56	1355.76
217.78	1271.79
218.00	1345.52
218.22	1232.88
218.44	1171.44
218.66	1243.12
218.87	1232.88
219.09	1294.32
219.31	1232.88
219.53	1253.36
219.75	1249.26
219.97	1200.11
220.19	1271.79
220.41	1279.98
220.63	1316.84
220.85	1251.31
221.06	1226.73
221.28	1284.08
221.50	1234.93
221.72	1269.74
221.94	1236.97
222.16	1187.82
222.38	1333.23
222.60	1251.31
222.82	1288.17
223.03	1325.04
223.25	1273.84
223.47	1220.59
223.69	1296.36
223.91	1265.64
224.13	1247.21
224.35	1361.90
224.57	1310.70
224.78	1257.45
225.00	1261.55
225.22	1263.60
225.44	1222.64
225.66	1251.31
225.88	1247.21
226.10	1257.45
226.32	1261.55
226.53	1318.89
226.75	1290.22
226.97	1292.27
227.19	1259.50
227.41	1236.97
227.63	1269.74
227.85	1202.16
228.06	1288.17
228.28	1249.26
228.50	1200.11
228.72	1298.41
228.94	1206.25
229.16	1243.12
229.37	1216.49
229.59	1267.69
229.81	1318.89
230.03	1239.02
230.25	1245.16
230.47	1181.68
230.69	1257.45
230.90	1259.50
231.12	1247.21
231.34	1290.22
231.56	1286.12
231.78	1236.97
232.00	1298.41
232.21	1257.45
232.43	1277.93
232.65	1257.45
232.87	1275.88
233.09	1284.08
233.30	1228.78
233.52	1230.83
233.74	1310.70
233.96	1292.27
234.18	1302.51
234.40	1181.68
234.61	1312.75
234.83	1239.02
235.05	1239.02
235.27	1300.46
235.49	1322.99
235.70	1298.41
235.92	1187.82
236.14	1298.41
236.36	1239.02
236.58	1265.64
236.79	1271.79
237.01	1245.16
237.23	1318.89
237.45	1267.69
237.67	1300.46
237.88	1251.31
238.10	1267.69
238.32	1269.74
238.54	1220.59
238.76	1296.36
238.97	1265.64
239.19	1370.09
239.41	1339.37
239.63	1343.47
239.85	1290.22
240.06	1187.82
240.28	1228.78
240.50	1251.31
240.72	1308.65
240.93	1277.93
241.15	1257.45
241.37	1275.88
241.59	1294.32
241.81	1210.35
242.02	1306.60
242.24	1296.36
242.46	1300.46
242.68	1302.51
242.89	1257.45
243.11	1271.79
243.33	1273.84
243.55	1273.84
243.76	1259.50
243.98	1181.68
244.20	1302.51
244.42	1273.84
244.64	1341.42
244.85	1218.54
245.07	1277.93
245.29	1265.64
245.51	1263.60
245.72	1275.88
245.94	1337.32
246.16	1271.79
246.38	1292.27
246.59	1239.02
246.81	1341.42
247.03	1255.40
247.24	1228.78
247.46	1269.74
247.68	1257.45
247.90	1261.55
248.11	1259.50
248.33	1253.36
248.55	1296.36
248.77	1249.26
248.98	1329.13
249.20	1255.40
249.42	1234.93
249.64	1306.60
249.85	1247.21
250.07	1228.78
250.29	1265.64
250.50	1327.08
250.72	1245.16
250.94	1333.23
251.16	1316.84
251.37	1239.02
251.59	1267.69
251.81	1216.49
252.02	1247.21
252.24	1263.60
252.46	1255.40
252.68	1259.50
252.89	1335.28
253.11	1228.78
253.33	1279.98
253.54	1247.21
253.76	1279.98
253.98	1271.79
254.20	1216.49
254.41	1277.93
254.63	1284.08
254.85	1316.84
255.06	1372.14
255.28	1177.58
255.50	1282.03
255.71	1251.31
255.93	1230.83
256.15	1277.93
256.36	1249.26
256.58	1202.16
256.80	1306.60
257.02	1218.54
257.23	1247.21
257.45	1290.22
257.67	1288.17
257.88	1298.41
258.10	1298.41
258.32	1277.93
258.53	1263.60
258.75	1263.60
258.97	1255.40
259.18	1300.46
259.40	1273.84
259.62	1282.03
259.83	1329.13
260.05	1265.64
260.27	1282.03
260.48	1214.45
260.70	1222.64
260.92	1263.60
261.13	1271.79
261.35	1277.93
261.57	1255.40
261.78	1222.64
262.00	1259.50
262.22	1320.94
262.43	1298.41
262.65	1300.46
262.86	1329.13
263.08	1228.78
263.30	1292.27
263.51	1243.12
263.73	1310.70
263.95	1275.88
264.16	1304.56
264.38	1179.63
264.60	1304.56
264.81	1273.84
265.03	1327.08
265.25	1302.51
265.46	1265.64
265.68	1288.17
265.89	1249.26
266.11	1275.88
266.33	1333.23
266.54	1222.64
266.76	1259.50
266.98	1304.56
267.19	1359.85
267.41	1212.40
267.62	1232.88
267.84	1273.84
268.06	1265.64
268.27	1267.69
268.49	1212.40
268.70	1304.56
268.92	1302.51
269.14	1239.02
269.35	1181.68
269.57	1253.36
269.79	1271.79
270.00	1269.74
270.22	1290.22
270.43	1216.49
270.65	1249.26
270.87	1304.56
271.08	1263.60
271.30	1288.17
271.51	1249.26
271.73	1331.18
271.95	1320.94
272.16	1327.08
272.38	1273.84
272.59	1228.78
272.81	1224.69
273.02	1251.31
273.24	1253.36
273.46	1298.41
273.67	1206.25
273.89	1216.49
274.10	1298.41
274.32	1310.70
274.54	1202.16
274.75	1196.01
274.97	1322.99
275.18	1245.16
275.40	1249.26
275.61	1253.36
275.83	1253.36
276.05	1239.02
276.26	1228.78
276.48	1279.98
276.69	1247.21
276.91	1191.92
277.12	1275.88
277.34	1275.88
277.55	1292.27
277.77	1282.03
277.99	1243.12
278.20	1298.41
278.42	1187.82
278.63	1314.80
278.85	1212.40
279.06	1296.36
279.28	1310.70
279.49	1261.55
279.71	1267.69
279.93	1243.12
280.14	1263.60
280.36	1224.69
280.57	1312.75
280.79	1271.79
281.00	1296.36
281.22	1282.03
281.43	1310.70
281.65	1214.45
281.86	1249.26
282.08	1273.84
282.29	1335.28
282.51	1325.04
282.73	1306.60
282.94	1318.89
283.16	1298.41
283.37	1216.49
283.59	1294.32
283.80	1253.36
284.02	1208.30
284.23	1193.97
284.45	1282.03
284.66	1302.51
284.88	1249.26
285.09	1259.50
285.31	1212.40
285.52	1218.54
285.74	1335.28
285.95	1275.88
286.17	1312.75
286.38	1267.69
286.60	1245.16
286.81	1243.12
287.03	1288.17
287.24	1277.93
287.46	1290.22
287.67	1341.42
287.89	1230.83
288.10	1247.21
288.32	1325.04
288.53	1234.93
288.75	1263.60
288.96	1312.75
289.18	1216.49
289.39	1271.79
289.61	1322.99
289.82	1277.93
290.04	1236.97
290.25	1351.66
290.47	1196.01
290.68	1273.84
290.90	1239.02
291.11	1245.16
291.33	1273.84
291.54	1282.03
291.76	1234.93
291.97	1263.60
292.18	1320.94
292.40	1294.32
292.61	1214.45
292.83	1310.70
293.04	1263.60
293.26	1335.28
293.47	1273.84
293.69	1351.66
293.90	1273.84
294.12	1234.93
294.33	1294.32
294.55	1263.60
294.76	1282.03
294.97	1298.41
295.19	1269.74
295.40	1214.45
295.62	1320.94
295.83	1296.36
296.05	1216.49
296.26	1318.89
296.48	1292.27
296.69	1273.84
296.90	1282.03
297.12	1322.99
297.33	1208.30
297.55	1255.40
297.76	1198.06
297.98	1247.21
298.19	1253.36
298.41	1239.02
298.62	1214.45
298.83	1302.51
299.05	1216.49
299.26	1251.31
299.48	1359.85
299.69	1265.64
299.90	1273.84
300.12	1318.89
300.33	1222.64
300.55	1267.69
300.76	1296.36
300.98	1208.30
301.19	1210.35
301.40	1245.16
301.62	1288.17
301.83	1259.50
302.05	1191.92
302.26	1249.26
302.47	1249.26
302.69	1349.61
302.90	1302.51
303.12	1247.21
303.33	1247.21
303.54	1304.56
303.76	1263.60
303.97	1275.88
304.19	1271.79
304.40	1308.65
304.61	1318.89
304.83	1241.07
305.04	1286.12
305.26	1290.22
305.47	1271.79
305.68	1241.07
305.90	1255.40
306.11	1253.36
306.33	1265.64
306.54	1310.70
306.75	1261.55
306.97	1183.73
307.18	1314.80
307.39	1275.88
307.61	1275.88
307.82	1290.22
308.04	1384.43
308.25	1241.07
308.46	1282.03
308.68	1220.59
308.89	1286.12
309.10	1204.21
309.32	1257.45
309.53	1230.83
309.74	1232.88
309.96	1263.60
310.17	1314.80
310.39	1294.32
310.60	1208.30
310.81	1249.26
311.03	1251.31
311.24	1253.36
311.45	1228.78
311.67	1261.55
311.88	1320.94
312.09	1251.31
312.31	1273.84
312.52	1226.73
312.73	1273.84
312.95	1335.28
313.16	1236.97
313.37	1243.12
313.59	1226.73
313.80	1253.36
314.01	1228.78
314.23	1292.27
314.44	1247.21
314.65	1251.31
314.87	1343.47
315.08	1230.83
315.29	1179.63
315.51	1335.28
315.72	1310.70
315.93	1302.51
316.15	1300.46
316.36	1273.84
316.57	1202.16
316.79	1239.02
317.00	1306.60
317.21	1267.69
317.43	1304.56
317.64	1261.55
317.85	1279.98
318.07	1261.55
318.28	1241.07
318.49	1259.50
318.70	1173.49
318.92	1265.64
319.13	1361.90
319.34	1349.61
319.56	1271.79
319.77	1312.75
319.98	1255.40
320.20	1247.21
320.41	1251.31
320.62	1288.17
320.83	1193.97
321.05	1277.93
321.26	1257.45
321.47	1257.45
321.69	1277.93
321.90	1263.60
322.11	1320.94
322.32	1167.34
322.54	1230.83
322.75	1282.03
322.96	1302.51
323.18	1294.32
323.39	1312.75
323.60	1312.75
323.81	1304.56
324.03	1286.12
324.24	1279.98
324.45	1271.79
324.66	1271.79
324.88	1247.21
325.09	1288.17
325.30	1236.97
325.52	1286.12
325.73	1257.45
325.94	1251.31
326.15	1245.16
326.37	1206.25
326.58	1282.03
326.79	1290.22
327.00	1228.78
327.22	1273.84
327.43	1349.61
327.64	1222.64
327.85	1241.07
328.07	1298.41
328.28	1337.32
328.49	1271.79
328.70	1189.87
328.92	1320.94
329.13	1220.59
329.34	1232.88
329.55	1322.99
329.76	1220.59
329.98	1310.70
330.19	1308.65
330.40	1318.89
330.61	1241.07
330.83	1306.60
331.04	1296.36
331.25	1331.18
331.46	1265.64
331.68	1306.60
331.89	1226.73
332.10	1202.16
332.31	1261.55
332.52	1185.77
332.74	1310.70
332.95	1284.08
333.16	1316.84
333.37	1255.40
333.58	1251.31
333.80	1284.08
334.01	1314.80
334.22	1279.98
334.43	1236.97
334.64	1273.84
334.86	1183.73
335.07	1294.32
335.28	1279.98
335.49	1214.45
335.70	1357.80
335.92	1214.45
336.13	1370.09
336.34	1226.73
336.55	1300.46
336.76	1222.64
336.98	1241.07
337.19	1306.60
337.40	1355.76
337.61	1234.93
337.82	1200.11
338.04	1310.70
338.25	1167.34
338.46	1345.52
338.67	1249.26
338.88	1298.41
339.09	1212.40
339.31	1261.55
339.52	1300.46
339.73	1212.40
339.94	1255.40
340.15	1222.64
340.36	1263.60
340.58	1284.08
340.79	1296.36
341.00	1286.12
341.21	1253.36
341.42	1218.54
341.63	1265.64
341.85	1298.41
342.06	1267.69
342.27	1294.32
342.48	1269.74
342.69	1282.03
342.90	1261.55
343.12	1224.69
343.33	1273.84
343.54	1294.32
343.75	1308.65
343.96	1200.11
344.17	1314.80
344.38	1232.88
344.60	1179.63
344.81	1320.94
345.02	1290.22
345.23	1204.21
345.44	1277.93
345.65	1216.49
345.86	1279.98
346.07	1204.21
346.29	1255.40
346.50	1224.69
346.71	1210.35
346.92	1292.27
347.13	1312.75
347.34	1294.32
347.55	1267.69
347.76	1204.21
347.98	1200.11
348.19	1294.32
348.40	1247.21
348.61	1245.16
348.82	1320.94
349.03	1275.88
349.24	1271.79
349.45	1331.18
349.66	1286.12
349.88	1247.21
350.09	1304.56
350.30	1257.45
350.51	1308.65
350.72	1335.28
350.93	1286.12
351.14	1273.84
351.35	1298.41
351.56	1259.50
351.77	1247.21
351.99	1245.16
352.20	1259.50
352.41	1212.40
352.62	1259.50
352.83	1230.83
353.04	1312.75
353.25	1241.07
353.46	1222.64
353.67	1298.41
353.88	1239.02
354.09	1191.92
354.30	1273.84
354.52	1230.83
354.73	1339.37
354.94	1300.46
355.15	1259.50
355.36	1331.18
355.57	1249.26
355.78	1292.27
355.99	1228.78
356.20	1234.93
356.41	1288.17
356.62	1341.42
356.83	1282.03
357.04	1232.88
357.25	1218.54
357.46	1241.07
357.68	1284.08
357.89	1265.64
358.10	1253.36
358.31	1333.23
358.52	1300.46
358.73	1259.50
358.94	1282.03
359.15	1277.93
359.36	1239.02
359.57	1300.46
359.78	1269.74
359.99	1245.16
360.20	1239.02
360.41	1261.55
360.62	1208.30
360.83	1255.40
361.04	1255.40
361.25	1257.45
361.46	1288.17
361.67	1273.84
361.88	1290.22
362.09	1318.89
362.30	1267.69
362.51	1271.79
362.72	1193.97
362.93	1218.54
363.14	1277.93
363.35	1275.88
363.56	1306.60
363.78	1196.01
363.99	1253.36
364.20	1263.60
364.41	1234.93
364.62	1288.17
364.83	1267.69
365.04	1320.94
365.25	1253.36
365.46	1230.83
365.67	1269.74
365.88	1275.88
366.09	1271.79
366.30	1282.03
366.51	1312.75
366.72	1218.54
366.93	1298.41
367.14	1226.73
367.35	1347.56
367.56	1241.07
367.77	1273.84
367.98	1269.74
368.18	1298.41
368.39	1331.18
368.60	1316.84
368.81	1191.92
369.02	1306.60
369.23	1290.22
369.44	1265.64
369.65	1286.12
369.86	1333.23
370.07	1224.69
370.28	1261.55
370.49	1294.32
370.70	1282.03
370.91	1257.45
371.12	1310.70
371.33	1247.21
371.54	1255.40
371.75	1220.59
371.96	1273.84
372.17	1153.01
372.38	1173.49
372.59	1239.02
372.80	1249.26
373.01	1249.26
373.22	1273.84
373.43	1316.84
373.64	1228.78
373.85	1220.59
374.06	1245.16
374.26	1263.60
374.47	1261.55
374.68	1200.11
374.89	1208.30
375.10	1304.56
375.31	1263.60
375.52	1327.08
375.73	1331.18
375.94	1314.80
376.15	1189.87
376.36	1191.92
376.57	1325.04
376.78	1284.08
376.99	1255.40
377.20	1271.79
377.40	1245.16
377.61	1232.88
377.82	1249.26
378.03	1245.16
378.24	1222.64
378.45	1230.83
378.66	1296.36
378.87	1239.02
379.08	1208.30
379.29	1218.54
379.50	1253.36
379.71	1296.36
379.91	1310.70
380.12	1310.70
380.33	1243.12
380.54	1255.40
380.75	1329.13
380.96	1353.71
381.17	1257.45
381.38	1245.16
381.59	1249.26
381.80	1341.42
382.00	1269.74
382.21	1292.27
382.42	1304.56
382.63	1318.89
382.84	1204.21
383.05	1275.88
383.26	1339.37
383.47	1279.98
383.68	1292.27
383.88	1247.21
384.09	1251.31
384.30	1247.21
384.51	1273.84
384.72	1284.08
384.93	1306.60
385.14	1292.27
385.35	1322.99
385.55	1310.70
385.76	1273.84
385.97	1249.26
386.18	1253.36
386.39	1251.31
386.60	1218.54
386.81	1224.69
387.02	1247.21
387.22	1312.75
387.43	1288.17
387.64	1320.94
387.85	1341.42
388.06	1243.12
388.27	1329.13
388.48	1251.31
388.68	1267.69
388.89	1310.70
389.10	1253.36
389.31	1302.51
389.52	1279.98
389.73	1275.88
389.93	1312.75
390.14	1273.84
390.35	1155.05
390.56	1312.75
390.77	1306.60
390.98	1249.26
391.18	1241.07
391.39	1261.55
391.60	1279.98
391.81	1222.64
392.02	1265.64
392.23	1216.49
392.43	1249.26
392.64	1290.22
392.85	1255.40
393.06	1247.21
393.27	1312.75
393.47	1259.50
393.68	1261.55
393.89	1273.84
394.10	1294.32
394.31	1265.64
394.52	1271.79
394.72	1284.08
394.93	1288.17
395.14	1245.16
395.35	1341.42
395.56	1275.88
395.76	1239.02
395.97	1210.35
396.18	1271.79
396.39	1290.22
396.60	1210.35
396.80	1331.18
397.01	1220.59
397.22	1267.69
397.43	1302.51
397.64	1224.69
397.84	1236.97
398.05	1241.07
398.26	1277.93
398.47	1183.73
398.67	1288.17
398.88	1218.54
399.09	1322.99
399.30	1257.45
399.51	1355.76
399.71	1263.60
399.92	1333.23
400.13	1259.50
400.34	1198.06
400.54	1218.54
400.75	1265.64
400.96	1265.64
401.17	1337.32
401.37	1202.16
401.58	1232.88
401.79	1245.16
402.00	1253.36
402.21	1316.84
402.41	1245.16
402.62	1232.88
402.83	1183.73
403.04	1314.80
403.24	1290.22
403.45	1304.56
403.66	1216.49
403.87	1261.55
404.07	1300.46
404.28	1243.12
404.49	1245.16
404.70	1277.93
404.90	1269.74
405.11	1300.46
405.32	1243.12
405.52	1241.07
405.73	1232.88
405.94	1224.69
406.15	1292.27
406.35	1286.12
406.56	1228.78
406.77	1255.40
406.98	1249.26
407.18	1279.98
407.39	1279.98
407.60	1218.54
407.80	1353.71
408.01	1292.27
408.22	1286.12
408.43	1208.30
408.63	1288.17
408.84	1277.93
409.05	1212.40
409.25	1220.59
409.46	1269.74
409.67	1232.88
409.88	1232.88
410.08	1191.92
410.29	1247.21
410.50	1292.27
410.70	1296.36
410.91	1179.63
411.12	1247.21
411.32	1220.59
411.53	1263.60
411.74	1255.40
411.95	1331.18
412.15	1234.93
412.36	1249.26
412.57	1241.07
412.77	1298.41
412.98	1302.51
413.19	1273.84
413.39	1210.35
413.60	1284.08
413.81	1257.45
414.01	1290.22
414.22	1277.93
414.43	1273.84
414.63	1232.88
414.84	1214.45
415.05	1241.07
415.25	1249.26
415.46	1202.16
415.67	1249.26
415.87	1327.08
416.08	1318.89
416.29	1265.64
416.49	1273.84
416.70	1230.83
416.91	1279.98
417.11	1247.21
417.32	1269.74
417.53	1296.36
417.73	1241.07
417.94	1261.55
418.15	1214.45
418.35	1255.40
418.56	1292.27
418.77	1298.41
418.97	1249.26
419.18	1273.84
419.38	1255.40
419.59	1267.69
419.80	1269.74
420.00	1282.03
420.21	1230.83
420.42	1224.69
420.62	1273.84
420.83	1200.11
421.04	1282.03
421.24	1273.84
421.45	1273.84
421.65	1253.36
421.86	1327.08
422.07	1202.16
422.27	1273.84
422.48	1191.92
422.69	1273.84
422.89	1261.55
423.10	1304.56
423.30	1234.93
423.51	1275.88
423.72	1288.17
423.92	1337.32
424.13	1261.55
424.33	1337.32
424.54	1310.70
424.75	1269.74
424.95	1316.84
425.16	1255.40
425.36	1277.93
425.57	1286.12
425.78	1232.88
425.98	1322.99
426.19	1279.98
426.39	1318.89
426.60	1282.03
426.81	1271.79
427.01	1251.31
427.22	1265.64
427.42	1282.03
427.63	1263.60
427.83	1236.97
428.04	1306.60
428.25	1271.79
428.45	1273.84
428.66	1314.80
428.86	1306.60
429.07	1271.79
429.28	1286.12
429.48	1257.45
429.69	1222.64
429.89	1335.28
430.10	1245.16
430.30	1269.74
430.51	1310.70
430.71	1261.55
430.92	1355.76
431.13	1257.45
431.33	1296.36
431.54	1302.51
431.74	1294.32
431.95	1290.22
432.15	1236.97
432.36	1206.25
432.56	1388.52
432.77	1265.64
432.98	1314.80
433.18	1224.69
433.39	1247.21
433.59	1277.93
433.80	1376.24
434.00	1265.64
434.21	1257.45
434.41	1261.55
434.62	1300.46
434.82	1277.93
435.03	1277.93
435.23	1318.89
435.44	1261.55
435.64	1322.99
435.85	1187.82
436.06	1308.65
436.26	1335.28
436.47	1249.26
436.67	1208.30
436.88	1247.21
437.08	1282.03
437.29	1218.54
437.49	1257.45
437.70	1210.35
437.90	1288.17
438.11	1271.79
438.31	1234.93
438.52	1273.84
438.72	1284.08
438.93	1269.74
439.13	1265.64
439.34	1288.17
439.54	1269.74
439.75	1279.98
439.95	1302.51
440.16	1273.84
440.36	1224.69
440.57	1294.32
440.77	1265.64
440.98	1298.41
441.18	1277.93
441.39	1210.35
441.59	1286.12
441.80	1341.42
442.00	1239.02
442.21	1286.12
442.41	1247.21
442.62	1279.98
442.82	1304.56
443.02	1241.07
443.23	1320.94
443.43	1208.30
443.64	1304.56
443.84	1312.75
444.05	1251.31
444.25	1316.84
444.46	1196.01
444.66	1232.88
444.87	1284.08
445.07	1216.49
445.28	1241.07
445.48	1374.19
445.69	1302.51
445.89	1359.85
446.09	1212.40
446.30	1259.50
446.50	1277.93
446.71	1251.31
446.91	1298.41
447.12	1277.93
447.32	1265.64
447.53	1361.90
447.73	1247.21
447.93	1271.79
448.14	1306.60
448.34	1320.94
448.55	1296.36
448.75	1210.35
448.96	1271.79
449.16	1288.17
449.36	1265.64
449.57	1251.31
449.77	1302.51
449.98	1296.36
450.18	1212.40
450.39	1296.36
450.59	1325.04
450.79	1255.40
451.00	1318.89
451.20	1292.27
451.41	1302.51
451.61	1261.55
451.81	1325.04
452.02	1322.99
452.22	1279.98
452.43	1286.12
452.63	1318.89
452.84	1222.64
453.04	1292.27
453.24	1279.98
453.45	1271.79
453.65	1183.73
453.86	1300.46
454.06	1310.70
454.26	1249.26
454.47	1300.46
454.67	1347.56
454.87	1245.16
455.08	1290.22
455.28	1191.92
455.49	1226.73
455.69	1255.40
455.89	1247.21
456.10	1306.60
456.30	1269.74
456.51	1320.94
456.71	1259.50
456.91	1300.46
457.12	1220.59
457.32	1290.22
457.52	1304.56
457.73	1263.60
457.93	1241.07
458.14	1259.50
458.34	1314.80
458.54	1310.70
458.75	1277.93
458.95	1329.13
459.15	1212.40
459.36	1335.28
459.56	1288.17
459.76	1282.03
459.97	1232.88
460.17	1300.46
460.37	1302.51
460.58	1265.64
460.78	1308.65
460.99	1263.60
461.19	1337.32
461.39	1329.13
461.60	1279.98
461.80	1253.36
462.00	1271.79
462.21	1269.74
462.41	1298.41
462.61	1357.80
462.82	1236.97
463.02	1306.60
463.22	1263.60
463.43	1251.31
463.63	1292.27
463.83	1282.03
464.04	1222.64
464.24	1279.98
464.44	1269.74
464.64	1306.60
464.85	1296.36
465.05	1337.32
465.25	1351.66
465.46	1232.88
465.66	1269.74
465.86	1232.88
466.07	1331.18
466.27	1273.84
466.47	1318.89
466.68	1247.21
466.88	1361.90
467.08	1247.21
467.29	1269.74
467.49	1343.47
467.69	1255.40
467.89	1271.79
468.10	1271.79
468.30	1294.32
468.50	1282.03
468.71	1273.84
468.91	1310.70
469.11	1247.21
469.31	1220.59
469.52	1165.29
469.72	1331.18
469.92	1284.08
470.13	1312.75
470.33	1300.46
470.53	1308.65
470.73	1282.03
470.94	1304.56
471.14	1189.87
471.34	1245.16
471.54	1335.28
471.75	1269.74
471.95	1275.88
472.15	1275.88
472.36	1302.51
472.56	1279.98
472.76	1187.82
472.96	1294.32
473.17	1286.12
473.37	1267.69
473.57	1284.08
473.77	1222.64
473.98	1259.50
474.18	1298.41
474.38	1241.07
474.58	1263.60
474.79	1298.41
474.99	1320.94
475.19	1304.56
475.39	1286.12
475.60	1335.28
475.80	1265.64
476.00	1177.58
476.20	1245.16
476.41	1249.26
476.61	1279.98
476.81	1284.08
477.01	1339.37
477.21	1208.30
477.42	1257.45
477.62	1386.47
477.82	1216.49
478.02	1181.68
478.23	1288.17
478.43	1275.88
478.63	1216.49
478.83	1277.93
479.03	1288.17
479.24	1363.95
479.44	1234.93
479.64	1277.93
479.84	1290.22
480.04	1259.50
480.25	1241.07
480.45	1298.41
480.65	1218.54
480.85	1263.60
481.06	1322.99
481.26	1296.36
481.46	1333.23
481.66	1247.21
481.86	1341.42
482.06	1226.73
482.27	1261.55
482.47	1290.22
482.67	1216.49
482.87	1230.83
483.07	1284.08
483.28	1267.69
483.48	1304.56
483.68	1236.97
483.88	1304.56
484.08	1232.88
484.29	1251.31
484.49	1187.82
484.69	1232.88
484.89	1300.46
485.09	1314.80
485.29	1257.45
485.50	1353.71
485.70	1200.11
485.90	1349.61
486.10	1234.93
486.30	1249.26
486.50	1263.60
486.71	1247.21
486.91	1357.80
487.11	1245.16
487.31	1277.93
487.51	1234.93
487.71	1247.21
487.91	1228.78
488.12	1308.65
488.32	1257.45
488.52	1279.98
488.72	1255.40
488.92	1294.32
489.12	1277.93
489.32	1267.69
489.53	1292.27
489.73	1288.17
489.93	1279.98
490.13	1320.94
490.33	1230.83
490.53	1312.75
490.73	1265.64
490.94	1245.16
491.14	1314.80
491.34	1335.28
491.54	1282.03
491.74	1220.59
491.94	1216.49
492.14	1245.16
492.34	1239.02
492.54	1271.79
492.75	1243.12
492.95	1322.99
493.15	1300.46
493.35	1271.79
493.55	1267.69
493.75	1247.21
493.95	1261.55
494.15	1236.97
494.35	1273.84
494.56	1273.84
494.76	1282.03
494.96	1261.55
495.16	1200.11
495.36	1265.64
495.56	1277.93
495.76	1263.60
495.96	1261.55
496.16	1273.84
496.36	1241.07
496.56	1255.40
496.77	1239.02
496.97	1314.80
497.17	1222.64
497.37	1322.99
497.57	1218.54
497.77	1220.59
497.97	1232.88
498.17	1284.08
498.37	1288.17
498.57	1261.55
498.77	1249.26
498.97	1220.59
499.17	1257.45
499.38	1322.99
499.58	1300.46
499.78	1337.32
499.98	1269.74
500.18	1239.02
500.38	1316.84
500.58	1275.88
500.78	1218.54
500.98	1288.17
501.18	1294.32
501.38	1271.79
501.58	1228.78
501.78	1322.99
501.98	1271.79
502.18	1294.32
502.38	1292.27
502.58	1261.55
502.78	1249.26
502.98	1312.75
503.18	1271.79
503.38	1284.08
503.59	1288.17
503.79	1204.21
503.99	1337.32
504.19	1198.06
504.39	1298.41
504.59	1312.75
504.79	1259.50
504.99	1290.22
505.19	1345.52
505.39	1259.50
505.59	1300.46
505.79	1228.78
505.99	1310.70
506.19	1288.17
506.39	1290.22
506.59	1265.64
506.79	1335.28
506.99	1267.69
507.19	1208.30
507.39	1318.89
507.59	1345.52
507.79	1306.60
507.99	1271.79
508.19	1255.40
508.39	1361.90
508.59	1279.98
508.79	1216.49
508.99	1255.40
509.19	1269.74
509.39	1261.55
509.59	1275.88
509.79	1284.08
509.99	1277.93
510.19	1224.69
510.39	1249.26
510.59	1245.16
510.79	1263.60
510.99	1243.12
511.19	1193.97
511.39	1306.60
511.59	1284.08
511.79	1243.12
511.99	1208.30
512.19	1247.21
512.38	1247.21
512.58	1275.88
512.78	1263.60
512.98	1306.60
513.18	1245.16
513.38	1216.49
513.58	1296.36
513.78	1302.51
513.98	1208.30
514.18	1275.88
514.38	1259.50
514.58	1327.08
514.78	1282.03
514.98	1316.84
515.18	1236.97
515.38	1353.71
515.58	1282.03
515.78	1265.64
515.98	1333.23
516.18	1314.80
516.38	1306.60
516.57	1335.28
516.77	1255.40
516.97	1269.74
517.17	1306.60
517.37	1255.40
517.57	1224.69
517.77	1259.50
517.97	1265.64
518.17	1302.51
518.37	1282.03
518.57	1249.26
518.77	1296.36
518.97	1269.74
519.16	1292.27
519.36	1304.56
519.56	1224.69
519.76	1271.79
519.96	1241.07
520.16	1275.88
520.36	1265.64
520.56	1290.22
520.76	1220.59
520.96	1302.51
521.16	1353.71
521.35	1230.83
521.55	1220.59
521.75	1236.97
521.95	1275.88
522.15	1290.22
522.35	1271.79
522.55	1198.06
522.75	1282.03
522.95	1325.04
523.14	1220.59
523.34	1290.22
523.54	1193.97
523.74	1298.41
523.94	1277.93
524.14	1267.69
524.34	1216.49
524.54	1236.97
524.73	1230.83
524.93	1263.60
525.13	1282.03
525.33	1290.22
525.53	1339.37
525.73	1206.25
525.93	1257.45
526.13	1273.84
526.32	1271.79
526.52	1263.60
526.72	1288.17
526.92	1282.03
527.12	1247.21
527.32	1320.94
527.52	1320.94
527.71	1222.64
527.91	1282.03
528.11	1269.74
528.31	1271.79
528.51	1247.21
528.71	1300.46
528.90	1277.93
529.10	1308.65
529.30	1339.37
529.50	1312.75
529.70	1300.46
529.90	1249.26
530.09	1294.32
530.29	1314.80
530.49	1314.80
530.69	1208.30
530.89	1282.03
531.09	1255.40
531.28	1286.12
531.48	1314.80
531.68	1271.79
531.88	1259.50
532.08	1239.02
532.28	1265.64
532.47	1218.54
532.67	1302.51
532.87	1265.64
533.07	1265.64
533.27	1259.50
533.46	1308.65
533.66	1284.08
533.86	1253.36
534.06	1247.21
534.26	1230.83
534.45	1167.34
534.65	1310.70
534.85	1247.21
535.05	1310.70
535.25	1253.36
535.44	1294.32
535.64	1259.50
535.84	1183.73
536.04	1234.93
536.24	1290.22
536.43	1302.51
536.63	1335.28
536.83	1327.08
537.03	1327.08
537.22	1282.03
537.42	1249.26
537.62	1243.12
537.82	1239.02
538.02	1355.76
538.21	1282.03
538.41	1308.65
538.61	1312.75
538.81	1273.84
539.00	1314.80
539.20	1269.74
539.40	1296.36
539.60	1320.94
539.79	1226.73
539.99	1327.08
540.19	1294.32
540.39	1247.21
540.58	1294.32
540.78	1282.03
540.98	1230.83
541.18	1306.60
541.37	1234.93
541.57	1251.31
541.77	1279.98
541.97	1327.08
542.16	1304.56
542.36	1296.36
542.56	1322.99
542.76	1241.07
542.95	1214.45
543.15	1361.90
543.35	1286.12
543.54	1228.78
543.74	1302.51
543.94	1282.03
544.14	1284.08
544.33	1312.75
544.53	1212.40
544.73	1263.60
544.93	1224.69
545.12	1320.94
545.32	1265.64
545.52	1251.31
545.71	1275.88
545.91	1282.03
546.11	1232.88
546.30	1302.51
546.50	1273.84
546.70	1265.64
546.90	1320.94
547.09	1275.88
547.29	1363.95
547.49	1247.21
547.68	1290.22
547.88	1216.49
548.08	1322.99
548.27	1290.22
548.47	1351.66
548.67	1245.16
548.87	1306.60
549.06	1253.36
549.26	1277.93
549.46	1263.60
549.65	1300.46
549.85	1318.89
550.05	1288.17
550.24	1286.12
550.44	1226.73
550.64	1286.12
550.83	1290.22
551.03	1288.17
551.23	1298.41
551.42	1327.08
551.62	1294.32
551.82	1263.60
552.01	1206.25
552.21	1247.21
552.41	1302.51
552.60	1222.64
552.80	1279.98
553.00	1265.64
553.19	1189.87
553.39	1275.88
553.59	1251.31
553.78	1277.93
553.98	1368.04
554.17	1218.54
554.37	1228.78
554.57	1353.71
554.76	1298.41
554.96	1261.55
555.16	1353.71
555.35	1308.65
555.55	1236.97
555.75	1316.84
555.94	1234.93
556.14	1279.98
556.33	1247.21
556.53	1288.17
556.73	1302.51
556.92	1257.45
557.12	1335.28
557.32	1322.99
557.51	1234.93
557.71	1322.99
557.90	1265.64
558.10	1261.55
558.30	1279.98
558.49	1298.41
558.69	1263.60
558.88	1222.64
559.08	1273.84
559.28	1312.75
559.47	1263.60
559.67	1286.12
559.86	1290.22
560.06	1257.45
560.26	1232.88
560.45	1224.69
560.65	1298.41
560.84	1298.41
561.04	1304.56
561.24	1322.99
561.43	1257.45
561.63	1271.79
561.82	1234.93
562.02	1339.37
562.22	1249.26
562.41	1366.00
562.61	1228.78
562.80	1320.94
563.00	1357.80
563.19	1261.55
563.39	1296.36
563.59	1286.12
563.78	1269.74
563.98	1294.32
564.17	1255.40
564.37	1320.94
564.56	1312.75
564.76	1275.88
564.96	1273.84
565.15	1335.28
565.35	1335.28
565.54	1312.75
565.74	1366.00
565.93	1341.42
566.13	1257.45
566.32	1279.98
566.52	1208.30
566.71	1284.08
566.91	1277.93
567.11	1261.55
567.30	1269.74
567.50	1241.07
567.69	1251.31
567.89	1288.17
568.08	1271.79
568.28	1263.60
568.47	1282.03
568.67	1290.22
568.86	1306.60
569.06	1306.60
569.25	1300.46
569.45	1288.17
569.64	1253.36
569.84	1298.41
570.04	1349.61
570.23	1243.12
570.43	1267.69
570.62	1273.84
570.82	1337.32
571.01	1337.32
571.21	1241.07
571.40	1263.60
571.60	1304.56
571.79	1320.94
571.99	1314.80
572.18	1232.88
572.38	1273.84
572.57	1269.74
572.77	1337.32
572.96	1257.45
573.16	1308.65
573.35	1267.69
573.55	1370.09
573.74	1314.80
573.94	1265.64
574.13	1255.40
574.33	1304.56
574.52	1241.07
574.71	1339.37
574.91	1273.84
575.10	1294.32
575.30	1327.08
575.49	1263.60
575.69	1286.12
575.88	1234.93
576.08	1245.16
576.27	1271.79
576.47	1325.04
576.66	1282.03
576.86	1269.74
577.05	1296.36
577.25	1239.02
577.44	1224.69
577.64	1202.16
577.83	1304.56
578.02	1271.79
578.22	1378.28
578.41	1318.89
578.61	1232.88
578.80	1325.04
579.00	1304.56
579.19	1273.84
579.39	1314.80
579.58	1298.41
579.77	1259.50
579.97	1318.89
580.16	1310.70
580.36	1271.79
580.55	1286.12
580.75	1296.36
580.94	1255.40
581.13	1312.75
581.33	1347.56
581.52	1304.56
581.72	1275.88
581.91	1282.03
582.11	1241.07
582.30	1251.31
582.49	1312.75
582.69	1253.36
582.88	1314.80
583.08	1273.84
583.27	1273.84
583.47	1267.69
583.66	1282.03
583.85	1261.55
584.05	1320.94
584.24	1236.97
584.44	1226.73
584.63	1286.12
584.82	1265.64
585.02	1247.21
585.21	1251.31
585.41	1294.32
585.60	1282.03
585.79	1320.94
585.99	1275.88
586.18	1241.07
586.37	1333.23
586.57	1308.65
586.76	1345.52
586.96	1316.84
587.15	1265.64
587.34	1255.40
587.54	1306.60
587.73	1298.41
587.93	1271.79
588.12	1234.93
588.31	1249.26
588.51	1294.32
588.70	1255.40
588.89	1322.99
589.09	1312.75
589.28	1255.40
589.47	1241.07
589.67	1224.69
589.86	1290.22
590.06	1306.60
590.25	1304.56
590.44	1331.18
590.64	1243.12
590.83	1279.98
591.02	1296.36
591.22	1290.22
591.41	1304.56
591.60	1243.12
591.80	1294.32
591.99	1243.12
592.18	1292.27
592.38	1327.08
592.57	1325.04
592.76	1290.22
592.96	1253.36
593.15	1279.98
593.34	1286.12
593.54	1243.12
593.73	1245.16
593.92	1271.79
594.12	1206.25
594.31	1224.69
594.50	1296.36
594.70	1263.60
594.89	1267.69
595.08	1304.56
595.28	1273.84
595.47	1329.13
595.66	1245.16
595.86	1302.51
596.05	1333.23
596.24	1327.08
596.43	1302.51
596.63	1341.42
596.82	1320.94
597.01	1265.64
597.21	1288.17
597.40	1273.84
597.59	1282.03
597.79	1243.12
597.98	1259.50
598.17	1261.55
598.36	1257.45
598.56	1316.84
598.75	1286.12
598.94	1241.07
599.14	1302.51
599.33	1343.47
599.52	1331.18
599.71	1308.65
599.91	1333.23
600.10	1312.75
600.29	1345.52
600.48	1302.51
600.68	1292.27
600.87	1208.30
601.06	1257.45
601.26	1294.32
601.45	1282.03
601.64	1335.28
601.83	1339.37
602.03	1273.84
602.22	1259.50
602.41	1355.76
602.60	1341.42
602.80	1265.64
602.99	1282.03
603.18	1378.28
603.37	1339.37
603.57	1363.95
603.76	1325.04
603.95	1269.74
604.14	1290.22
604.34	1320.94
604.53	1359.85
604.72	1239.02
604.91	1325.04
605.10	1273.84
605.30	1308.65
605.49	1257.45
605.68	1269.74
605.87	1265.64
606.07	1214.45
606.26	1286.12
606.45	1214.45
606.64	1181.68
606.84	1222.64
607.03	1288.17
607.22	1318.89
607.41	1284.08
607.60	1292.27
607.80	1234.93
607.99	1314.80
608.18	1261.55
608.37	1273.84
608.56	1277.93
608.76	1296.36
608.95	1343.47
609.14	1193.97
609.33	1241.07
609.52	1279.98
609.72	1245.16
609.91	1257.45
610.10	1271.79
610.29	1279.98
610.48	1312.75
610.68	1314.80
610.87	1300.46
611.06	1267.69
611.25	1310.70
611.44	1314.80
611.63	1261.55
611.83	1251.31
612.02	1294.32
612.21	1288.17
612.40	1284.08
612.59	1292.27
612.79	1224.69
612.98	1271.79
613.17	1308.65
613.36	1257.45
613.55	1230.83
613.74	1275.88
613.93	1230.83
614.13	1294.32
614.32	1318.89
614.51	1331.18
614.70	1263.60
614.89	1341.42
615.08	1232.88
615.28	1335.28
615.47	1249.26
615.66	1298.41
615.85	1259.50
616.04	1325.04
616.23	1327.08
616.42	1329.13
616.62	1335.28
616.81	1310.70
617.00	1255.40
617.19	1243.12
617.38	1282.03
617.57	1304.56
617.76	1329.13
617.95	1288.17
618.15	1271.79
618.34	1282.03
618.53	1273.84
618.72	1234.93
618.91	1277.93
619.10	1304.56
619.29	1267.69
619.48	1327.08
619.68	1308.65
619.87	1232.88
620.06	1267.69
620.25	1206.25
620.44	1386.47
620.63	1312.75
620.82	1296.36
621.01	1339.37
621.20	1236.97
621.39	1361.90
621.59	1284.08
621.78	1349.61
621.97	1341.42
622.16	1269.74
622.35	1341.42
622.54	1355.76
622.73	1241.07
622.92	1304.56
623.11	1230.83
623.30	1253.36
623.49	1331.18
623.68	1314.80
623.88	1236.97
624.07	1333.23
624.26	1304.56
624.45	1243.12
624.64	1216.49
624.83	1279.98
625.02	1310.70
625.21	1335.28
625.40	1312.75
625.59	1306.60
625.78	1318.89
625.97	1288.17
626.16	1310.70
626.35	1355.76
626.54	1306.60
626.74	1318.89
626.93	1267.69
627.12	1296.36
627.31	1292.27
627.50	1290.22
627.69	1284.08
627.88	1298.41
628.07	1247.21
628.26	1357.80
628.45	1259.50
628.64	1247.21
628.83	1261.55
629.02	1355.76
629.21	1290.22
629.40	1269.74
629.59	1314.80
629.78	1312.75
629.97	1327.08
630.16	1257.45
630.35	1304.56
630.54	1253.36
630.73	1312.75
630.92	1292.27
631.11	1368.04
631.30	1345.52
631.49	1378.28
631.68	1824.74
631.87	8310.66
632.06	30887.46
632.25	57670.80
632.44	65535.00
632.63	65535.00
632.82	65535.00
633.01	65535.00
633.20	33627.65
633.39	9396.08
633.58	4083.65
633.77	3766.21
633.96	3434.44
634.15	2885.59
634.34	2156.51
634.53	1912.80
634.72	2060.26
634.91	1728.49
635.10	1771.49
635.29	1683.43
635.48	1683.43
635.67	1660.90
635.86	1624.04
636.05	1544.17
636.24	1523.69
636.43	1478.63
636.62	1429.48
636.81	1431.53
637.00	1368.04
637.19	1353.71
637.38	1411.05
637.57	1310.70
637.76	1380.33
637.95	1406.95
638.14	1341.42
638.33	1314.80
638.52	1361.90
638.71	1273.84
638.89	1300.46
639.08	1273.84
639.27	1359.85
639.46	1198.06
639.65	1322.99
639.84	1267.69
640.03	1325.04
640.22	1232.88
640.41	1271.79
640.60	1290.22
640.79	1325.04
640.98	1314.80
641.17	1247.21
641.36	1261.55
641.55	1374.19
641.74	1325.04
641.92	1298.41
642.11	1232.88
642.30	1347.56
642.49	1200.11
642.68	1282.03
642.87	1263.60
643.06	1312.75
643.25	1333.23
643.44	1298.41
643.63	1234.93
643.82	1327.08
644.00	1239.02
644.19	1275.88
644.38	1308.65
644.57	1273.84
644.76	1310.70
644.95	1304.56
645.14	1298.41
645.33	1298.41
645.52	1273.84
645.71	1353.71
645.89	1214.45
646.08	1234.93
646.27	1275.88
646.46	1322.99
646.65	1337.32
646.84	1292.27
647.03	1300.46
647.22	1306.60
647.40	1249.26
647.59	1355.76
647.78	1239.02
647.97	1282.03
648.16	1298.41
648.35	1234.93
648.54	1345.52
648.73	1288.17
648.91	1208.30
649.10	1376.24
649.29	1312.75
649.48	1290.22
649.67	1228.78
649.86	1320.94
650.05	1296.36
650.23	1257.45
650.42	1187.82
650.61	1265.64
650.80	1255.40
650.99	1296.36
651.18	1273.84
651.36	1279.98
651.55	1292.27
651.74	1306.60
651.93	1249.26
652.12	1257.45
652.31	1228.78
652.49	1257.45
652.68	1380.33
652.87	1265.64
653.06	1239.02
653.25	1200.11
653.44	1277.93
653.62	1228.78
653.81	1257.45
654.00	1253.36
654.19	1251.31
654.38	1263.60
654.56	1249.26
654.75	1343.47
654.94	1261.55
655.13	1241.07
655.32	1296.36
655.51	1286.12
655.69	1261.55
655.88	1245.16
656.07	1175.53
656.26	1247.21
656.45	1294.32
656.63	1368.04
656.82	1327.08
657.01	1322.99
657.20	1271.79
657.38	1279.98
657.57	1241.07
657.76	1257.45
657.95	1294.32
658.14	1224.69
658.32	1245.16
658.51	1251.31
658.70	1251.31
658.89	1288.17
659.08	1234.93
659.26	1286.12
659.45	1277.93
659.64	1304.56
659.83	1220.59
660.01	1247.21
660.20	1302.51
660.39	1263.60
660.58	1255.40
660.76	1247.21
660.95	1277.93
661.14	1243.12
661.33	1220.59
661.51	1234.93
661.70	1312.75
661.89	1298.41
662.08	1239.02
662.26	1335.28
662.45	1300.46
662.64	1269.74
662.83	1251.31
663.01	1214.45
663.20	1269.74
663.39	1306.60
663.58	1230.83
663.76	1222.64
663.95	1286.12
664.14	1234.93
664.32	1259.50
664.51	1269.74
664.70	1232.88
664.89	1263.60
665.07	1255.40
665.26	1236.97
665.45	1318.89
665.64	1320.94
665.82	1312.75
666.01	1236.97
666.20	1228.78
666.38	1331.18
666.57	1282.03
666.76	1218.54
666.95	1241.07
667.13	1228.78
667.32	1239.02
667.51	1337.32
667.69	1265.64
667.88	1292.27
668.07	1245.16
668.25	1347.56
668.44	1257.45
668.63	1271.79
668.81	1286.12
669.00	1181.68
669.19	1265.64
669.38	1161.20
669.56	1349.61
669.75	1302.51
669.94	1386.47
670.12	1298.41
670.31	1347.56
670.50	1234.93
670.68	1263.60
670.87	1312.75
671.06	1228.78
671.24	1247.21
671.43	1269.74
671.62	1312.75
671.80	1220.59
671.99	1253.36
672.18	1251.31
672.36	1257.45
672.55	1173.49
672.74	1290.22
672.92	1298.41
673.11	1257.45
673.29	1261.55
673.48	1251.31
673.67	1269.74
673.85	1265.64
674.04	1277.93
674.23	1249.26
674.41	1290.22
674.60	1298.41
674.79	1294.32
674.97	1257.45
675.16	1202.16
675.34	1222.64
675.53	1234.93
675.72	1218.54
675.90	1273.84
676.09	1316.84
676.28	1212.40
676.46	1236.97
676.65	1286.12
676.83	1241.07
677.02	1210.35
677.21	1222.64
677.39	1267.69
677.58	1249.26
677.77	1257.45
677.95	1259.50
678.14	1218.54
678.32	1216.49
678.51	1236.97
678.70	1282.03
678.88	1269.74
679.07	1222.64
679.25	1234.93
679.44	1220.59
679.63	1243.12
679.81	1294.32
680.00	1314.80
680.18	1232.88
680.37	1255.40
680.55	1265.64
680.74	1273.84
680.93	1241.07
681.11	1208.30
681.30	1222.64
681.48	1269.74
681.67	1284.08
681.85	1269.74
682.04	1275.88
682.23	1277.93
682.41	1220.59
682.60	1300.46
682.78	1288.17
682.97	1312.75
683.15	1204.21
683.34	1253.36
683.53	1298.41
683.71	1314.80
683.90	1314.80
684.08	1271.79
684.27	1193.97
684.45	1312.75
684.64	1284.08
684.82	1300.46
685.01	1331.18
685.19	1220.59
685.38	1339.37
685.57	1298.41
685.75	1327.08
685.94	1300.46
686.12	1257.45
686.31	1255.40
686.49	1249.26
686.68	1265.64
686.86	1193.97
687.05	1292.27
687.23	1310.70
687.42	1304.56
687.60	1222.64
687.79	1265.64
687.97	1261.55
688.16	1255.40
688.34	1247.21
688.53	1236.97
688.71	1316.84
688.90	1249.26
689.08	1265.64
689.27	1232.88
689.45	1218.54
689.64	1325.04
689.82	1308.65
690.01	1306.60
690.19	1261.55
690.38	1308.65
690.56	1312.75
690.75	1243.12
690.93	1271.79
691.12	1247.21
691.30	1224.69
691.49	1251.31
691.67	1296.36
691.86	1329.13
692.04	1263.60
692.23	1263.60
692.41	1273.84
692.60	1279.98
692.78	1234.93
692.97	1271.79
693.15	1290.22
693.34	1187.82
693.52	1277.93
693.71	1273.84
693.89	1232.88
694.08	1241.07
694.26	1273.84
694.44	1245.16
694.63	1214.45
694.81	1243.12
695.00	1271.79
695.18	1232.88
695.37	1277.93
695.55	1318.89
695.74	1249.26
695.92	1191.92
696.10	1275.88
696.29	1376.24
696.47	1269.74
696.66	1241.07
696.84	1345.52
697.03	1304.56
697.21	1308.65
697.40	1316.84
697.58	1245.16
697.76	1253.36
697.95	1243.12
698.13	1288.17
698.32	1261.55
698.50	1257.45
698.68	1292.27
698.87	1275.88
699.05	1210.35
699.24	1294.32
699.42	1269.74
699.61	1228.78
699.79	1275.88
699.97	1241.07
700.16	1304.56
700.34	1218.54
700.53	1224.69
700.71	1259.50
700.89	1251.31
701.08	1265.64
701.26	1232.88
701.45	1296.36
701.63	1292.27
701.81	1306.60
702.00	1198.06
702.18	1290.22
702.37	1230.83
702.55	1232.88
702.73	1212.40
702.92	1224.69
703.10	1286.12
703.28	1290.22
703.47	1210.35
703.65	1234.93
703.84	1259.50
704.02	1222.64
704.20	1249.26
704.39	1253.36
704.57	1318.89
704.75	1339.37
704.94	1284.08
705.12	1224.69
705.30	1220.59
705.49	1263.60
705.67	1269.74
705.86	1288.17
706.04	1312.75
706.22	1269.74
706.41	1269.74
706.59	1255.40
706.77	1261.55
706.96	1341.42
707.14	1247.21
707.32	1341.42
707.51	1220.59
707.69	1290.22
707.87	1271.79
708.06	1279.98
708.24	1288.17
708.42	1257.45
708.61	1310.70
708.79	1259.50
708.97	1300.46
709.16	1279.98
709.34	1302.51
709.52	1214.45
709.71	1277.93
709.89	1247.21
710.07	1298.41
710.26	1318.89
710.44	1265.64
710.62	1249.26
710.80	1249.26
710.99	1265.64
711.17	1322.99
711.35	1290.22
711.54	1292.27
711.72	1228.78
711.90	1269.74
712.09	1265.64
712.27	1329.13
712.45	1318.89
712.63	1181.68
712.82	1253.36
713.00	1310.70
713.18	1255.40
713.37	1241.07
713.55	1228.78
713.73	1279.98
713.91	1249.26
714.10	1306.60
714.28	1175.53
714.46	1277.93
714.65	1308.65
714.83	1241.07
715.01	1236.97
715.19	1282.03
715.38	1282.03
715.56	1212.40
715.74	1222.64
715.92	1294.32
716.11	1296.36
716.29	1247.21
716.47	1247.21
716.65	1251.31
716.84	1269.74
717.02	1288.17
717.20	1247.21
717.38	1279.98
717.57	1243.12
717.75	1200.11
717.93	1271.79
718.11	1284.08
718.30	1210.35
718.48	1265.64
718.66	1220.59
718.84	1236.97
719.03	1224.69
719.21	1310.70
719.39	1220.59
719.57	1296.36
719.75	1208.30
719.94	1181.68
720.12	1286.12
720.30	1249.26
720.48	1296.36
720.67	1312.75
720.85	1183.73
721.03	1320.94
721.21	1347.56
721.39	1259.50
721.58	1230.83
721.76	1296.36
721.94	1251.31
722.12	1296.36
722.30	1196.01
722.49	1222.64
722.67	1343.47
722.85	1253.36
723.03	1210.35
723.21	1337.32
723.40	1296.36
723.58	1220.59
723.76	1239.02
723.94	1320.94
724.12	1284.08
724.30	1263.60
724.49	1292.27
724.67	1247.21
724.85	1298.41
725.03	1259.50
725.21	1241.07
725.40	1282.03
725.58	1236.97
725.76	1251.31
725.94	1249.26
726.12	1288.17
726.30	1314.80
726.49	1263.60
726.67	1224.69
726.85	1298.41
727.03	1277.93
727.21	1320.94
727.39	1349.61
727.57	1292.27
727.76	1247.21
727.94	1249.26
728.12	1232.88
728.30	1282.03
728.48	1279.98
728.66	1193.97
728.84	1296.36
729.03	1251.31
729.21	1286.12
729.39	1316.84
729.57	1214.45
729.75	1298.41
729.93	1232.88
730.11	1273.84
730.30	1308.65
730.48	1239.02
730.66	1286.12
730.84	1312.75
731.02	1232.88
731.20	1286.12
731.38	1282.03
731.56	1320.94
731.74	1310.70
731.93	1275.88
732.11	1300.46
732.29	1263.60
732.47	1322.99
732.65	1265.64
732.83	1245.16
733.01	1290.22
733.19	1298.41
733.37	1308.65
733.56	1269.74
733.74	1318.89
733.92	1277.93
734.10	1282.03
734.28	1253.36
734.46	1359.85
734.64	1236.97
734.82	1316.84
735.00	1267.69
735.18	1257.45
735.36	1232.88
735.54	1300.46
735.73	1208.30
735.91	1286.12
736.09	1277.93
736.27	1239.02
736.45	1267.69
736.63	1175.53
736.81	1290.22
736.99	1337.32
737.17	1245.16
737.35	1273.84
737.53	1239.02
737.71	1200.11
737.89	1230.83
738.07	1320.94
738.25	1327.08
738.43	1314.80
738.61	1306.60
738.80	1226.73
738.98	1292.27
739.16	1251.31
739.34	1302.51
739.52	1306.60
739.70	1290.22
739.88	1333.23
740.06	1269.74
740.24	1318.89
740.42	1267.69
740.60	1232.88
740.78	1204.21
740.96	1253.36
741.14	1290.22
741.32	1185.77
741.50	1296.36
741.68	1241.07
741.86	1232.88
742.04	1292.27
742.22	1308.65
742.40	1263.60
742.58	1284.08
742.76	1230.83
742.94	1310.70
743.12	1241.07
743.30	1267.69
743.48	1327.08
743.66	1277.93
743.84	1224.69
744.02	1296.36
744.20	1290.22
744.38	1279.98
744.56	1259.50
744.74	1265.64
744.92	1263.60
745.10	1226.73
745.28	1228.78
745.46	1318.89
745.64	1316.84
745.82	1349.61
746.00	1257.45
746.18	1232.88
746.36	1251.31
746.54	1265.64
746.72	1282.03
746.90	1245.16
747.08	1286.12
747.26	1329.13
747.44	1298.41
747.62	1208.30
747.80	1306.60
747.98	1298.41
748.15	1310.70
748.33	1275.88
748.51	1275.88
748.69	1380.33
748.87	1257.45
749.05	1228.78
749.23	1208.30
749.41	1308.65
749.59	1312.75
749.77	1271.79
749.95	1234.93
750.13	1249.26
750.31	1251.31
750.49	1267.69
750.67	1265.64
750.85	1259.50
751.03	1282.03
751.20	1325.04
751.38	1241.07
751.56	1249.26
751.74	1282.03
751.92	1298.41
752.10	1226.73
752.28	1259.50
752.46	1218.54
752.64	1202.16
752.82	1308.65
753.00	1241.07
753.18	1224.69
753.35	1214.45
753.53	1310.70
753.71	1191.92
753.89	1296.36
754.07	1333.23
754.25	1257.45
754.43	1282.03
754.61	1314.80
754.79	1273.84
754.97	1331.18
755.14	1279.98
755.32	1259.50
755.50	1181.68
755.68	1269.74
755.86	1294.32
756.04	1267.69
756.22	1288.17
756.40	1257.45
756.57	1282.03
756.75	1271.79
756.93	1298.41
757.11	1335.28
757.29	1208.30
757.47	1251.31
757.65	1228.78
757.82	1216.49
758.00	1239.02
758.18	1198.06
758.36	1228.78
758.54	1198.06
758.72	1290.22
758.90	1327.08
759.07	1261.55
759.25	1298.41
759.43	1249.26
759.61	1277.93
759.79	1269.74
759.97	1236.97
760.15	1249.26
760.32	1267.69
760.50	1290.22
760.68	1320.94
760.86	1263.60
761.04	1212.40
761.22	1286.12
761.39	1251.31
761.57	1284.08
761.75	1320.94
761.93	1214.45
762.11	1261.55
762.28	1290.22
762.46	1271.79
762.64	1241.07
762.82	1306.60
763.00	1236.97
763.18	1314.80
763.35	1275.88
763.53	1255.40
763.71	1279.98
763.89	1236.97
764.07	1308.65
764.24	1245.16
764.42	1318.89
764.60	1284.08
764.78	1210.35
764.96	1265.64
765.13	1314.80
765.31	1306.60
765.49	1222.64
765.67	1318.89
765.84	1224.69
766.02	1210.35
766.20	1290.22
766.38	1308.65
766.56	1267.69
766.73	1267.69
766.91	1259.50
767.09	1232.88
767.27	1302.51
767.44	1294.32
767.62	1298.41
767.80	1216.49
767.98	1271.79
768.15	1284.08
768.33	1265.64
768.51	1257.45
768.69	1249.26
768.87	1255.40
769.04	1335.28
769.22	1234.93
769.40	1271.79
769.58	1284.08
769.75	1249.26
769.93	1273.84
770.11	1282.03
770.28	1318.89
770.46	1234.93
770.64	1263.60
770.82	1298.41
770.99	1294.32
771.17	1277.93
771.35	1247.21
771.53	1282.03
771.70	1322.99
771.88	1261.55
772.06	1220.59
772.23	1353.71
772.41	1329.13
772.59	1230.83
772.77	1271.79
772.94	1234.93
773.12	1286.12
773.30	1265.64
773.47	1294.32
773.65	1296.36
773.83	1255.40
774.01	1273.84
774.18	1226.73
774.36	1347.56
774.54	1232.88
774.71	1322.99
774.89	1282.03
775.07	1259.50
775.24	1284.08
775.42	1216.49
775.60	1298.41
775.78	1339.37
775.95	1241.07
776.13	1204.21
776.31	1148.91
776.48	1286.12
776.66	1236.97
776.84	1316.84
777.01	1312.75
777.19	1224.69
777.37	1269.74
777.54	1292.27
777.72	1333.23
777.90	1286.12
778.07	1251.31
778.25	1282.03
778.43	1261.55
778.60	1183.73
778.78	1196.01
778.96	1261.55
779.13	1222.64
779.31	1298.41
779.49	1263.60
779.66	1312.75
779.84	1234.93
780.01	1255.40
780.19	1314.80
780.37	1232.88
780.54	1282.03
780.72	1267.69
780.90	1277.93
781.07	1239.02
781.25	1306.60
781.43	1282.03
781.60	1271.79
781.78	1343.47
781.95	1265.64
782.13	1224.69
782.31	1249.26
782.48	1232.88
782.66	1314.80
782.83	1337.32
783.01	1269.74
783.19	1204.21
783.36	1239.02
783.54	1253.36
783.72	1320.94
783.89	1206.25
784.07	1296.36
784.24	1275.88
784.42	1247.21
784.60	1247.21
784.77	1224.69
784.95	1331.18
785.12	1243.12
785.30	1243.12
785.47	1232.88
785.65	1261.55
785.83	1224.69
786.00	1284.08
786.18	1333.23
786.35	1333.23
786.53	1355.76
786.71	1247.21
786.88	1234.93
787.06	1173.49
787.23	1308.65
787.41	1234.93
787.58	1296.36
787.76	1298.41
787.94	1271.79
788.11	1329.13
788.29	1304.56
788.46	1222.64
788.64	1224.69
788.81	1294.32
788.99	1290.22
789.16	1230.83
789.34	1263.60
789.52	1245.16
789.69	1245.16
789.87	1267.69
790.04	1273.84
790.22	1312.75
790.39	1249.26
790.57	1245.16
790.74	1314.80
790.92	1310.70
791.09	1271.79
791.27	1339.37
791.44	1282.03
791.62	1265.64
791.79	1269.74
791.97	1267.69
792.15	1286.12
792.32	1325.04
792.50	1263.60
792.67	1267.69
792.85	1255.40
793.02	1259.50
793.20	1230.83
793.37	1202.16
793.55	1304.56
793.72	1200.11
793.90	1243.12
794.07	1296.36
794.25	1345.52
794.42	1304.56
794.60	1359.85
794.77	1259.50
794.95	1257.45
795.12	1300.46
795.30	1267.69
795.47	1253.36
795.65	1255.40
795.82	1298.41
796.00	1236.97
796.17	1249.26
796.34	1337.32
796.52	1259.50
796.69	1308.65
796.87	1284.08
797.04	1222.64
797.22	1261.55
797.39	1306.60
797.57	1288.17
797.74	1273.84
797.92	1236.97
798.09	1239.02
798.27	1282.03
798.44	1267.69
798.62	1304.56
798.79	1239.02
798.96	1325.04
799.14	1339.37
799.31	1169.39
799.49	1304.56
799.66	1236.97
799.84	1202.16
800.01	1259.50
800.19	1245.16
800.36	1269.74
800.53	1189.87
800.71	1288.17
800.88	1314.80
801.06	1271.79
801.23	1257.45
801.41	1327.08
801.58	1224.69
801.75	1185.77
801.93	1247.21
802.10	1241.07
802.28	1218.54
802.45	1196.01
802.63	1216.49
802.80	1337.32
802.97	1286.12
803.15	1296.36
803.32	1263.60
803.50	1193.97
803.67	1232.88
803.84	1257.45
804.02	1304.56
804.19	1267.69
804.37	1251.31
804.54	1263.60
804.71	1312.75
804.89	1345.52
805.06	1322.99
805.24	1322.99
805.41	1243.12
805.58	1263.60
805.76	1243.12
805.93	1232.88
806.10	1322.99
806.28	1275.88
806.45	1245.16
806.63	1304.56
806.80	1228.78
806.97	1284.08
807.15	1316.84
807.32	1239.02
807.49	1325.04
807.67	1208.30
807.84	1298.41
808.01	1171.44
808.19	1263.60
808.36	1271.79
808.54	1249.26
808.71	1245.16
808.88	1273.84
809.06	1265.64
809.23	1259.50
809.40	1247.21
809.58	1273.84
809.75	1232.88
809.92	1212.40
810.10	1251.31
810.27	1249.26
810.44	1292.27
810.62	1302.51
810.79	1257.45
810.96	1284.08
811.14	1257.45
811.31	1271.79
811.48	1234.93
811.66	1282.03
811.83	1212.40
812.00	1322.99
812.18	1267.69
812.35	1347.56
812.52	1218.54
812.69	1202.16
812.87	1316.84
813.04	1224.69
813.21	1306.60
813.39	1257.45
813.56	1224.69
813.73	1286.12
813.91	1284.08
814.08	1259.50
814.25	1243.12
814.42	1257.45
814.60	1296.36
814.77	1286.12
814.94	1271.79
815.12	1288.17
815.29	1255.40
815.46	1312.75
815.63	1284.08
815.81	1253.36
815.98	1200.11
816.15	1228.78
816.33	1253.36
816.50	1286.12
816.67	1298.41
816.84	1216.49
817.02	1239.02
817.19	1230.83
817.36	1282.03
817.53	1245.16
817.71	1249.26
817.88	1226.73
818.05	1320.94
818.22	1277.93
818.40	1288.17
818.57	1279.98
818.74	1187.82
818.91	1269.74
819.09	1247.21
819.26	1292.27
819.43	1282.03
819.60	1255.40
819.78	1279.98
819.95	1245.16
820.12	1257.45
820.29	1232.88
820.47	1310.70
820.64	1292.27
820.81	1263.60
820.98	1208.30
821.15	1234.93
821.33	1251.31
821.50	1224.69
821.67	1212.40
821.84	1257.45
822.02	1230.83
822.19	1292.27
822.36	1265.64
822.53	1271.79
822.70	1273.84
822.88	1249.26
823.05	1212.40
823.22	1257.45
823.39	1243.12
823.56	1273.84
823.74	1216.49
823.91	1249.26
824.08	1306.60
824.25	1273.84
824.42	1247.21
824.60	1245.16
824.77	1296.36
824.94	1247.21
825.11	1249.26
825.28	1320.94
825.45	1310.70
825.63	1288.17
825.80	1226.73
825.97	1253.36
826.14	1335.28
826.31	1230.83
826.48	1261.55
826.66	1232.88
826.83	1232.88
827.00	1245.16
827.17	1249.26
827.34	1243.12
827.51	1191.92
827.69	1282.03
827.86	1294.32
828.03	1216.49
828.20	1257.45
828.37	1316.84
828.54	1202.16
828.71	1230.83
828.89	1271.79
829.06	1220.59
829.23	1286.12
829.40	1241.07
829.57	1247.21
829.74	1288.17
829.91	1165.29
830.09	1220.59
830.26	1220.59
830.43	1290.22
830.60	1300.46
830.77	1208.30
830.94	1288.17
831.11	1208.30
831.28	1277.93
831.46	1316.84
831.63	1273.84
831.80	1298.41
831.97	1253.36
832.14	1302.51
832.31	1224.69
832.48	1318.89
832.65	1298.41
832.82	1241.07
832.99	1279.98
833.17	1290.22
833.34	1228.78
833.51	1300.46
833.68	1279.98
833.85	1265.64
834.02	1265.64
834.19	1269.74
834.36	1277.93
834.53	1271.79
834.70	1322.99
834.87	1257.45
835.04	1224.69
835.22	1206.25
835.39	1337.32
835.56	1259.50
835.73	1249.26
835.90	1230.83
836.07	1249.26
836.24	1335.28
836.41	1345.52
836.58	1222.64
836.75	1279.98
836.92	1208.30
837.09	1298.41
837.26	1218.54
837.43	1329.13
837.60	1265.64
837.77	1208.30
837.94	1214.45
838.12	1224.69
838.29	1249.26
838.46	1214.45
838.63	1263.60
838.80	1208.30
838.97	1263.60
839.14	1206.25
839.31	1310.70
839.48	1282.03
839.65	1269.74
839.82	1257.45
839.99	1286.12
840.16	1300.46
840.33	1208.30
840.50	1298.41
840.67	1318.89
840.84	1255.40
841.01	1286.12
841.18	1181.68
841.35	1193.97
841.52	1273.84
841.69	1228.78
841.86	1314.80
842.03	1265.64
842.20	1273.84
842.37	1302.51
842.54	1181.68
842.71	1277.93
842.88	1261.55
843.05	1185.77
843.22	1314.80
843.39	1327.08
843.56	1314.80
843.73	1302.51
843.90	1263.60
844.07	1265.64
844.24	1193.97
844.41	1243.12
844.58	1214.45
844.75	1265.64
844.92	1234.93
845.09	1370.09
845.26	1298.41
845.43	1261.55
845.60	1273.84
845.77	1230.83
845.94	1282.03
846.10	1234.93
846.27	1247.21
846.44	1304.56
846.61	1292.27
846.78	1251.31
846.95	1245.16
847.12	1245.16
847.29	1318.89
847.46	1247.21
847.63	1265.64
847.80	1279.98
847.97	1282.03
848.14	1167.34
848.31	1320.94
848.48	1372.14
848.65	1320.94
848.82	1204.21
848.98	1218.54
849.15	1298.41
849.32	1259.50
849.49	1288.17
849.66	1296.36
849.83	1300.46
850.00	1263.60
850.17	1318.89
850.34	1189.87
850.51	1234.93
850.68	1241.07
850.85	1269.74
851.01	1282.03
851.18	1275.88
851.35	1187.82
851.52	1241.07
851.69	1304.56
851.86	1296.36
852.03	1304.56
852.20	1249.26
852.37	1294.32
852.53	1175.53
852.70	1257.45
852.87	1296.36
853.04	1257.45
853.21	1224.69
853.38	1359.85
853.55	1265.64
853.72	1267.69
853.89	1243.12
854.05	1290.22
854.22	1286.12
854.39	1200.11
854.56	1263.60
854.73	1279.98
854.90	1339.37
855.07	1337.32
855.23	1310.70
855.40	1210.35
855.57	1253.36
855.74	1259.50
855.91	1261.55
856.08	1269.74
856.25	1267.69
856.41	1286.12
856.58	1198.06
856.75	1304.56
856.92	1312.75
857.09	1269.74
857.26	1286.12
857.42	1314.80
857.59	1167.34
857.76	1325.04
857.93	1288.17
858.10	1279.98
858.27	1241.07
858.43	1325.04
858.60	1243.12
858.77	1271.79
858.94	1216.49
859.11	1269.74
859.27	1275.88
859.44	1212.40
859.61	1249.26
859.78	1279.98
859.95	1318.89
860.12	1322.99
860.28	1312.75
860.45	1347.56
860.62	1269.74
860.79	1269.74
860.95	1277.93
861.12	1202.16
861.29	1263.60
861.46	1329.13
861.63	1269.74
861.79	1282.03
861.96	1265.64
862.13	1202.16
862.30	1265.64
862.47	1263.60
862.63	1216.49
862.80	1290.22
862.97	1388.52
863.14	1331.18
863.30	1292.27
863.47	1275.88
863.64	1210.35
863.81	1288.17
863.97	1314.80
864.14	1298.41
864.31	1306.60
864.48	1232.88
864.65	1216.49
864.81	1257.45
864.98	1259.50
865.15	1277.93
865.32	1255.40
865.48	1241.07
865.65	1275.88
865.82	1298.41
865.98	1222.64
866.15	1259.50
866.32	1279.98
866.49	1159.15
866.65	1318.89
866.82	1206.25
866.99	1312.75
867.16	1306.60
867.32	1279.98
867.49	1234.93
867.66	1265.64
867.83	1282.03
867.99	1290.22
868.16	1290.22
868.33	1314.80
868.49	1316.84
868.66	1216.49
868.83	1216.49
868.99	1251.31
869.16	1290.22
869.33	1308.65
869.50	1271.79
869.66	1247.21
869.83	1255.40
870.00	1300.46
870.16	1261.55
870.33	1296.36
870.50	1290.22
870.66	1251.31
870.83	1294.32
871.00	1257.45
871.17	1275.88
871.33	1294.32
871.50	1306.60
871.67	1273.84
871.83	1306.60
872.00	1230.83
872.17	1282.03
872.33	1202.16
872.50	1198.06
872.67	1312.75
872.83	1198.06
873.00	1288.17
873.17	1234.93
873.33	1302.51
873.50	1255.40
873.67	1267.69
873.83	1292.27
874.00	1226.73
874.16	1269.74
874.33	1314.80
874.50	1253.36
874.66	1314.80
874.83	1282.03
875.00	1335.28
875.16	1267.69
875.33	1245.16
875.50	1232.88
875.66	1269.74
875.83	1302.51
875.99	1220.59
876.16	1230.83
876.33	1275.88
876.49	1290.22
876.66	1191.92
876.83	1259.50
876.99	1249.26
877.16	1212.40
877.32	1251.31
877.49	1239.02
877.66	1259.50
877.82	1284.08
877.99	1265.64
878.15	1249.26
878.32	1308.65
878.49	1310.70
878.65	1306.60
878.82	1259.50
878.98	1275.88
879.15	1290.22
879.32	1214.45
879.48	1286.12
879.65	1253.36
879.81	1279.98
879.98	1257.45
880.15	1220.59
880.31	1290.22
880.48	1353.71
880.64	1263.60
880.81	1257.45
880.97	1230.83
881.14	1210.35
881.31	1234.93
881.47	1255.40
881.64	1290.22
881.80	1300.46
881.97	1279.98
882.13	1275.88
882.30	1308.65
882.47	1279.98
882.63	1277.93
882.80	1243.12
882.96	1279.98
883.13	1222.64
883.29	1306.60
883.46	1302.51
883.62	1286.12
883.79	1296.36
883.95	1255.40
884.12	1191.92
884.29	1191.92
884.45	1245.16
884.62	1247.21
884.78	1314.80
884.95	1236.97
885.11	1292.27
885.28	1243.12
885.44	1312.75
885.61	1306.60
885.77	1300.46
885.94	1312.75
886.10	1269.74
886.27	1269.74
886.43	1173.49
886.60	1314.80
886.76	1308.65
886.93	1241.07
887.09	1257.45
887.26	1226.73
887.42	1196.01
887.59	1212.40
887.75	1263.60
887.92	1271.79
888.08	1265.64
888.25	1308.65
888.41	1265.64
888.58	1308.65
888.74	1288.17
888.91	1351.66
>>>>>End Processed Spectral Data<<<<<
