SpectraSuite Data File
++++++++++++++++++++++++++++++++++++
Date: Sun Apr 03 19:55:38 CEST 2016
User: root
Dark Spectrum Present: No
Reference Spectrum Present: No
Number of Sampled Component Spectra: 1
Spectrometers: USB4C02835
Integration Time (usec): 10000 (USB4C02835)
Spectra Averaged: 1 (USB4C02835)
Boxcar Smoothing: 0 (USB4C02835)
Correct for Electrical Dark: No (USB4C02835)
Strobe/Lamp Enabled: No (USB4C02835)
Correct for Detector Non-linearity: No (USB4C02835)
Correct for Stray Light: No (USB4C02835)
Number of Pixels in Processed Spectrum: 3648
>>>>>Begin Processed Spectral Data<<<<<
177.47	1263.60
177.69	1263.60
177.91	1263.60
178.13	1284.08
178.36	1241.07
178.58	1290.22
178.80	1335.28
179.02	1234.93
179.24	1286.12
179.46	1286.12
179.68	1265.64
179.90	1249.26
180.13	1284.08
180.35	1310.70
180.57	1185.77
180.79	1279.98
181.01	1261.55
181.23	1249.26
181.45	1290.22
181.67	1243.12
181.90	1314.80
182.12	1312.75
182.34	1193.97
182.56	1275.88
182.78	1232.88
183.00	1310.70
183.22	1253.36
183.44	1263.60
183.66	1327.08
183.89	1253.36
184.11	1204.21
184.33	1302.51
184.55	1273.84
184.77	1310.70
184.99	1257.45
185.21	1288.17
185.43	1290.22
185.65	1198.06
185.87	1249.26
186.10	1208.30
186.32	1279.98
186.54	1269.74
186.76	1310.70
186.98	1275.88
187.20	1216.49
187.42	1206.25
187.64	1226.73
187.86	1298.41
188.08	1279.98
188.30	1181.68
188.52	1230.83
188.75	1259.50
188.97	1259.50
189.19	1275.88
189.41	1294.32
189.63	1263.60
189.85	1239.02
190.07	1325.04
190.29	1216.49
190.51	1259.50
190.73	1261.55
190.95	1292.27
191.17	1302.51
191.39	1275.88
191.61	1288.17
191.84	1275.88
192.06	1335.28
192.28	1222.64
192.50	1292.27
192.72	1269.74
192.94	1247.21
193.16	1296.36
193.38	1210.35
193.60	1306.60
193.82	1304.56
194.04	1271.79
194.26	1265.64
194.48	1216.49
194.70	1282.03
194.92	1202.16
195.14	1245.16
195.36	1228.78
195.58	1275.88
195.80	1267.69
196.02	1279.98
196.24	1263.60
196.46	1271.79
196.69	1263.60
196.91	1249.26
197.13	1288.17
197.35	1310.70
197.57	1286.12
197.79	1247.21
198.01	1183.73
198.23	1253.36
198.45	1308.65
198.67	1236.97
198.89	1216.49
199.11	1277.93
199.33	1277.93
199.55	1314.80
199.77	1267.69
199.99	1247.21
200.21	1253.36
200.43	1284.08
200.65	1226.73
200.87	1331.18
201.09	1247.21
201.31	1234.93
201.53	1236.97
201.75	1247.21
201.97	1206.25
202.19	1277.93
202.41	1251.31
202.63	1316.84
202.85	1224.69
203.07	1255.40
203.29	1230.83
203.51	1267.69
203.73	1232.88
203.95	1290.22
204.17	1286.12
204.39	1226.73
204.61	1220.59
204.83	1282.03
205.05	1239.02
205.27	1232.88
205.49	1179.63
205.71	1279.98
205.93	1241.07
206.15	1232.88
206.37	1210.35
206.59	1304.56
206.81	1331.18
207.03	1232.88
207.25	1298.41
207.47	1251.31
207.69	1210.35
207.91	1214.45
208.13	1224.69
208.34	1263.60
208.56	1265.64
208.78	1277.93
209.00	1191.92
209.22	1259.50
209.44	1271.79
209.66	1341.42
209.88	1292.27
210.10	1286.12
210.32	1269.74
210.54	1288.17
210.76	1271.79
210.98	1222.64
211.20	1224.69
211.42	1265.64
211.64	1261.55
211.86	1298.41
212.08	1331.18
212.30	1322.99
212.52	1286.12
212.74	1249.26
212.96	1226.73
213.17	1271.79
213.39	1302.51
213.61	1329.13
213.83	1230.83
214.05	1249.26
214.27	1300.46
214.49	1261.55
214.71	1298.41
214.93	1230.83
215.15	1312.75
215.37	1243.12
215.59	1214.45
215.81	1316.84
216.03	1245.16
216.24	1198.06
216.46	1245.16
216.68	1273.84
216.90	1296.36
217.12	1247.21
217.34	1230.83
217.56	1257.45
217.78	1363.95
218.00	1263.60
218.22	1196.01
218.44	1294.32
218.66	1261.55
218.87	1310.70
219.09	1339.37
219.31	1239.02
219.53	1239.02
219.75	1224.69
219.97	1247.21
220.19	1355.76
220.41	1257.45
220.63	1241.07
220.85	1243.12
221.06	1236.97
221.28	1337.32
221.50	1269.74
221.72	1234.93
221.94	1275.88
222.16	1341.42
222.38	1320.94
222.60	1279.98
222.82	1261.55
223.03	1316.84
223.25	1306.60
223.47	1349.61
223.69	1314.80
223.91	1253.36
224.13	1236.97
224.35	1224.69
224.57	1220.59
224.78	1316.84
225.00	1306.60
225.22	1198.06
225.44	1253.36
225.66	1243.12
225.88	1189.87
226.10	1253.36
226.32	1300.46
226.53	1277.93
226.75	1314.80
226.97	1279.98
227.19	1318.89
227.41	1267.69
227.63	1239.02
227.85	1261.55
228.06	1257.45
228.28	1269.74
228.50	1294.32
228.72	1191.92
228.94	1345.52
229.16	1286.12
229.37	1292.27
229.59	1257.45
229.81	1261.55
230.03	1314.80
230.25	1277.93
230.47	1308.65
230.69	1298.41
230.90	1271.79
231.12	1226.73
231.34	1257.45
231.56	1355.76
231.78	1241.07
232.00	1331.18
232.21	1255.40
232.43	1290.22
232.65	1308.65
232.87	1230.83
233.09	1275.88
233.30	1267.69
233.52	1232.88
233.74	1318.89
233.96	1308.65
234.18	1249.26
234.40	1259.50
234.61	1228.78
234.83	1286.12
235.05	1232.88
235.27	1296.36
235.49	1279.98
235.70	1275.88
235.92	1247.21
236.14	1257.45
236.36	1259.50
236.58	1294.32
236.79	1300.46
237.01	1351.66
237.23	1253.36
237.45	1234.93
237.67	1228.78
237.88	1222.64
238.10	1206.25
238.32	1236.97
238.54	1349.61
238.76	1236.97
238.97	1273.84
239.19	1198.06
239.41	1245.16
239.63	1243.12
239.85	1286.12
240.06	1335.28
240.28	1277.93
240.50	1341.42
240.72	1275.88
240.93	1261.55
241.15	1271.79
241.37	1257.45
241.59	1300.46
241.81	1263.60
242.02	1341.42
242.24	1296.36
242.46	1222.64
242.68	1220.59
242.89	1261.55
243.11	1279.98
243.33	1322.99
243.55	1253.36
243.76	1277.93
243.98	1239.02
244.20	1273.84
244.42	1263.60
244.64	1196.01
244.85	1183.73
245.07	1298.41
245.29	1257.45
245.51	1259.50
245.72	1284.08
245.94	1277.93
246.16	1320.94
246.38	1282.03
246.59	1329.13
246.81	1243.12
247.03	1273.84
247.24	1304.56
247.46	1361.90
247.68	1243.12
247.90	1327.08
248.11	1257.45
248.33	1257.45
248.55	1261.55
248.77	1267.69
248.98	1316.84
249.20	1304.56
249.42	1314.80
249.64	1253.36
249.85	1206.25
250.07	1218.54
250.29	1257.45
250.50	1282.03
250.72	1251.31
250.94	1239.02
251.16	1312.75
251.37	1292.27
251.59	1384.43
251.81	1257.45
252.02	1196.01
252.24	1290.22
252.46	1282.03
252.68	1222.64
252.89	1279.98
253.11	1210.35
253.33	1261.55
253.54	1275.88
253.76	1306.60
253.98	1216.49
254.20	1282.03
254.41	1247.21
254.63	1306.60
254.85	1314.80
255.06	1277.93
255.28	1247.21
255.50	1263.60
255.71	1279.98
255.93	1249.26
256.15	1288.17
256.36	1286.12
256.58	1273.84
256.80	1255.40
257.02	1228.78
257.23	1243.12
257.45	1239.02
257.67	1275.88
257.88	1288.17
258.10	1247.21
258.32	1282.03
258.53	1273.84
258.75	1296.36
258.97	1331.18
259.18	1271.79
259.40	1216.49
259.62	1226.73
259.83	1265.64
260.05	1243.12
260.27	1259.50
260.48	1294.32
260.70	1296.36
260.92	1259.50
261.13	1218.54
261.35	1236.97
261.57	1314.80
261.78	1226.73
262.00	1232.88
262.22	1310.70
262.43	1247.21
262.65	1202.16
262.86	1247.21
263.08	1298.41
263.30	1361.90
263.51	1261.55
263.73	1277.93
263.95	1249.26
264.16	1226.73
264.38	1247.21
264.60	1257.45
264.81	1286.12
265.03	1288.17
265.25	1296.36
265.46	1282.03
265.68	1241.07
265.89	1259.50
266.11	1243.12
266.33	1286.12
266.54	1236.97
266.76	1255.40
266.98	1300.46
267.19	1320.94
267.41	1265.64
267.62	1222.64
267.84	1308.65
268.06	1259.50
268.27	1253.36
268.49	1310.70
268.70	1288.17
268.92	1316.84
269.14	1261.55
269.35	1345.52
269.57	1284.08
269.79	1312.75
270.00	1232.88
270.22	1271.79
270.43	1263.60
270.65	1284.08
270.87	1232.88
271.08	1290.22
271.30	1288.17
271.51	1265.64
271.73	1249.26
271.95	1290.22
272.16	1239.02
272.38	1263.60
272.59	1236.97
272.81	1239.02
273.02	1312.75
273.24	1218.54
273.46	1239.02
273.67	1236.97
273.89	1294.32
274.10	1249.26
274.32	1245.16
274.54	1282.03
274.75	1296.36
274.97	1183.73
275.18	1267.69
275.40	1290.22
275.61	1292.27
275.83	1329.13
276.05	1292.27
276.26	1273.84
276.48	1259.50
276.69	1284.08
276.91	1304.56
277.12	1320.94
277.34	1236.97
277.55	1331.18
277.77	1273.84
277.99	1261.55
278.20	1275.88
278.42	1322.99
278.63	1282.03
278.85	1314.80
279.06	1247.21
279.28	1271.79
279.49	1298.41
279.71	1200.11
279.93	1241.07
280.14	1296.36
280.36	1265.64
280.57	1282.03
280.79	1214.45
281.00	1269.74
281.22	1196.01
281.43	1263.60
281.65	1282.03
281.86	1265.64
282.08	1300.46
282.29	1290.22
282.51	1247.21
282.73	1247.21
282.94	1171.44
283.16	1275.88
283.37	1333.23
283.59	1232.88
283.80	1243.12
284.02	1265.64
284.23	1263.60
284.45	1286.12
284.66	1191.92
284.88	1304.56
285.09	1251.31
285.31	1249.26
285.52	1202.16
285.74	1288.17
285.95	1232.88
286.17	1325.04
286.38	1329.13
286.60	1267.69
286.81	1298.41
287.03	1337.32
287.24	1286.12
287.46	1300.46
287.67	1228.78
287.89	1271.79
288.10	1267.69
288.32	1239.02
288.53	1292.27
288.75	1228.78
288.96	1251.31
289.18	1232.88
289.39	1193.97
289.61	1273.84
289.82	1257.45
290.04	1216.49
290.25	1247.21
290.47	1208.30
290.68	1300.46
290.90	1288.17
291.11	1202.16
291.33	1284.08
291.54	1378.28
291.76	1251.31
291.97	1349.61
292.18	1279.98
292.40	1206.25
292.61	1218.54
292.83	1216.49
293.04	1245.16
293.26	1179.63
293.47	1210.35
293.69	1322.99
293.90	1275.88
294.12	1239.02
294.33	1265.64
294.55	1277.93
294.76	1298.41
294.97	1265.64
295.19	1282.03
295.40	1282.03
295.62	1333.23
295.83	1253.36
296.05	1255.40
296.26	1243.12
296.48	1239.02
296.69	1228.78
296.90	1277.93
297.12	1247.21
297.33	1271.79
297.55	1271.79
297.76	1255.40
297.98	1261.55
298.19	1327.08
298.41	1232.88
298.62	1269.74
298.83	1263.60
299.05	1263.60
299.26	1265.64
299.48	1273.84
299.69	1245.16
299.90	1234.93
300.12	1322.99
300.33	1282.03
300.55	1261.55
300.76	1300.46
300.98	1226.73
301.19	1232.88
301.40	1267.69
301.62	1304.56
301.83	1253.36
302.05	1232.88
302.26	1282.03
302.47	1304.56
302.69	1290.22
302.90	1304.56
303.12	1212.40
303.33	1247.21
303.54	1241.07
303.76	1269.74
303.97	1343.47
304.19	1247.21
304.40	1345.52
304.61	1249.26
304.83	1198.06
305.04	1318.89
305.26	1271.79
305.47	1239.02
305.68	1308.65
305.90	1232.88
306.11	1300.46
306.33	1261.55
306.54	1259.50
306.75	1310.70
306.97	1312.75
307.18	1275.88
307.39	1294.32
307.61	1263.60
307.82	1322.99
308.04	1288.17
308.25	1298.41
308.46	1267.69
308.68	1304.56
308.89	1279.98
309.10	1257.45
309.32	1241.07
309.53	1271.79
309.74	1249.26
309.96	1243.12
310.17	1296.36
310.39	1255.40
310.60	1269.74
310.81	1286.12
311.03	1290.22
311.24	1314.80
311.45	1316.84
311.67	1290.22
311.88	1267.69
312.09	1257.45
312.31	1284.08
312.52	1279.98
312.73	1255.40
312.95	1312.75
313.16	1249.26
313.37	1269.74
313.59	1269.74
313.80	1329.13
314.01	1314.80
314.23	1294.32
314.44	1277.93
314.65	1214.45
314.87	1212.40
315.08	1265.64
315.29	1263.60
315.51	1236.97
315.72	1191.92
315.93	1318.89
316.15	1290.22
316.36	1222.64
316.57	1322.99
316.79	1249.26
317.00	1279.98
317.21	1265.64
317.43	1306.60
317.64	1220.59
317.85	1253.36
318.07	1249.26
318.28	1277.93
318.49	1263.60
318.70	1327.08
318.92	1218.54
319.13	1253.36
319.34	1261.55
319.56	1269.74
319.77	1316.84
319.98	1269.74
320.20	1200.11
320.41	1271.79
320.62	1269.74
320.83	1277.93
321.05	1253.36
321.26	1300.46
321.47	1216.49
321.69	1304.56
321.90	1273.84
322.11	1292.27
322.32	1228.78
322.54	1310.70
322.75	1271.79
322.96	1279.98
323.18	1298.41
323.39	1208.30
323.60	1253.36
323.81	1251.31
324.03	1208.30
324.24	1286.12
324.45	1261.55
324.66	1200.11
324.88	1304.56
325.09	1279.98
325.30	1257.45
325.52	1296.36
325.73	1226.73
325.94	1198.06
326.15	1294.32
326.37	1298.41
326.58	1282.03
326.79	1234.93
327.00	1255.40
327.22	1329.13
327.43	1296.36
327.64	1206.25
327.85	1220.59
328.07	1279.98
328.28	1341.42
328.49	1214.45
328.70	1333.23
328.92	1232.88
329.13	1198.06
329.34	1288.17
329.55	1327.08
329.76	1249.26
329.98	1296.36
330.19	1290.22
330.40	1279.98
330.61	1241.07
330.83	1290.22
331.04	1261.55
331.25	1226.73
331.46	1226.73
331.68	1212.40
331.89	1216.49
332.10	1290.22
332.31	1277.93
332.52	1284.08
332.74	1361.90
332.95	1282.03
333.16	1232.88
333.37	1298.41
333.58	1292.27
333.80	1284.08
334.01	1290.22
334.22	1241.07
334.43	1314.80
334.64	1275.88
334.86	1290.22
335.07	1206.25
335.28	1269.74
335.49	1224.69
335.70	1327.08
335.92	1232.88
336.13	1259.50
336.34	1347.56
336.55	1224.69
336.76	1220.59
336.98	1327.08
337.19	1243.12
337.40	1279.98
337.61	1243.12
337.82	1277.93
338.04	1284.08
338.25	1247.21
338.46	1320.94
338.67	1249.26
338.88	1294.32
339.09	1290.22
339.31	1224.69
339.52	1247.21
339.73	1198.06
339.94	1277.93
340.15	1284.08
340.36	1271.79
340.58	1210.35
340.79	1296.36
341.00	1196.01
341.21	1279.98
341.42	1265.64
341.63	1284.08
341.85	1273.84
342.06	1241.07
342.27	1314.80
342.48	1298.41
342.69	1196.01
342.90	1220.59
343.12	1198.06
343.33	1282.03
343.54	1200.11
343.75	1300.46
343.96	1222.64
344.17	1288.17
344.38	1310.70
344.60	1232.88
344.81	1318.89
345.02	1226.73
345.23	1196.01
345.44	1273.84
345.65	1282.03
345.86	1257.45
346.07	1245.16
346.29	1222.64
346.50	1296.36
346.71	1277.93
346.92	1249.26
347.13	1298.41
347.34	1275.88
347.55	1265.64
347.76	1245.16
347.98	1308.65
348.19	1343.47
348.40	1232.88
348.61	1234.93
348.82	1273.84
349.03	1327.08
349.24	1179.63
349.45	1187.82
349.66	1173.49
349.88	1224.69
350.09	1239.02
350.30	1210.35
350.51	1288.17
350.72	1243.12
350.93	1249.26
351.14	1259.50
351.35	1208.30
351.56	1261.55
351.77	1279.98
351.99	1282.03
352.20	1232.88
352.41	1306.60
352.62	1173.49
352.83	1275.88
353.04	1273.84
353.25	1300.46
353.46	1335.28
353.67	1286.12
353.88	1206.25
354.09	1218.54
354.30	1263.60
354.52	1253.36
354.73	1327.08
354.94	1282.03
355.15	1300.46
355.36	1286.12
355.57	1279.98
355.78	1351.66
355.99	1273.84
356.20	1191.92
356.41	1273.84
356.62	1210.35
356.83	1253.36
357.04	1218.54
357.25	1329.13
357.46	1312.75
357.68	1228.78
357.89	1282.03
358.10	1298.41
358.31	1333.23
358.52	1265.64
358.73	1208.30
358.94	1341.42
359.15	1224.69
359.36	1265.64
359.57	1269.74
359.78	1226.73
359.99	1286.12
360.20	1222.64
360.41	1228.78
360.62	1271.79
360.83	1245.16
361.04	1290.22
361.25	1269.74
361.46	1222.64
361.67	1333.23
361.88	1308.65
362.09	1247.21
362.30	1239.02
362.51	1243.12
362.72	1298.41
362.93	1245.16
363.14	1218.54
363.35	1232.88
363.56	1345.52
363.78	1282.03
363.99	1236.97
364.20	1294.32
364.41	1320.94
364.62	1267.69
364.83	1312.75
365.04	1300.46
365.25	1282.03
365.46	1214.45
365.67	1259.50
365.88	1239.02
366.09	1306.60
366.30	1255.40
366.51	1214.45
366.72	1286.12
366.93	1306.60
367.14	1228.78
367.35	1277.93
367.56	1261.55
367.77	1275.88
367.98	1345.52
368.18	1288.17
368.39	1261.55
368.60	1286.12
368.81	1214.45
369.02	1286.12
369.23	1273.84
369.44	1249.26
369.65	1257.45
369.86	1286.12
370.07	1288.17
370.28	1243.12
370.49	1265.64
370.70	1316.84
370.91	1263.60
371.12	1257.45
371.33	1298.41
371.54	1292.27
371.75	1300.46
371.96	1261.55
372.17	1261.55
372.38	1306.60
372.59	1300.46
372.80	1271.79
373.01	1275.88
373.22	1259.50
373.43	1232.88
373.64	1239.02
373.85	1296.36
374.06	1286.12
374.26	1316.84
374.47	1286.12
374.68	1282.03
374.89	1294.32
375.10	1277.93
375.31	1298.41
375.52	1255.40
375.73	1210.35
375.94	1224.69
376.15	1288.17
376.36	1212.40
376.57	1331.18
376.78	1298.41
376.99	1277.93
377.20	1241.07
377.40	1337.32
377.61	1230.83
377.82	1204.21
378.03	1279.98
378.24	1251.31
378.45	1279.98
378.66	1294.32
378.87	1298.41
379.08	1269.74
379.29	1232.88
379.50	1271.79
379.71	1263.60
379.91	1288.17
380.12	1286.12
380.33	1304.56
380.54	1341.42
380.75	1310.70
380.96	1259.50
381.17	1306.60
381.38	1302.51
381.59	1249.26
381.80	1220.59
382.00	1308.65
382.21	1243.12
382.42	1284.08
382.63	1210.35
382.84	1245.16
383.05	1294.32
383.26	1288.17
383.47	1282.03
383.68	1247.21
383.88	1251.31
384.09	1279.98
384.30	1288.17
384.51	1325.04
384.72	1279.98
384.93	1294.32
385.14	1284.08
385.35	1277.93
385.55	1296.36
385.76	1239.02
385.97	1273.84
386.18	1232.88
386.39	1245.16
386.60	1241.07
386.81	1251.31
387.02	1271.79
387.22	1277.93
387.43	1265.64
387.64	1273.84
387.85	1257.45
388.06	1290.22
388.27	1304.56
388.48	1257.45
388.68	1232.88
388.89	1316.84
389.10	1273.84
389.31	1286.12
389.52	1247.21
389.73	1236.97
389.93	1241.07
390.14	1279.98
390.35	1277.93
390.56	1259.50
390.77	1312.75
390.98	1222.64
391.18	1249.26
391.39	1159.15
391.60	1302.51
391.81	1290.22
392.02	1234.93
392.23	1275.88
392.43	1261.55
392.64	1234.93
392.85	1232.88
393.06	1236.97
393.27	1312.75
393.47	1263.60
393.68	1220.59
393.89	1232.88
394.10	1273.84
394.31	1290.22
394.52	1232.88
394.72	1257.45
394.93	1175.53
395.14	1189.87
395.35	1167.34
395.56	1261.55
395.76	1288.17
395.97	1179.63
396.18	1261.55
396.39	1236.97
396.60	1273.84
396.80	1249.26
397.01	1284.08
397.22	1191.92
397.43	1263.60
397.64	1259.50
397.84	1275.88
398.05	1306.60
398.26	1208.30
398.47	1333.23
398.67	1251.31
398.88	1267.69
399.09	1290.22
399.30	1232.88
399.51	1290.22
399.71	1286.12
399.92	1261.55
400.13	1277.93
400.34	1239.02
400.54	1273.84
400.75	1273.84
400.96	1314.80
401.17	1277.93
401.37	1310.70
401.58	1370.09
401.79	1298.41
402.00	1273.84
402.21	1286.12
402.41	1320.94
402.62	1191.92
402.83	1290.22
403.04	1224.69
403.24	1339.37
403.45	1210.35
403.66	1277.93
403.87	1308.65
404.07	1187.82
404.28	1312.75
404.49	1335.28
404.70	1257.45
404.90	1230.83
405.11	1290.22
405.32	1249.26
405.52	1267.69
405.73	1236.97
405.94	1267.69
406.15	1212.40
406.35	1196.01
406.56	1189.87
406.77	1239.02
406.98	1255.40
407.18	1279.98
407.39	1263.60
407.60	1331.18
407.80	1271.79
408.01	1263.60
408.22	1247.21
408.43	1298.41
408.63	1265.64
408.84	1239.02
409.05	1331.18
409.25	1230.83
409.46	1228.78
409.67	1361.90
409.88	1241.07
410.08	1271.79
410.29	1234.93
410.50	1329.13
410.70	1253.36
410.91	1220.59
411.12	1249.26
411.32	1257.45
411.53	1234.93
411.74	1382.38
411.95	1222.64
412.15	1253.36
412.36	1222.64
412.57	1273.84
412.77	1286.12
412.98	1230.83
413.19	1271.79
413.39	1277.93
413.60	1277.93
413.81	1214.45
414.01	1286.12
414.22	1251.31
414.43	1271.79
414.63	1204.21
414.84	1329.13
415.05	1343.47
415.25	1292.27
415.46	1298.41
415.67	1243.12
415.87	1269.74
416.08	1298.41
416.29	1331.18
416.49	1271.79
416.70	1259.50
416.91	1302.51
417.11	1273.84
417.32	1271.79
417.53	1308.65
417.73	1312.75
417.94	1251.31
418.15	1300.46
418.35	1343.47
418.56	1320.94
418.77	1269.74
418.97	1247.21
419.18	1277.93
419.38	1320.94
419.59	1226.73
419.80	1279.98
420.00	1275.88
420.21	1210.35
420.42	1253.36
420.62	1318.89
420.83	1257.45
421.04	1273.84
421.24	1263.60
421.45	1239.02
421.65	1292.27
421.86	1273.84
422.07	1282.03
422.27	1296.36
422.48	1224.69
422.69	1320.94
422.89	1294.32
423.10	1245.16
423.30	1282.03
423.51	1286.12
423.72	1222.64
423.92	1279.98
424.13	1296.36
424.33	1271.79
424.54	1288.17
424.75	1228.78
424.95	1257.45
425.16	1327.08
425.36	1308.65
425.57	1243.12
425.78	1214.45
425.98	1298.41
426.19	1253.36
426.39	1267.69
426.60	1343.47
426.81	1261.55
427.01	1234.93
427.22	1331.18
427.42	1331.18
427.63	1294.32
427.83	1361.90
428.04	1282.03
428.25	1257.45
428.45	1275.88
428.66	1349.61
428.86	1273.84
429.07	1257.45
429.28	1312.75
429.48	1316.84
429.69	1257.45
429.89	1310.70
430.10	1312.75
430.30	1253.36
430.51	1288.17
430.71	1284.08
430.92	1236.97
431.13	1214.45
431.33	1296.36
431.54	1282.03
431.74	1345.52
431.95	1220.59
432.15	1239.02
432.36	1296.36
432.56	1255.40
432.77	1253.36
432.98	1263.60
433.18	1234.93
433.39	1310.70
433.59	1230.83
433.80	1279.98
434.00	1306.60
434.21	1251.31
434.41	1316.84
434.62	1269.74
434.82	1267.69
435.03	1271.79
435.23	1286.12
435.44	1279.98
435.64	1245.16
435.85	1265.64
436.06	1253.36
436.26	1275.88
436.47	1249.26
436.67	1290.22
436.88	1263.60
437.08	1257.45
437.29	1271.79
437.49	1357.80
437.70	1290.22
437.90	1298.41
438.11	1275.88
438.31	1271.79
438.52	1251.31
438.72	1241.07
438.93	1294.32
439.13	1218.54
439.34	1282.03
439.54	1243.12
439.75	1294.32
439.95	1279.98
440.16	1249.26
440.36	1302.51
440.57	1279.98
440.77	1294.32
440.98	1236.97
441.18	1208.30
441.39	1288.17
441.59	1273.84
441.80	1286.12
442.00	1282.03
442.21	1314.80
442.41	1298.41
442.62	1265.64
442.82	1288.17
443.02	1232.88
443.23	1273.84
443.43	1226.73
443.64	1265.64
443.84	1279.98
444.05	1286.12
444.25	1322.99
444.46	1226.73
444.66	1284.08
444.87	1302.51
445.07	1263.60
445.28	1304.56
445.48	1230.83
445.69	1249.26
445.89	1282.03
446.09	1318.89
446.30	1347.56
446.50	1306.60
446.71	1308.65
446.91	1279.98
447.12	1259.50
447.32	1273.84
447.53	1271.79
447.73	1322.99
447.93	1261.55
448.14	1196.01
448.34	1279.98
448.55	1314.80
448.75	1187.82
448.96	1361.90
449.16	1226.73
449.36	1253.36
449.57	1255.40
449.77	1282.03
449.98	1349.61
450.18	1271.79
450.39	1226.73
450.59	1335.28
450.79	1282.03
451.00	1341.42
451.20	1325.04
451.41	1208.30
451.61	1300.46
451.81	1314.80
452.02	1273.84
452.22	1314.80
452.43	1214.45
452.63	1251.31
452.84	1318.89
453.04	1277.93
453.24	1228.78
453.45	1286.12
453.65	1318.89
453.86	1306.60
454.06	1234.93
454.26	1257.45
454.47	1302.51
454.67	1312.75
454.87	1300.46
455.08	1284.08
455.28	1241.07
455.49	1370.09
455.69	1300.46
455.89	1230.83
456.10	1243.12
456.30	1236.97
456.51	1267.69
456.71	1357.80
456.91	1304.56
457.12	1206.25
457.32	1251.31
457.52	1251.31
457.73	1265.64
457.93	1169.39
458.14	1267.69
458.34	1296.36
458.54	1245.16
458.75	1292.27
458.95	1275.88
459.15	1271.79
459.36	1339.37
459.56	1288.17
459.76	1269.74
459.97	1298.41
460.17	1255.40
460.37	1310.70
460.58	1234.93
460.78	1241.07
460.99	1200.11
461.19	1257.45
461.39	1347.56
461.60	1277.93
461.80	1300.46
462.00	1267.69
462.21	1253.36
462.41	1216.49
462.61	1218.54
462.82	1224.69
463.02	1257.45
463.22	1271.79
463.43	1316.84
463.63	1239.02
463.83	1220.59
464.04	1239.02
464.24	1228.78
464.44	1261.55
464.64	1316.84
464.85	1302.51
465.05	1239.02
465.25	1234.93
465.46	1267.69
465.66	1269.74
465.86	1271.79
466.07	1232.88
466.27	1355.76
466.47	1208.30
466.68	1249.26
466.88	1327.08
467.08	1224.69
467.29	1275.88
467.49	1257.45
467.69	1279.98
467.89	1257.45
468.10	1333.23
468.30	1191.92
468.50	1214.45
468.71	1329.13
468.91	1277.93
469.11	1282.03
469.31	1355.76
469.52	1251.31
469.72	1265.64
469.92	1288.17
470.13	1277.93
470.33	1212.40
470.53	1226.73
470.73	1314.80
470.94	1298.41
471.14	1310.70
471.34	1253.36
471.54	1286.12
471.75	1247.21
471.95	1294.32
472.15	1310.70
472.36	1355.76
472.56	1306.60
472.76	1210.35
472.96	1249.26
473.17	1255.40
473.37	1331.18
473.57	1288.17
473.77	1308.65
473.98	1288.17
474.18	1234.93
474.38	1241.07
474.58	1275.88
474.79	1257.45
474.99	1290.22
475.19	1243.12
475.39	1257.45
475.60	1245.16
475.80	1312.75
476.00	1277.93
476.20	1245.16
476.41	1249.26
476.61	1310.70
476.81	1265.64
477.01	1236.97
477.21	1333.23
477.42	1255.40
477.62	1318.89
477.82	1318.89
478.02	1247.21
478.23	1312.75
478.43	1306.60
478.63	1320.94
478.83	1306.60
479.03	1400.81
479.24	1234.93
479.44	1253.36
479.64	1376.24
479.84	1193.97
480.04	1181.68
480.25	1279.98
480.45	1320.94
480.65	1325.04
480.85	1271.79
481.06	1263.60
481.26	1232.88
481.46	1288.17
481.66	1288.17
481.86	1271.79
482.06	1286.12
482.27	1310.70
482.47	1296.36
482.67	1376.24
482.87	1230.83
483.07	1292.27
483.28	1267.69
483.48	1282.03
483.68	1261.55
483.88	1253.36
484.08	1249.26
484.29	1302.51
484.49	1220.59
484.69	1239.02
484.89	1306.60
485.09	1300.46
485.29	1265.64
485.50	1282.03
485.70	1251.31
485.90	1279.98
486.10	1329.13
486.30	1296.36
486.50	1316.84
486.71	1232.88
486.91	1263.60
487.11	1351.66
487.31	1263.60
487.51	1251.31
487.71	1239.02
487.91	1298.41
488.12	1316.84
488.32	1234.93
488.52	1333.23
488.72	1245.16
488.92	1279.98
489.12	1347.56
489.32	1337.32
489.53	1279.98
489.73	1286.12
489.93	1296.36
490.13	1218.54
490.33	1234.93
490.53	1267.69
490.73	1263.60
490.94	1193.97
491.14	1320.94
491.34	1267.69
491.54	1275.88
491.74	1263.60
491.94	1226.73
492.14	1343.47
492.34	1304.56
492.54	1316.84
492.75	1294.32
492.95	1230.83
493.15	1339.37
493.35	1263.60
493.55	1267.69
493.75	1273.84
493.95	1230.83
494.15	1277.93
494.35	1187.82
494.56	1265.64
494.76	1329.13
494.96	1257.45
495.16	1230.83
495.36	1347.56
495.56	1261.55
495.76	1259.50
495.96	1275.88
496.16	1322.99
496.36	1314.80
496.56	1286.12
496.77	1232.88
496.97	1259.50
497.17	1318.89
497.37	1310.70
497.57	1310.70
497.77	1253.36
497.97	1277.93
498.17	1314.80
498.37	1302.51
498.57	1282.03
498.77	1366.00
498.97	1316.84
499.17	1273.84
499.38	1239.02
499.58	1282.03
499.78	1259.50
499.98	1257.45
500.18	1290.22
500.38	1243.12
500.58	1314.80
500.78	1329.13
500.98	1308.65
501.18	1273.84
501.38	1275.88
501.58	1247.21
501.78	1216.49
501.98	1300.46
502.18	1286.12
502.38	1232.88
502.58	1243.12
502.78	1232.88
502.98	1308.65
503.18	1355.76
503.38	1306.60
503.59	1308.65
503.79	1253.36
503.99	1255.40
504.19	1314.80
504.39	1277.93
504.59	1308.65
504.79	1265.64
504.99	1282.03
505.19	1265.64
505.39	1267.69
505.59	1212.40
505.79	1316.84
505.99	1228.78
506.19	1306.60
506.39	1279.98
506.59	1267.69
506.79	1259.50
506.99	1316.84
507.19	1239.02
507.39	1212.40
507.59	1308.65
507.79	1304.56
507.99	1226.73
508.19	1214.45
508.39	1269.74
508.59	1329.13
508.79	1234.93
508.99	1277.93
509.19	1243.12
509.39	1218.54
509.59	1355.76
509.79	1296.36
509.99	1359.85
510.19	1320.94
510.39	1263.60
510.59	1216.49
510.79	1296.36
510.99	1275.88
511.19	1312.75
511.39	1359.85
511.59	1245.16
511.79	1269.74
511.99	1279.98
512.19	1345.52
512.38	1337.32
512.58	1374.19
512.78	1222.64
512.98	1263.60
513.18	1329.13
513.38	1245.16
513.58	1259.50
513.78	1282.03
513.98	1222.64
514.18	1232.88
514.38	1261.55
514.58	1200.11
514.78	1279.98
514.98	1275.88
515.18	1243.12
515.38	1275.88
515.58	1298.41
515.78	1320.94
515.98	1216.49
516.18	1243.12
516.38	1273.84
516.57	1347.56
516.77	1366.00
516.97	1294.32
517.17	1259.50
517.37	1292.27
517.57	1298.41
517.77	1300.46
517.97	1243.12
518.17	1251.31
518.37	1314.80
518.57	1241.07
518.77	1314.80
518.97	1378.28
519.16	1304.56
519.36	1279.98
519.56	1249.26
519.76	1259.50
519.96	1241.07
520.16	1372.14
520.36	1214.45
520.56	1253.36
520.76	1241.07
520.96	1239.02
521.16	1306.60
521.35	1294.32
521.55	1318.89
521.75	1310.70
521.95	1265.64
522.15	1253.36
522.35	1329.13
522.55	1343.47
522.75	1255.40
522.95	1302.51
523.14	1316.84
523.34	1255.40
523.54	1232.88
523.74	1279.98
523.94	1282.03
524.14	1271.79
524.34	1245.16
524.54	1310.70
524.73	1288.17
524.93	1257.45
525.13	1204.21
525.33	1335.28
525.53	1290.22
525.73	1245.16
525.93	1339.37
526.13	1302.51
526.32	1228.78
526.52	1322.99
526.72	1290.22
526.92	1304.56
527.12	1327.08
527.32	1282.03
527.52	1226.73
527.71	1277.93
527.91	1300.46
528.11	1290.22
528.31	1286.12
528.51	1249.26
528.71	1288.17
528.90	1206.25
529.10	1306.60
529.30	1271.79
529.50	1316.84
529.70	1265.64
529.90	1251.31
530.09	1263.60
530.29	1288.17
530.49	1286.12
530.69	1253.36
530.89	1290.22
531.09	1279.98
531.28	1296.36
531.48	1298.41
531.68	1271.79
531.88	1310.70
532.08	1294.32
532.28	1273.84
532.47	1191.92
532.67	1345.52
532.87	1267.69
533.07	1277.93
533.27	1308.65
533.46	1304.56
533.66	1230.83
533.86	1224.69
534.06	1296.36
534.26	1273.84
534.45	1249.26
534.65	1265.64
534.85	1327.08
535.05	1304.56
535.25	1255.40
535.44	1279.98
535.64	1310.70
535.84	1345.52
536.04	1247.21
536.24	1282.03
536.43	1349.61
536.63	1226.73
536.83	1232.88
537.03	1302.51
537.22	1193.97
537.42	1296.36
537.62	1308.65
537.82	1222.64
538.02	1347.56
538.21	1265.64
538.41	1263.60
538.61	1282.03
538.81	1269.74
539.00	1343.47
539.20	1216.49
539.40	1290.22
539.60	1210.35
539.79	1312.75
539.99	1249.26
540.19	1191.92
540.39	1271.79
540.58	1230.83
540.78	1294.32
540.98	1322.99
541.18	1230.83
541.37	1294.32
541.57	1392.62
541.77	1226.73
541.97	1335.28
542.16	1302.51
542.36	1337.32
542.56	1253.36
542.76	1351.66
542.95	1286.12
543.15	1249.26
543.35	1251.31
543.54	1345.52
543.74	1234.93
543.94	1310.70
544.14	1290.22
544.33	1290.22
544.53	1282.03
544.73	1261.55
544.93	1300.46
545.12	1322.99
545.32	1345.52
545.52	1236.97
545.71	1222.64
545.91	1189.87
546.11	1314.80
546.30	1325.04
546.50	1318.89
546.70	1216.49
546.90	1282.03
547.09	1282.03
547.29	1306.60
547.49	1273.84
547.68	1232.88
547.88	1273.84
548.08	1271.79
548.27	1302.51
548.47	1322.99
548.67	1234.93
548.87	1277.93
549.06	1284.08
549.26	1265.64
549.46	1298.41
549.65	1269.74
549.85	1279.98
550.05	1257.45
550.24	1228.78
550.44	1232.88
550.64	1288.17
550.83	1263.60
551.03	1273.84
551.23	1310.70
551.42	1241.07
551.62	1247.21
551.82	1226.73
552.01	1241.07
552.21	1255.40
552.41	1349.61
552.60	1325.04
552.80	1267.69
553.00	1263.60
553.19	1316.84
553.39	1284.08
553.59	1255.40
553.78	1277.93
553.98	1310.70
554.17	1314.80
554.37	1273.84
554.57	1257.45
554.76	1263.60
554.96	1322.99
555.16	1318.89
555.35	1337.32
555.55	1353.71
555.75	1265.64
555.94	1298.41
556.14	1284.08
556.33	1239.02
556.53	1232.88
556.73	1286.12
556.92	1241.07
557.12	1220.59
557.32	1220.59
557.51	1269.74
557.71	1290.22
557.90	1296.36
558.10	1318.89
558.30	1292.27
558.49	1275.88
558.69	1263.60
558.88	1300.46
559.08	1263.60
559.28	1292.27
559.47	1347.56
559.67	1271.79
559.86	1355.76
560.06	1284.08
560.26	1279.98
560.45	1341.42
560.65	1333.23
560.84	1298.41
561.04	1302.51
561.24	1179.63
561.43	1322.99
561.63	1290.22
561.82	1304.56
562.02	1335.28
562.22	1329.13
562.41	1316.84
562.61	1327.08
562.80	1284.08
563.00	1267.69
563.19	1286.12
563.39	1253.36
563.59	1267.69
563.78	1318.89
563.98	1267.69
564.17	1294.32
564.37	1302.51
564.56	1232.88
564.76	1310.70
564.96	1265.64
565.15	1282.03
565.35	1275.88
565.54	1277.93
565.74	1282.03
565.93	1290.22
566.13	1232.88
566.32	1269.74
566.52	1239.02
566.71	1290.22
566.91	1255.40
567.11	1255.40
567.30	1306.60
567.50	1277.93
567.69	1241.07
567.89	1277.93
568.08	1228.78
568.28	1277.93
568.47	1312.75
568.67	1304.56
568.86	1263.60
569.06	1259.50
569.25	1253.36
569.45	1273.84
569.64	1257.45
569.84	1216.49
570.04	1234.93
570.23	1327.08
570.43	1306.60
570.62	1288.17
570.82	1308.65
571.01	1286.12
571.21	1284.08
571.40	1241.07
571.60	1282.03
571.79	1329.13
571.99	1251.31
572.18	1284.08
572.38	1363.95
572.57	1327.08
572.77	1302.51
572.96	1279.98
573.16	1284.08
573.35	1222.64
573.55	1288.17
573.74	1232.88
573.94	1206.25
574.13	1290.22
574.33	1341.42
574.52	1306.60
574.71	1370.09
574.91	1294.32
575.10	1257.45
575.30	1243.12
575.49	1304.56
575.69	1247.21
575.88	1286.12
576.08	1331.18
576.27	1306.60
576.47	1298.41
576.66	1275.88
576.86	1327.08
577.05	1271.79
577.25	1329.13
577.44	1302.51
577.64	1275.88
577.83	1286.12
578.02	1304.56
578.22	1380.33
578.41	1292.27
578.61	1298.41
578.80	1329.13
579.00	1304.56
579.19	1212.40
579.39	1349.61
579.58	1282.03
579.77	1292.27
579.97	1292.27
580.16	1275.88
580.36	1288.17
580.55	1265.64
580.75	1257.45
580.94	1282.03
581.13	1329.13
581.33	1290.22
581.52	1314.80
581.72	1265.64
581.91	1257.45
582.11	1333.23
582.30	1265.64
582.49	1312.75
582.69	1314.80
582.88	1376.24
583.08	1314.80
583.27	1198.06
583.47	1286.12
583.66	1236.97
583.85	1316.84
584.05	1349.61
584.24	1191.92
584.44	1282.03
584.63	1296.36
584.82	1247.21
585.02	1363.95
585.21	1388.52
585.41	1296.36
585.60	1304.56
585.79	1239.02
585.99	1343.47
586.18	1267.69
586.37	1320.94
586.57	1290.22
586.76	1198.06
586.96	1308.65
587.15	1304.56
587.34	1339.37
587.54	1314.80
587.73	1247.21
587.93	1316.84
588.12	1224.69
588.31	1253.36
588.51	1232.88
588.70	1306.60
588.89	1273.84
589.09	1351.66
589.28	1325.04
589.47	1316.84
589.67	1251.31
589.86	1282.03
590.06	1269.74
590.25	1318.89
590.44	1294.32
590.64	1286.12
590.83	1351.66
591.02	1333.23
591.22	1286.12
591.41	1263.60
591.60	1327.08
591.80	1298.41
591.99	1265.64
592.18	1380.33
592.38	1325.04
592.57	1294.32
592.76	1292.27
592.96	1312.75
593.15	1279.98
593.34	1261.55
593.54	1290.22
593.73	1308.65
593.92	1300.46
594.12	1247.21
594.31	1304.56
594.50	1249.26
594.70	1263.60
594.89	1306.60
595.08	1300.46
595.28	1320.94
595.47	1267.69
595.66	1198.06
595.86	1288.17
596.05	1255.40
596.24	1239.02
596.43	1277.93
596.63	1314.80
596.82	1257.45
597.01	1257.45
597.21	1306.60
597.40	1216.49
597.59	1318.89
597.79	1230.83
597.98	1296.36
598.17	1255.40
598.36	1290.22
598.56	1222.64
598.75	1249.26
598.94	1269.74
599.14	1294.32
599.33	1339.37
599.52	1228.78
599.71	1345.52
599.91	1200.11
600.10	1308.65
600.29	1234.93
600.48	1196.01
600.68	1261.55
600.87	1269.74
601.06	1310.70
601.26	1308.65
601.45	1339.37
601.64	1300.46
601.83	1200.11
602.03	1320.94
602.22	1302.51
602.41	1271.79
602.60	1322.99
602.80	1249.26
602.99	1318.89
603.18	1239.02
603.37	1241.07
603.57	1372.14
603.76	1265.64
603.95	1300.46
604.14	1290.22
604.34	1288.17
604.53	1322.99
604.72	1257.45
604.91	1232.88
605.10	1282.03
605.30	1206.25
605.49	1308.65
605.68	1292.27
605.87	1304.56
606.07	1316.84
606.26	1296.36
606.45	1255.40
606.64	1339.37
606.84	1261.55
607.03	1304.56
607.22	1214.45
607.41	1339.37
607.60	1302.51
607.80	1282.03
607.99	1277.93
608.18	1255.40
608.37	1239.02
608.56	1261.55
608.76	1298.41
608.95	1204.21
609.14	1273.84
609.33	1284.08
609.52	1347.56
609.72	1351.66
609.91	1322.99
610.10	1263.60
610.29	1296.36
610.48	1290.22
610.68	1279.98
610.87	1261.55
611.06	1212.40
611.25	1204.21
611.44	1288.17
611.63	1363.95
611.83	1351.66
612.02	1265.64
612.21	1314.80
612.40	1275.88
612.59	1218.54
612.79	1259.50
612.98	1294.32
613.17	1251.31
613.36	1279.98
613.55	1302.51
613.74	1318.89
613.93	1337.32
614.13	1302.51
614.32	1228.78
614.51	1331.18
614.70	1316.84
614.89	1339.37
615.08	1284.08
615.28	1298.41
615.47	1271.79
615.66	1296.36
615.85	1382.38
616.04	1310.70
616.23	1216.49
616.42	1339.37
616.62	1310.70
616.81	1253.36
617.00	1298.41
617.19	1282.03
617.38	1208.30
617.57	1292.27
617.76	1232.88
617.95	1257.45
618.15	1310.70
618.34	1318.89
618.53	1294.32
618.72	1269.74
618.91	1220.59
619.10	1296.36
619.29	1300.46
619.48	1271.79
619.68	1366.00
619.87	1284.08
620.06	1273.84
620.25	1269.74
620.44	1327.08
620.63	1345.52
620.82	1263.60
621.01	1282.03
621.20	1331.18
621.39	1294.32
621.59	1269.74
621.78	1298.41
621.97	1245.16
622.16	1300.46
622.35	1265.64
622.54	1345.52
622.73	1296.36
622.92	1214.45
623.11	1300.46
623.30	1189.87
623.49	1230.83
623.68	1216.49
623.88	1298.41
624.07	1271.79
624.26	1292.27
624.45	1318.89
624.64	1288.17
624.83	1265.64
625.02	1257.45
625.21	1310.70
625.40	1257.45
625.59	1337.32
625.78	1327.08
625.97	1269.74
626.16	1230.83
626.35	1290.22
626.54	1288.17
626.74	1331.18
626.93	1265.64
627.12	1327.08
627.31	1257.45
627.50	1232.88
627.69	1331.18
627.88	1298.41
628.07	1292.27
628.26	1275.88
628.45	1282.03
628.64	1279.98
628.83	1298.41
629.02	1263.60
629.21	1314.80
629.40	1255.40
629.59	1273.84
629.78	1269.74
629.97	1265.64
630.16	1304.56
630.35	1282.03
630.54	1333.23
630.73	1322.99
630.92	1261.55
631.11	1320.94
631.30	1361.90
631.49	1327.08
631.68	1322.99
631.87	1402.86
632.06	1505.26
632.25	1370.09
632.44	1435.63
632.63	1402.86
632.82	1386.47
633.01	1443.82
633.20	1396.71
633.39	1531.88
633.58	1441.77
633.77	1409.00
633.96	1560.55
634.15	1632.23
634.34	2060.26
634.53	2441.18
634.72	1837.03
634.91	1507.30
635.10	1583.08
635.29	2213.85
635.48	2643.93
635.67	2717.65
635.86	2310.11
636.05	2000.87
636.24	1761.25
636.43	1585.13
636.62	1509.35
636.81	1452.01
637.00	1359.85
637.19	1331.18
637.38	1400.81
637.57	1376.24
637.76	1228.78
637.95	1335.28
638.14	1341.42
638.33	1263.60
638.52	1208.30
638.71	1298.41
638.89	1386.47
639.08	1351.66
639.27	1263.60
639.46	1277.93
639.65	1288.17
639.84	1325.04
640.03	1259.50
640.22	1245.16
640.41	1226.73
640.60	1314.80
640.79	1296.36
640.98	1275.88
641.17	1241.07
641.36	1228.78
641.55	1269.74
641.74	1288.17
641.92	1322.99
642.11	1335.28
642.30	1284.08
642.49	1288.17
642.68	1214.45
642.87	1257.45
643.06	1306.60
643.25	1269.74
643.44	1265.64
643.63	1263.60
643.82	1206.25
644.00	1294.32
644.19	1361.90
644.38	1302.51
644.57	1288.17
644.76	1247.21
644.95	1339.37
645.14	1210.35
645.33	1298.41
645.52	1253.36
645.71	1290.22
645.89	1220.59
646.08	1282.03
646.27	1224.69
646.46	1302.51
646.65	1279.98
646.84	1302.51
647.03	1273.84
647.22	1271.79
647.40	1247.21
647.59	1312.75
647.78	1325.04
647.97	1298.41
648.16	1292.27
648.35	1222.64
648.54	1236.97
648.73	1318.89
648.91	1269.74
649.10	1255.40
649.29	1265.64
649.48	1304.56
649.67	1212.40
649.86	1282.03
650.05	1318.89
650.23	1337.32
650.42	1388.52
650.61	1335.28
650.80	1185.77
650.99	1343.47
651.18	1359.85
651.36	1345.52
651.55	1241.07
651.74	1273.84
651.93	1314.80
652.12	1273.84
652.31	1216.49
652.49	1208.30
652.68	1255.40
652.87	1290.22
653.06	1308.65
653.25	1312.75
653.44	1261.55
653.62	1232.88
653.81	1277.93
654.00	1288.17
654.19	1314.80
654.38	1267.69
654.56	1265.64
654.75	1312.75
654.94	1298.41
655.13	1247.21
655.32	1224.69
655.51	1286.12
655.69	1218.54
655.88	1320.94
656.07	1251.31
656.26	1236.97
656.45	1269.74
656.63	1302.51
656.82	1290.22
657.01	1339.37
657.20	1183.73
657.38	1255.40
657.57	1288.17
657.76	1230.83
657.95	1325.04
658.14	1322.99
658.32	1220.59
658.51	1263.60
658.70	1239.02
658.89	1261.55
659.08	1251.31
659.26	1241.07
659.45	1222.64
659.64	1265.64
659.83	1286.12
660.01	1296.36
660.20	1220.59
660.39	1351.66
660.58	1271.79
660.76	1247.21
660.95	1224.69
661.14	1304.56
661.33	1271.79
661.51	1245.16
661.70	1288.17
661.89	1251.31
662.08	1267.69
662.26	1228.78
662.45	1245.16
662.64	1247.21
662.83	1230.83
663.01	1363.95
663.20	1300.46
663.39	1331.18
663.58	1304.56
663.76	1271.79
663.95	1310.70
664.14	1173.49
664.32	1202.16
664.51	1261.55
664.70	1251.31
664.89	1249.26
665.07	1257.45
665.26	1218.54
665.45	1273.84
665.64	1265.64
665.82	1208.30
666.01	1294.32
666.20	1372.14
666.38	1259.50
666.57	1282.03
666.76	1251.31
666.95	1337.32
667.13	1308.65
667.32	1312.75
667.51	1267.69
667.69	1265.64
667.88	1322.99
668.07	1279.98
668.25	1206.25
668.44	1261.55
668.63	1212.40
668.81	1224.69
669.00	1288.17
669.19	1263.60
669.38	1320.94
669.56	1239.02
669.75	1284.08
669.94	1222.64
670.12	1255.40
670.31	1253.36
670.50	1226.73
670.68	1253.36
670.87	1273.84
671.06	1243.12
671.24	1267.69
671.43	1259.50
671.62	1310.70
671.80	1249.26
671.99	1249.26
672.18	1232.88
672.36	1286.12
672.55	1290.22
672.74	1282.03
672.92	1249.26
673.11	1273.84
673.29	1267.69
673.48	1316.84
673.67	1265.64
673.85	1253.36
674.04	1271.79
674.23	1304.56
674.41	1296.36
674.60	1286.12
674.79	1191.92
674.97	1208.30
675.16	1259.50
675.34	1273.84
675.53	1300.46
675.72	1259.50
675.90	1259.50
676.09	1282.03
676.28	1288.17
676.46	1298.41
676.65	1232.88
676.83	1288.17
677.02	1286.12
677.21	1306.60
677.39	1239.02
677.58	1288.17
677.77	1253.36
677.95	1226.73
678.14	1230.83
678.32	1279.98
678.51	1306.60
678.70	1304.56
678.88	1277.93
679.07	1302.51
679.25	1206.25
679.44	1279.98
679.63	1308.65
679.81	1320.94
680.00	1232.88
680.18	1282.03
680.37	1265.64
680.55	1230.83
680.74	1322.99
680.93	1271.79
681.11	1275.88
681.30	1275.88
681.48	1304.56
681.67	1286.12
681.85	1312.75
682.04	1292.27
682.23	1259.50
682.41	1300.46
682.60	1239.02
682.78	1234.93
682.97	1249.26
683.15	1253.36
683.34	1320.94
683.53	1249.26
683.71	1290.22
683.90	1322.99
684.08	1267.69
684.27	1249.26
684.45	1247.21
684.64	1245.16
684.82	1316.84
685.01	1247.21
685.19	1220.59
685.38	1327.08
685.57	1277.93
685.75	1255.40
685.94	1275.88
686.12	1239.02
686.31	1218.54
686.49	1284.08
686.68	1275.88
686.86	1257.45
687.05	1236.97
687.23	1273.84
687.42	1318.89
687.60	1286.12
687.79	1222.64
687.97	1193.97
688.16	1255.40
688.34	1308.65
688.53	1181.68
688.71	1282.03
688.90	1259.50
689.08	1279.98
689.27	1273.84
689.45	1279.98
689.64	1171.44
689.82	1304.56
690.01	1230.83
690.19	1288.17
690.38	1232.88
690.56	1335.28
690.75	1255.40
690.93	1318.89
691.12	1144.81
691.30	1277.93
691.49	1232.88
691.67	1290.22
691.86	1257.45
692.04	1245.16
692.23	1249.26
692.41	1185.77
692.60	1167.34
692.78	1261.55
692.97	1255.40
693.15	1339.37
693.34	1284.08
693.52	1308.65
693.71	1275.88
693.89	1257.45
694.08	1261.55
694.26	1320.94
694.44	1279.98
694.63	1279.98
694.81	1257.45
695.00	1282.03
695.18	1286.12
695.37	1296.36
695.55	1204.21
695.74	1269.74
695.92	1290.22
696.10	1304.56
696.29	1265.64
696.47	1322.99
696.66	1306.60
696.84	1239.02
697.03	1277.93
697.21	1286.12
697.40	1312.75
697.58	1239.02
697.76	1218.54
697.95	1308.65
698.13	1304.56
698.32	1167.34
698.50	1269.74
698.68	1214.45
698.87	1277.93
699.05	1249.26
699.24	1245.16
699.42	1275.88
699.61	1282.03
699.79	1370.09
699.97	1214.45
700.16	1247.21
700.34	1298.41
700.53	1241.07
700.71	1249.26
700.89	1212.40
701.08	1230.83
701.26	1196.01
701.45	1259.50
701.63	1263.60
701.81	1294.32
702.00	1230.83
702.18	1316.84
702.37	1331.18
702.55	1284.08
702.73	1216.49
702.92	1257.45
703.10	1322.99
703.28	1298.41
703.47	1327.08
703.65	1286.12
703.84	1249.26
704.02	1200.11
704.20	1216.49
704.39	1269.74
704.57	1261.55
704.75	1343.47
704.94	1284.08
705.12	1273.84
705.30	1208.30
705.49	1290.22
705.67	1247.21
705.86	1345.52
706.04	1257.45
706.22	1314.80
706.41	1234.93
706.59	1257.45
706.77	1255.40
706.96	1251.31
707.14	1286.12
707.32	1312.75
707.51	1347.56
707.69	1265.64
707.87	1265.64
708.06	1208.30
708.24	1331.18
708.42	1273.84
708.61	1298.41
708.79	1341.42
708.97	1224.69
709.16	1341.42
709.34	1284.08
709.52	1357.80
709.71	1279.98
709.89	1202.16
710.07	1245.16
710.26	1234.93
710.44	1325.04
710.62	1290.22
710.80	1263.60
710.99	1253.36
711.17	1298.41
711.35	1249.26
711.54	1204.21
711.72	1245.16
711.90	1175.53
712.09	1282.03
712.27	1296.36
712.45	1265.64
712.63	1239.02
712.82	1277.93
713.00	1230.83
713.18	1282.03
713.37	1259.50
713.55	1232.88
713.73	1347.56
713.91	1265.64
714.10	1265.64
714.28	1220.59
714.46	1284.08
714.65	1232.88
714.83	1208.30
715.01	1226.73
715.19	1300.46
715.38	1255.40
715.56	1292.27
715.74	1277.93
715.92	1239.02
716.11	1271.79
716.29	1279.98
716.47	1282.03
716.65	1279.98
716.84	1275.88
717.02	1269.74
717.20	1218.54
717.38	1275.88
717.57	1206.25
717.75	1245.16
717.93	1196.01
718.11	1228.78
718.30	1208.30
718.48	1279.98
718.66	1259.50
718.84	1220.59
719.03	1269.74
719.21	1259.50
719.39	1275.88
719.57	1263.60
719.75	1239.02
719.94	1212.40
720.12	1232.88
720.30	1234.93
720.48	1286.12
720.67	1204.21
720.85	1261.55
721.03	1271.79
721.21	1255.40
721.39	1290.22
721.58	1314.80
721.76	1241.07
721.94	1232.88
722.12	1298.41
722.30	1339.37
722.49	1275.88
722.67	1320.94
722.85	1253.36
723.03	1210.35
723.21	1284.08
723.40	1269.74
723.58	1228.78
723.76	1251.31
723.94	1255.40
724.12	1261.55
724.30	1275.88
724.49	1306.60
724.67	1288.17
724.85	1253.36
725.03	1294.32
725.21	1341.42
725.40	1275.88
725.58	1286.12
725.76	1239.02
725.94	1312.75
726.12	1245.16
726.30	1243.12
726.49	1245.16
726.67	1271.79
726.85	1247.21
727.03	1263.60
727.21	1265.64
727.39	1212.40
727.57	1226.73
727.76	1273.84
727.94	1282.03
728.12	1275.88
728.30	1257.45
728.48	1277.93
728.66	1296.36
728.84	1271.79
729.03	1296.36
729.21	1214.45
729.39	1247.21
729.57	1292.27
729.75	1273.84
729.93	1296.36
730.11	1245.16
730.30	1290.22
730.48	1304.56
730.66	1257.45
730.84	1245.16
731.02	1310.70
731.20	1341.42
731.38	1193.97
731.56	1263.60
731.74	1243.12
731.93	1216.49
732.11	1304.56
732.29	1273.84
732.47	1322.99
732.65	1214.45
732.83	1277.93
733.01	1314.80
733.19	1230.83
733.37	1257.45
733.56	1273.84
733.74	1294.32
733.92	1265.64
734.10	1247.21
734.28	1236.97
734.46	1226.73
734.64	1171.44
734.82	1306.60
735.00	1218.54
735.18	1306.60
735.36	1282.03
735.54	1306.60
735.73	1259.50
735.91	1232.88
736.09	1312.75
736.27	1265.64
736.45	1249.26
736.63	1261.55
736.81	1263.60
736.99	1355.76
737.17	1298.41
737.35	1196.01
737.53	1247.21
737.71	1322.99
737.89	1263.60
738.07	1273.84
738.25	1277.93
738.43	1296.36
738.61	1273.84
738.80	1298.41
738.98	1257.45
739.16	1298.41
739.34	1259.50
739.52	1363.95
739.70	1243.12
739.88	1167.34
740.06	1269.74
740.24	1234.93
740.42	1269.74
740.60	1277.93
740.78	1267.69
740.96	1300.46
741.14	1239.02
741.32	1304.56
741.50	1273.84
741.68	1259.50
741.86	1308.65
742.04	1196.01
742.22	1267.69
742.40	1302.51
742.58	1265.64
742.76	1302.51
742.94	1230.83
743.12	1224.69
743.30	1288.17
743.48	1204.21
743.66	1234.93
743.84	1296.36
744.02	1245.16
744.20	1294.32
744.38	1210.35
744.56	1279.98
744.74	1189.87
744.92	1232.88
745.10	1243.12
745.28	1269.74
745.46	1308.65
745.64	1275.88
745.82	1271.79
746.00	1400.81
746.18	1232.88
746.36	1222.64
746.54	1220.59
746.72	1288.17
746.90	1210.35
747.08	1269.74
747.26	1236.97
747.44	1222.64
747.62	1253.36
747.80	1298.41
747.98	1249.26
748.15	1241.07
748.33	1275.88
748.51	1290.22
748.69	1241.07
748.87	1185.77
749.05	1249.26
749.23	1273.84
749.41	1327.08
749.59	1218.54
749.77	1302.51
749.95	1304.56
750.13	1275.88
750.31	1275.88
750.49	1267.69
750.67	1302.51
750.85	1269.74
751.03	1275.88
751.20	1261.55
751.38	1253.36
751.56	1259.50
751.74	1249.26
751.92	1234.93
752.10	1271.79
752.28	1257.45
752.46	1290.22
752.64	1337.32
752.82	1275.88
753.00	1269.74
753.18	1277.93
753.35	1230.83
753.53	1273.84
753.71	1251.31
753.89	1216.49
754.07	1318.89
754.25	1259.50
754.43	1273.84
754.61	1292.27
754.79	1273.84
754.97	1302.51
755.14	1306.60
755.32	1302.51
755.50	1249.26
755.68	1279.98
755.86	1257.45
756.04	1175.53
756.22	1175.53
756.40	1339.37
756.57	1216.49
756.75	1300.46
756.93	1232.88
757.11	1271.79
757.29	1255.40
757.47	1286.12
757.65	1312.75
757.82	1292.27
758.00	1251.31
758.18	1304.56
758.36	1259.50
758.54	1273.84
758.72	1325.04
758.90	1374.19
759.07	1249.26
759.25	1363.95
759.43	1277.93
759.61	1284.08
759.79	1310.70
759.97	1259.50
760.15	1236.97
760.32	1275.88
760.50	1259.50
760.68	1241.07
760.86	1239.02
761.04	1255.40
761.22	1298.41
761.39	1282.03
761.57	1361.90
761.75	1224.69
761.93	1308.65
762.11	1245.16
762.28	1322.99
762.46	1267.69
762.64	1249.26
762.82	1236.97
763.00	1337.32
763.18	1230.83
763.35	1277.93
763.53	1310.70
763.71	1204.21
763.89	1243.12
764.07	1265.64
764.24	1204.21
764.42	1282.03
764.60	1290.22
764.78	1236.97
764.96	1251.31
765.13	1351.66
765.31	1290.22
765.49	1177.58
765.67	1255.40
765.84	1241.07
766.02	1230.83
766.20	1210.35
766.38	1282.03
766.56	1302.51
766.73	1298.41
766.91	1245.16
767.09	1239.02
767.27	1290.22
767.44	1218.54
767.62	1286.12
767.80	1331.18
767.98	1259.50
768.15	1329.13
768.33	1294.32
768.51	1294.32
768.69	1228.78
768.87	1257.45
769.04	1325.04
769.22	1253.36
769.40	1308.65
769.58	1302.51
769.75	1226.73
769.93	1241.07
770.11	1196.01
770.28	1279.98
770.46	1259.50
770.64	1259.50
770.82	1341.42
770.99	1222.64
771.17	1230.83
771.35	1239.02
771.53	1320.94
771.70	1296.36
771.88	1310.70
772.06	1277.93
772.23	1181.68
772.41	1232.88
772.59	1179.63
772.77	1261.55
772.94	1263.60
773.12	1198.06
773.30	1282.03
773.47	1273.84
773.65	1335.28
773.83	1339.37
774.01	1210.35
774.18	1251.31
774.36	1226.73
774.54	1265.64
774.71	1271.79
774.89	1265.64
775.07	1216.49
775.24	1298.41
775.42	1245.16
775.60	1279.98
775.78	1337.32
775.95	1267.69
776.13	1265.64
776.31	1302.51
776.48	1296.36
776.66	1298.41
776.84	1191.92
777.01	1351.66
777.19	1234.93
777.37	1312.75
777.54	1255.40
777.72	1327.08
777.90	1286.12
778.07	1224.69
778.25	1273.84
778.43	1261.55
778.60	1222.64
778.78	1228.78
778.96	1263.60
779.13	1279.98
779.31	1320.94
779.49	1312.75
779.66	1310.70
779.84	1202.16
780.01	1261.55
780.19	1200.11
780.37	1251.31
780.54	1255.40
780.72	1249.26
780.90	1277.93
781.07	1208.30
781.25	1335.28
781.43	1200.11
781.60	1325.04
781.78	1241.07
781.95	1263.60
782.13	1308.65
782.31	1273.84
782.48	1187.82
782.66	1318.89
782.83	1306.60
783.01	1263.60
783.19	1214.45
783.36	1290.22
783.54	1300.46
783.72	1257.45
783.89	1232.88
784.07	1296.36
784.24	1191.92
784.42	1232.88
784.60	1290.22
784.77	1286.12
784.95	1214.45
785.12	1257.45
785.30	1263.60
785.47	1202.16
785.65	1243.12
785.83	1249.26
786.00	1255.40
786.18	1222.64
786.35	1239.02
786.53	1259.50
786.71	1335.28
786.88	1232.88
787.06	1245.16
787.23	1243.12
787.41	1292.27
787.58	1239.02
787.76	1277.93
787.94	1314.80
788.11	1335.28
788.29	1275.88
788.46	1257.45
788.64	1279.98
788.81	1214.45
788.99	1271.79
789.16	1216.49
789.34	1249.26
789.52	1236.97
789.69	1300.46
789.87	1202.16
790.04	1232.88
790.22	1224.69
790.39	1277.93
790.57	1267.69
790.74	1298.41
790.92	1212.40
791.09	1300.46
791.27	1228.78
791.44	1312.75
791.62	1234.93
791.79	1312.75
791.97	1218.54
792.15	1267.69
792.32	1302.51
792.50	1304.56
792.67	1255.40
792.85	1331.18
793.02	1265.64
793.20	1279.98
793.37	1314.80
793.55	1288.17
793.72	1177.58
793.90	1263.60
794.07	1226.73
794.25	1310.70
794.42	1267.69
794.60	1298.41
794.77	1298.41
794.95	1269.74
795.12	1249.26
795.30	1269.74
795.47	1218.54
795.65	1259.50
795.82	1198.06
796.00	1265.64
796.17	1257.45
796.34	1298.41
796.52	1218.54
796.69	1318.89
796.87	1273.84
797.04	1257.45
797.22	1228.78
797.39	1300.46
797.57	1271.79
797.74	1347.56
797.92	1239.02
798.09	1241.07
798.27	1263.60
798.44	1273.84
798.62	1261.55
798.79	1339.37
798.96	1298.41
799.14	1251.31
799.31	1288.17
799.49	1255.40
799.66	1208.30
799.84	1333.23
800.01	1288.17
800.19	1232.88
800.36	1294.32
800.53	1302.51
800.71	1294.32
800.88	1255.40
801.06	1159.15
801.23	1316.84
801.41	1224.69
801.58	1318.89
801.75	1265.64
801.93	1196.01
802.10	1310.70
802.28	1302.51
802.45	1296.36
802.63	1220.59
802.80	1255.40
802.97	1259.50
803.15	1292.27
803.32	1187.82
803.50	1314.80
803.67	1277.93
803.84	1275.88
804.02	1279.98
804.19	1292.27
804.37	1239.02
804.54	1239.02
804.71	1306.60
804.89	1261.55
805.06	1263.60
805.24	1263.60
805.41	1255.40
805.58	1302.51
805.76	1267.69
805.93	1200.11
806.10	1347.56
806.28	1296.36
806.45	1239.02
806.63	1241.07
806.80	1216.49
806.97	1265.64
807.15	1282.03
807.32	1253.36
807.49	1265.64
807.67	1253.36
807.84	1208.30
808.01	1308.65
808.19	1302.51
808.36	1290.22
808.54	1271.79
808.71	1236.97
808.88	1259.50
809.06	1179.63
809.23	1148.91
809.40	1273.84
809.58	1290.22
809.75	1269.74
809.92	1284.08
810.10	1325.04
810.27	1279.98
810.44	1404.91
810.62	1224.69
810.79	1316.84
810.96	1243.12
811.14	1298.41
811.31	1257.45
811.48	1247.21
811.66	1257.45
811.83	1249.26
812.00	1273.84
812.18	1308.65
812.35	1275.88
812.52	1263.60
812.69	1247.21
812.87	1257.45
813.04	1292.27
813.21	1228.78
813.39	1206.25
813.56	1277.93
813.73	1261.55
813.91	1208.30
814.08	1234.93
814.25	1255.40
814.42	1257.45
814.60	1275.88
814.77	1232.88
814.94	1298.41
815.12	1239.02
815.29	1224.69
815.46	1298.41
815.63	1308.65
815.81	1318.89
815.98	1187.82
816.15	1265.64
816.33	1265.64
816.50	1220.59
816.67	1200.11
816.84	1261.55
817.02	1298.41
817.19	1288.17
817.36	1271.79
817.53	1284.08
817.71	1304.56
817.88	1284.08
818.05	1302.51
818.22	1275.88
818.40	1302.51
818.57	1284.08
818.74	1249.26
818.91	1220.59
819.09	1222.64
819.26	1222.64
819.43	1275.88
819.60	1175.53
819.78	1306.60
819.95	1265.64
820.12	1222.64
820.29	1241.07
820.47	1279.98
820.64	1265.64
820.81	1241.07
820.98	1335.28
821.15	1255.40
821.33	1282.03
821.50	1273.84
821.67	1288.17
821.84	1255.40
822.02	1257.45
822.19	1269.74
822.36	1259.50
822.53	1230.83
822.70	1222.64
822.88	1224.69
823.05	1277.93
823.22	1286.12
823.39	1318.89
823.56	1277.93
823.74	1304.56
823.91	1322.99
824.08	1296.36
824.25	1269.74
824.42	1273.84
824.60	1234.93
824.77	1228.78
824.94	1269.74
825.11	1267.69
825.28	1251.31
825.45	1189.87
825.63	1220.59
825.80	1284.08
825.97	1232.88
826.14	1239.02
826.31	1269.74
826.48	1322.99
826.66	1339.37
826.83	1257.45
827.00	1335.28
827.17	1290.22
827.34	1279.98
827.51	1294.32
827.69	1183.73
827.86	1232.88
828.03	1232.88
828.20	1304.56
828.37	1249.26
828.54	1259.50
828.71	1222.64
828.89	1245.16
829.06	1296.36
829.23	1282.03
829.40	1308.65
829.57	1206.25
829.74	1312.75
829.91	1275.88
830.09	1253.36
830.26	1288.17
830.43	1228.78
830.60	1331.18
830.77	1204.21
830.94	1273.84
831.11	1282.03
831.28	1298.41
831.46	1286.12
831.63	1275.88
831.80	1245.16
831.97	1351.66
832.14	1288.17
832.31	1243.12
832.48	1312.75
832.65	1249.26
832.82	1271.79
832.99	1228.78
833.17	1265.64
833.34	1249.26
833.51	1255.40
833.68	1277.93
833.85	1294.32
834.02	1236.97
834.19	1333.23
834.36	1226.73
834.53	1214.45
834.70	1298.41
834.87	1261.55
835.04	1245.16
835.22	1327.08
835.39	1253.36
835.56	1267.69
835.73	1288.17
835.90	1222.64
836.07	1337.32
836.24	1230.83
836.41	1269.74
836.58	1263.60
836.75	1267.69
836.92	1296.36
837.09	1318.89
837.26	1236.97
837.43	1243.12
837.60	1249.26
837.77	1234.93
837.94	1277.93
838.12	1255.40
838.29	1322.99
838.46	1232.88
838.63	1239.02
838.80	1273.84
838.97	1269.74
839.14	1148.91
839.31	1212.40
839.48	1306.60
839.65	1286.12
839.82	1282.03
839.99	1304.56
840.16	1232.88
840.33	1214.45
840.50	1247.21
840.67	1298.41
840.84	1292.27
841.01	1267.69
841.18	1304.56
841.35	1302.51
841.52	1320.94
841.69	1263.60
841.86	1232.88
842.03	1216.49
842.20	1236.97
842.37	1308.65
842.54	1222.64
842.71	1222.64
842.88	1212.40
843.05	1259.50
843.22	1249.26
843.39	1279.98
843.56	1230.83
843.73	1259.50
843.90	1267.69
844.07	1232.88
844.24	1298.41
844.41	1263.60
844.58	1339.37
844.75	1165.29
844.92	1335.28
845.09	1284.08
845.26	1249.26
845.43	1263.60
845.60	1292.27
845.77	1290.22
845.94	1265.64
846.10	1234.93
846.27	1251.31
846.44	1263.60
846.61	1286.12
846.78	1282.03
846.95	1288.17
847.12	1302.51
847.29	1159.15
847.46	1304.56
847.63	1304.56
847.80	1269.74
847.97	1224.69
848.14	1269.74
848.31	1216.49
848.48	1265.64
848.65	1282.03
848.82	1232.88
848.98	1267.69
849.15	1265.64
849.32	1241.07
849.49	1308.65
849.66	1308.65
849.83	1212.40
850.00	1257.45
850.17	1322.99
850.34	1310.70
850.51	1265.64
850.68	1259.50
850.85	1230.83
851.01	1275.88
851.18	1302.51
851.35	1255.40
851.52	1239.02
851.69	1318.89
851.86	1308.65
852.03	1304.56
852.20	1275.88
852.37	1212.40
852.53	1224.69
852.70	1247.21
852.87	1351.66
853.04	1273.84
853.21	1196.01
853.38	1300.46
853.55	1279.98
853.72	1292.27
853.89	1273.84
854.05	1296.36
854.22	1249.26
854.39	1306.60
854.56	1275.88
854.73	1292.27
854.90	1263.60
855.07	1228.78
855.23	1261.55
855.40	1296.36
855.57	1224.69
855.74	1245.16
855.91	1263.60
856.08	1232.88
856.25	1230.83
856.41	1247.21
856.58	1263.60
856.75	1290.22
856.92	1230.83
857.09	1249.26
857.26	1296.36
857.42	1327.08
857.59	1320.94
857.76	1251.31
857.93	1269.74
858.10	1288.17
858.27	1271.79
858.43	1259.50
858.60	1300.46
858.77	1232.88
858.94	1257.45
859.11	1271.79
859.27	1282.03
859.44	1243.12
859.61	1220.59
859.78	1273.84
859.95	1265.64
860.12	1312.75
860.28	1273.84
860.45	1230.83
860.62	1298.41
860.79	1312.75
860.95	1284.08
861.12	1282.03
861.29	1183.73
861.46	1355.76
861.63	1232.88
861.79	1257.45
861.96	1232.88
862.13	1261.55
862.30	1329.13
862.47	1296.36
862.63	1253.36
862.80	1325.04
862.97	1263.60
863.14	1314.80
863.30	1273.84
863.47	1230.83
863.64	1241.07
863.81	1306.60
863.97	1220.59
864.14	1247.21
864.31	1290.22
864.48	1282.03
864.65	1208.30
864.81	1241.07
864.98	1206.25
865.15	1220.59
865.32	1267.69
865.48	1257.45
865.65	1290.22
865.82	1253.36
865.98	1241.07
866.15	1325.04
866.32	1269.74
866.49	1302.51
866.65	1257.45
866.82	1261.55
866.99	1245.16
867.16	1337.32
867.32	1253.36
867.49	1296.36
867.66	1243.12
867.83	1320.94
867.99	1239.02
868.16	1290.22
868.33	1325.04
868.49	1255.40
868.66	1165.29
868.83	1339.37
868.99	1232.88
869.16	1292.27
869.33	1312.75
869.50	1318.89
869.66	1269.74
869.83	1322.99
870.00	1185.77
870.16	1261.55
870.33	1282.03
870.50	1224.69
870.66	1255.40
870.83	1279.98
871.00	1222.64
871.17	1253.36
871.33	1282.03
871.50	1261.55
871.67	1247.21
871.83	1249.26
872.00	1308.65
872.17	1234.93
872.33	1224.69
872.50	1327.08
872.67	1308.65
872.83	1249.26
873.00	1275.88
873.17	1329.13
873.33	1273.84
873.50	1279.98
873.67	1228.78
873.83	1241.07
874.00	1261.55
874.16	1331.18
874.33	1284.08
874.50	1255.40
874.66	1273.84
874.83	1210.35
875.00	1255.40
875.16	1261.55
875.33	1253.36
875.50	1255.40
875.66	1302.51
875.83	1253.36
875.99	1296.36
876.16	1282.03
876.33	1267.69
876.49	1230.83
876.66	1314.80
876.83	1251.31
876.99	1316.84
877.16	1282.03
877.32	1232.88
877.49	1216.49
877.66	1255.40
877.82	1329.13
877.99	1282.03
878.15	1279.98
878.32	1253.36
878.49	1204.21
878.65	1200.11
878.82	1286.12
878.98	1183.73
879.15	1257.45
879.32	1277.93
879.48	1269.74
879.65	1187.82
879.81	1288.17
879.98	1288.17
880.15	1275.88
880.31	1292.27
880.48	1267.69
880.64	1220.59
880.81	1302.51
880.97	1261.55
881.14	1312.75
881.31	1304.56
881.47	1312.75
881.64	1275.88
881.80	1214.45
881.97	1255.40
882.13	1208.30
882.30	1196.01
882.47	1267.69
882.63	1202.16
882.80	1230.83
882.96	1257.45
883.13	1241.07
883.29	1292.27
883.46	1234.93
883.62	1300.46
883.79	1200.11
883.95	1316.84
884.12	1249.26
884.29	1243.12
884.45	1333.23
884.62	1257.45
884.78	1320.94
884.95	1310.70
885.11	1222.64
885.28	1263.60
885.44	1222.64
885.61	1322.99
885.77	1300.46
885.94	1253.36
886.10	1222.64
886.27	1267.69
886.43	1294.32
886.60	1290.22
886.76	1263.60
886.93	1212.40
887.09	1302.51
887.26	1263.60
887.42	1269.74
887.59	1216.49
887.75	1282.03
887.92	1298.41
888.08	1267.69
888.25	1302.51
888.41	1196.01
888.58	1286.12
888.74	1294.32
888.91	1275.88
>>>>>End Processed Spectral Data<<<<<
