SpectraSuite Data File
++++++++++++++++++++++++++++++++++++
Date: Wed May 04 22:46:12 CEST 2016
User: root
Dark Spectrum Present: No
Reference Spectrum Present: No
Number of Sampled Component Spectra: 1
Spectrometers: USB4C02835
Integration Time (usec): 100000 (USB4C02835)
Spectra Averaged: 1 (USB4C02835)
Boxcar Smoothing: 0 (USB4C02835)
Correct for Electrical Dark: No (USB4C02835)
Strobe/Lamp Enabled: No (USB4C02835)
Correct for Detector Non-linearity: No (USB4C02835)
Correct for Stray Light: No (USB4C02835)
Number of Pixels in Processed Spectrum: 3648
>>>>>Begin Processed Spectral Data<<<<<
177.47	1646.57
177.69	1646.57
177.91	1646.57
178.13	1669.09
178.36	1628.14
178.58	1910.75
178.80	1976.29
179.02	1867.75
179.24	1880.04
179.46	1892.32
179.68	2002.91
179.90	1906.66
180.13	1951.71
180.35	1873.89
180.57	1927.14
180.79	2000.87
181.01	1972.19
181.23	2027.49
181.45	2070.50
181.67	1972.19
181.90	1951.71
182.12	1955.81
182.34	1863.65
182.56	1941.47
182.78	2000.87
183.00	1908.71
183.22	1914.85
183.44	1826.79
183.66	2170.85
183.89	2076.64
184.11	1949.67
184.33	1978.34
184.55	1968.10
184.77	1968.10
184.99	1920.99
185.21	1959.91
185.43	2154.46
185.65	1910.75
185.87	1910.75
186.10	2160.61
186.32	2027.49
186.54	1949.67
186.76	2011.11
186.98	2072.54
187.20	2004.96
187.42	2015.20
187.64	1929.19
187.86	2000.87
188.08	2045.92
188.30	1988.58
188.52	1947.62
188.75	2084.83
188.97	2045.92
189.19	1943.52
189.41	1888.23
189.63	1994.72
189.85	1918.95
190.07	1816.55
190.29	1869.80
190.51	1998.82
190.73	1845.22
190.95	1978.34
191.17	1961.95
191.39	1845.22
191.61	1894.37
191.84	1972.19
192.06	1953.76
192.28	1853.41
192.50	2158.56
192.72	2013.15
192.94	1935.33
193.16	2009.06
193.38	2002.91
193.60	1886.18
193.82	1890.28
194.04	2064.35
194.26	1898.47
194.48	1972.19
194.70	1935.33
194.92	1978.34
195.14	2029.54
195.36	1863.65
195.58	1994.72
195.80	1953.76
196.02	1906.66
196.24	1939.43
196.46	1970.15
196.69	1925.09
196.91	2172.89
197.13	1888.23
197.35	1923.04
197.57	2029.54
197.79	1974.24
198.01	1939.43
198.23	1970.15
198.45	2058.21
198.67	1843.17
198.89	1931.23
199.11	1927.14
199.33	1945.57
199.55	1785.83
199.77	1957.86
199.99	2013.15
200.21	1959.91
200.43	1920.99
200.65	1906.66
200.87	1806.31
201.09	1986.53
201.31	1906.66
201.53	1986.53
201.75	1929.19
201.97	1968.10
202.19	1861.60
202.41	1945.57
202.63	2099.17
202.85	2021.35
203.07	1972.19
203.29	1925.09
203.51	1865.70
203.73	1834.98
203.95	2209.76
204.17	1939.43
204.39	1957.86
204.61	1953.76
204.83	1949.67
205.05	2023.39
205.27	1980.39
205.49	2076.64
205.71	1972.19
205.93	1789.92
206.15	1916.90
206.37	1978.34
206.59	1890.28
206.81	1824.74
207.03	1888.23
207.25	1910.75
207.47	2023.39
207.69	1961.95
207.91	2054.11
208.13	2037.73
208.34	1896.42
208.56	1814.50
208.78	1939.43
209.00	1927.14
209.22	1939.43
209.44	1851.36
209.66	1947.62
209.88	1925.09
210.10	1980.39
210.32	1970.15
210.54	2023.39
210.76	1933.28
210.98	2000.87
211.20	1824.74
211.42	1929.19
211.64	2037.73
211.86	2007.01
212.08	1957.86
212.30	1984.48
212.52	1990.63
212.74	1978.34
212.96	1906.66
213.17	2013.15
213.39	1968.10
213.61	2097.12
213.83	1980.39
214.05	1925.09
214.27	2027.49
214.49	1855.46
214.71	1861.60
214.93	2050.02
215.15	1947.62
215.37	1974.24
215.59	1894.37
215.81	1951.71
216.03	2009.06
216.24	1968.10
216.46	1945.57
216.68	2025.44
216.90	1976.29
217.12	2052.06
217.34	1941.47
217.56	1994.72
217.78	2133.98
218.00	1970.15
218.22	1972.19
218.44	1959.91
218.66	1982.43
218.87	2109.41
219.09	1955.81
219.31	2086.88
219.53	1964.00
219.75	1945.57
219.97	1910.75
220.19	1947.62
220.41	2009.06
220.63	2080.74
220.85	1970.15
221.06	1929.19
221.28	2111.46
221.50	1970.15
221.72	1949.67
221.94	1910.75
222.16	2043.87
222.38	2027.49
222.60	1961.95
222.82	1894.37
223.03	1970.15
223.25	1877.99
223.47	1927.14
223.69	2099.17
223.91	1908.71
224.13	1882.08
224.35	1920.99
224.57	1968.10
224.78	2009.06
225.00	1855.46
225.22	1978.34
225.44	1857.51
225.66	1931.23
225.88	1923.04
226.10	2011.11
226.32	1955.81
226.53	1984.48
226.75	1855.46
226.97	1929.19
227.19	1939.43
227.41	1896.42
227.63	1959.91
227.85	1785.83
228.06	1898.47
228.28	1961.95
228.50	2043.87
228.72	1843.17
228.94	1865.70
229.16	1908.71
229.37	1908.71
229.59	1929.19
229.81	2099.17
230.03	1916.90
230.25	1853.41
230.47	1791.97
230.69	1888.23
230.90	1980.39
231.12	1949.67
231.34	2041.82
231.56	1964.00
231.78	1851.36
232.00	1970.15
232.21	1941.47
232.43	1832.93
232.65	1814.50
232.87	1964.00
233.09	1857.51
233.30	1896.42
233.52	2045.92
233.74	1923.04
233.96	1949.67
234.18	1990.63
234.40	1933.28
234.61	2121.70
234.83	1853.41
235.05	1910.75
235.27	2160.61
235.49	2082.78
235.70	1912.80
235.92	2084.83
236.14	2041.82
236.36	2127.84
236.58	1849.32
236.79	1976.29
237.01	1982.43
237.23	1877.99
237.45	2101.22
237.67	1824.74
237.88	1992.67
238.10	2105.31
238.32	1871.84
238.54	1929.19
238.76	1894.37
238.97	1890.28
239.19	1949.67
239.41	2033.63
239.63	1945.57
239.85	2025.44
240.06	1828.84
240.28	1943.52
240.50	2045.92
240.72	1933.28
240.93	1978.34
241.15	1974.24
241.37	1939.43
241.59	2023.39
241.81	1957.86
242.02	1900.52
242.24	2011.11
242.46	2045.92
242.68	1822.69
242.89	1931.23
243.11	2062.30
243.33	1931.23
243.55	1906.66
243.76	1935.33
243.98	1943.52
244.20	1892.32
244.42	1955.81
244.64	1871.84
244.85	1783.78
245.07	1843.17
245.29	1986.53
245.51	1943.52
245.72	2019.30
245.94	2023.39
246.16	1996.77
246.38	2002.91
246.59	1980.39
246.81	1941.47
247.03	1908.71
247.24	1880.04
247.46	1941.47
247.68	1980.39
247.90	1888.23
248.11	1894.37
248.33	2004.96
248.55	1986.53
248.77	1908.71
248.98	2011.11
249.20	2090.98
249.42	1937.38
249.64	2004.96
249.85	1937.38
250.07	1910.75
250.29	2050.02
250.50	1931.23
250.72	1877.99
250.94	1923.04
251.16	2097.12
251.37	1970.15
251.59	1990.63
251.81	1976.29
252.02	2007.01
252.24	1931.23
252.46	2015.20
252.68	1910.75
252.89	1978.34
253.11	1873.89
253.33	1992.67
253.54	2068.45
253.76	1914.85
253.98	1959.91
254.20	1957.86
254.41	1914.85
254.63	1923.04
254.85	1796.07
255.06	1920.99
255.28	2039.78
255.50	1890.28
255.71	1873.89
255.93	1871.84
256.15	1912.80
256.36	1949.67
256.58	1857.51
256.80	1980.39
257.02	1957.86
257.23	1986.53
257.45	1927.14
257.67	2000.87
257.88	1859.56
258.10	1947.62
258.32	1914.85
258.53	1951.71
258.75	2109.41
258.97	2004.96
259.18	1880.04
259.40	1923.04
259.62	1998.82
259.83	2068.45
260.05	2021.35
260.27	2279.39
260.48	2072.54
260.70	1884.13
260.92	1865.70
261.13	1966.05
261.35	1920.99
261.57	1982.43
261.78	1853.41
262.00	1882.08
262.22	1988.58
262.43	1871.84
262.65	1851.36
262.86	1972.19
263.08	2207.71
263.30	1920.99
263.51	1810.40
263.73	1894.37
263.95	2074.59
264.16	1961.95
264.38	1906.66
264.60	2025.44
264.81	1929.19
265.03	2002.91
265.25	2070.50
265.46	1929.19
265.68	2017.25
265.89	1959.91
266.11	1931.23
266.33	1900.52
266.54	2056.16
266.76	1978.34
266.98	2064.35
267.19	2000.87
267.41	2023.39
267.62	1953.76
267.84	1900.52
268.06	1972.19
268.27	1933.28
268.49	2054.11
268.70	2009.06
268.92	1953.76
269.14	1900.52
269.35	1877.99
269.57	1865.70
269.79	1947.62
270.00	1888.23
270.22	2086.88
270.43	1906.66
270.65	1837.03
270.87	1978.34
271.08	2035.68
271.30	2056.16
271.51	1978.34
271.73	1904.61
271.95	2076.64
272.16	1896.42
272.38	1957.86
272.59	1951.71
272.81	1959.91
273.02	1947.62
273.24	1966.05
273.46	2023.39
273.67	1824.74
273.89	1923.04
274.10	1904.61
274.32	1982.43
274.54	1964.00
274.75	1863.65
274.97	1957.86
275.18	1996.77
275.40	2002.91
275.61	1976.29
275.83	1935.33
276.05	1873.89
276.26	2015.20
276.48	1988.58
276.69	1914.85
276.91	1957.86
277.12	2101.22
277.34	2043.87
277.55	1976.29
277.77	1959.91
277.99	1947.62
278.20	1900.52
278.42	1828.84
278.63	1918.95
278.85	1980.39
279.06	1867.75
279.28	1988.58
279.49	1976.29
279.71	1974.24
279.93	1972.19
280.14	1927.14
280.36	1931.23
280.57	1996.77
280.79	1984.48
281.00	1951.71
281.22	1892.32
281.43	2072.54
281.65	1806.31
281.86	1929.19
282.08	1986.53
282.29	2160.61
282.51	1832.93
282.73	1943.52
282.94	1773.54
283.16	2017.25
283.37	2084.83
283.59	1951.71
283.80	2015.20
284.02	1996.77
284.23	1931.23
284.45	1933.28
284.66	1892.32
284.88	1863.65
285.09	2011.11
285.31	1951.71
285.52	1892.32
285.74	1832.93
285.95	1949.67
286.17	1959.91
286.38	1998.82
286.60	1994.72
286.81	1865.70
287.03	1949.67
287.24	1953.76
287.46	1968.10
287.67	2025.44
287.89	2090.98
288.10	1920.99
288.32	2031.58
288.53	2054.11
288.75	1894.37
288.96	2011.11
289.18	1925.09
289.39	1886.18
289.61	2019.30
289.82	2107.36
290.04	2080.74
290.25	1871.84
290.47	1957.86
290.68	1951.71
290.90	2004.96
291.11	1804.26
291.33	2025.44
291.54	1859.56
291.76	1912.80
291.97	1892.32
292.18	1986.53
292.40	1970.15
292.61	1933.28
292.83	2047.97
293.04	1943.52
293.26	2000.87
293.47	1865.70
293.69	1886.18
293.90	1964.00
294.12	2035.68
294.33	1873.89
294.55	1888.23
294.76	1970.15
294.97	2090.98
295.19	2111.46
295.40	1902.56
295.62	1951.71
295.83	2050.02
296.05	1996.77
296.26	2072.54
296.48	1923.04
296.69	1984.48
296.90	1986.53
297.12	2023.39
297.33	2074.59
297.55	1949.67
297.76	1894.37
297.98	2023.39
298.19	1949.67
298.41	1884.13
298.62	1935.33
298.83	2031.58
299.05	1931.23
299.26	1902.56
299.48	1863.65
299.69	1996.77
299.90	2039.78
300.12	1882.08
300.33	1986.53
300.55	1976.29
300.76	1943.52
300.98	1865.70
301.19	1984.48
301.40	1939.43
301.62	1966.05
301.83	1998.82
302.05	1986.53
302.26	1949.67
302.47	2037.73
302.69	1849.32
302.90	2017.25
303.12	1843.17
303.33	1943.52
303.54	2076.64
303.76	1982.43
303.97	1933.28
304.19	2047.97
304.40	1920.99
304.61	2000.87
304.83	2064.35
305.04	2072.54
305.26	1968.10
305.47	1935.33
305.68	1916.90
305.90	1931.23
306.11	1941.47
306.33	1877.99
306.54	1892.32
306.75	1849.32
306.97	1816.55
307.18	1898.47
307.39	1849.32
307.61	1957.86
307.82	1900.52
308.04	2027.49
308.25	1910.75
308.46	1918.95
308.68	1957.86
308.89	1951.71
309.10	2054.11
309.32	1953.76
309.53	1953.76
309.74	1959.91
309.96	2017.25
310.17	2058.21
310.39	1927.14
310.60	2011.11
310.81	1955.81
311.03	1853.41
311.24	1990.63
311.45	1953.76
311.67	2056.16
311.88	1976.29
312.09	1920.99
312.31	1929.19
312.52	2002.91
312.73	1888.23
312.95	1929.19
313.16	1916.90
313.37	2078.69
313.59	1972.19
313.80	1957.86
314.01	2084.83
314.23	1933.28
314.44	1949.67
314.65	1896.42
314.87	1902.56
315.08	1949.67
315.29	1873.89
315.51	1929.19
315.72	1882.08
315.93	2078.69
316.15	2039.78
316.36	1890.28
316.57	1951.71
316.79	1947.62
317.00	1953.76
317.21	2021.35
317.43	1929.19
317.64	1968.10
317.85	1853.41
318.07	1832.93
318.28	1970.15
318.49	2142.18
318.70	2240.48
318.92	2148.32
319.13	2176.99
319.34	2234.33
319.56	2129.89
319.77	2166.75
319.98	2187.23
320.20	2103.26
320.41	2043.87
320.62	1945.57
320.83	1931.23
321.05	2150.37
321.26	2004.96
321.47	1877.99
321.69	2136.03
321.90	1798.12
322.11	1906.66
322.32	1970.15
322.54	2045.92
322.75	1906.66
322.96	2162.66
323.18	1859.56
323.39	1877.99
323.60	1806.31
323.81	2142.18
324.03	1900.52
324.24	1957.86
324.45	2013.15
324.66	1918.95
324.88	1939.43
325.09	2017.25
325.30	1937.38
325.52	2013.15
325.73	1966.05
325.94	1871.84
326.15	1826.79
326.37	1859.56
326.58	2011.11
326.79	2107.36
327.00	1877.99
327.22	1970.15
327.43	1857.51
327.64	1968.10
327.85	1984.48
328.07	2002.91
328.28	2078.69
328.49	1951.71
328.70	1976.29
328.92	1898.47
329.13	1877.99
329.34	1937.38
329.55	2109.41
329.76	2086.88
329.98	1888.23
330.19	2060.26
330.40	2056.16
330.61	2007.01
330.83	2045.92
331.04	1857.51
331.25	1916.90
331.46	1908.71
331.68	1896.42
331.89	2054.11
332.10	1945.57
332.31	1849.32
332.52	1968.10
332.74	2025.44
332.95	1785.83
333.16	1933.28
333.37	1982.43
333.58	1996.77
333.80	1923.04
334.01	1873.89
334.22	2047.97
334.43	1902.56
334.64	1918.95
334.86	1884.13
335.07	1923.04
335.28	2047.97
335.49	1816.55
335.70	1992.67
335.92	2023.39
336.13	2125.79
336.34	1996.77
336.55	1972.19
336.76	1992.67
336.98	1837.03
337.19	1949.67
337.40	1972.19
337.61	2076.64
337.82	1904.61
338.04	2029.54
338.25	1849.32
338.46	1970.15
338.67	1933.28
338.88	1816.55
339.09	1953.76
339.31	1957.86
339.52	1886.18
339.73	1832.93
339.94	1976.29
340.15	1935.33
340.36	1920.99
340.58	1982.43
340.79	1888.23
341.00	2039.78
341.21	1865.70
341.42	2064.35
341.63	1912.80
341.85	2037.73
342.06	1943.52
342.27	1949.67
342.48	1939.43
342.69	1855.46
342.90	1935.33
343.12	1994.72
343.33	1902.56
343.54	2095.07
343.75	2004.96
343.96	1990.63
344.17	1990.63
344.38	1949.67
344.60	1894.37
344.81	1929.19
345.02	1937.38
345.23	2039.78
345.44	2123.74
345.65	2029.54
345.86	2002.91
346.07	1910.75
346.29	1880.04
346.50	1974.24
346.71	2027.49
346.92	2019.30
347.13	2090.98
347.34	1859.56
347.55	1980.39
347.76	1968.10
347.98	1830.88
348.19	1931.23
348.40	2099.17
348.61	1851.36
348.82	2043.87
349.03	2031.58
349.24	1865.70
349.45	2033.63
349.66	1798.12
349.88	1906.66
350.09	1927.14
350.30	2025.44
350.51	2033.63
350.72	2011.11
350.93	1957.86
351.14	1863.65
351.35	2045.92
351.56	1957.86
351.77	1902.56
351.99	1974.24
352.20	2097.12
352.41	2095.07
352.62	1855.46
352.83	2004.96
353.04	1998.82
353.25	1910.75
353.46	2039.78
353.67	2021.35
353.88	1843.17
354.09	1968.10
354.30	1916.90
354.52	2033.63
354.73	1925.09
354.94	1916.90
355.15	1961.95
355.36	2105.31
355.57	1890.28
355.78	1970.15
355.99	1910.75
356.20	1957.86
356.41	2111.46
356.62	2011.11
356.83	1959.91
357.04	2060.26
357.25	1832.93
357.46	1910.75
357.68	1818.60
357.89	1867.75
358.10	2025.44
358.31	1914.85
358.52	1892.32
358.73	1900.52
358.94	1880.04
359.15	1918.95
359.36	1996.77
359.57	2035.68
359.78	2000.87
359.99	2058.21
360.20	1996.77
360.41	1832.93
360.62	1974.24
360.83	1906.66
361.04	1961.95
361.25	1955.81
361.46	2117.60
361.67	1972.19
361.88	2047.97
362.09	2095.07
362.30	2021.35
362.51	1947.62
362.72	2029.54
362.93	2062.30
363.14	1974.24
363.35	1961.95
363.56	1968.10
363.78	2082.78
363.99	2050.02
364.20	1937.38
364.41	2068.45
364.62	2099.17
364.83	1961.95
365.04	1970.15
365.25	1904.61
365.46	2152.42
365.67	1964.00
365.88	1976.29
366.09	1953.76
366.30	1867.75
366.51	2031.58
366.72	1820.64
366.93	1931.23
367.14	2013.15
367.35	2082.78
367.56	2004.96
367.77	2058.21
367.98	1947.62
368.18	2050.02
368.39	2029.54
368.60	1812.45
368.81	1961.95
369.02	2066.40
369.23	1986.53
369.44	1931.23
369.65	1906.66
369.86	1929.19
370.07	2015.20
370.28	1849.32
370.49	1961.95
370.70	1951.71
370.91	1918.95
371.12	1882.08
371.33	2043.87
371.54	1994.72
371.75	2066.40
371.96	1816.55
372.17	2043.87
372.38	1957.86
372.59	2035.68
372.80	1839.08
373.01	1896.42
373.22	2074.59
373.43	1976.29
373.64	1935.33
373.85	2080.74
374.06	2068.45
374.26	2000.87
374.47	1953.76
374.68	2021.35
374.89	1966.05
375.10	1931.23
375.31	2004.96
375.52	1923.04
375.73	1941.47
375.94	1884.13
376.15	2138.08
376.36	1961.95
376.57	1906.66
376.78	1970.15
376.99	1896.42
377.20	2129.89
377.40	1961.95
377.61	2070.50
377.82	1900.52
378.03	2009.06
378.24	1984.48
378.45	1863.65
378.66	2004.96
378.87	1796.07
379.08	1877.99
379.29	1955.81
379.50	2027.49
379.71	1955.81
379.91	2025.44
380.12	1992.67
380.33	1945.57
380.54	1923.04
380.75	1978.34
380.96	2013.15
381.17	2041.82
381.38	2041.82
381.59	2052.06
381.80	1923.04
382.00	2152.42
382.21	2050.02
382.42	2158.56
382.63	2144.22
382.84	1998.82
383.05	1990.63
383.26	2131.94
383.47	1970.15
383.68	2070.50
383.88	1968.10
384.09	1957.86
384.30	2129.89
384.51	1953.76
384.72	1918.95
384.93	1843.17
385.14	2037.73
385.35	2031.58
385.55	1853.41
385.76	2037.73
385.97	1900.52
386.18	1935.33
386.39	1904.61
386.60	1923.04
386.81	1988.58
387.02	1947.62
387.22	1871.84
387.43	2070.50
387.64	2078.69
387.85	2127.84
388.06	2263.01
388.27	3930.05
388.48	8544.13
388.68	11976.52
388.89	14173.99
389.10	15410.96
389.31	13940.52
389.52	10946.39
389.73	9514.86
389.93	8648.57
390.14	7796.62
390.35	7229.33
390.56	6303.65
390.77	5396.40
390.98	4071.36
391.18	3250.13
391.39	2516.95
391.60	2228.19
391.81	2117.60
392.02	1966.05
392.23	2201.57
392.43	1992.67
392.64	2047.97
392.85	1978.34
393.06	2037.73
393.27	1955.81
393.47	1937.38
393.68	1939.43
393.89	1898.47
394.10	1970.15
394.31	1933.28
394.52	1929.19
394.72	1937.38
394.93	1996.77
395.14	1896.42
395.35	1980.39
395.56	1992.67
395.76	2033.63
395.97	1994.72
396.18	2133.98
396.39	2156.51
396.60	2367.45
396.80	2287.58
397.01	2164.70
397.22	2095.07
397.43	2090.98
397.64	2015.20
397.84	2090.98
398.05	2121.70
398.26	1941.47
398.47	2123.74
398.67	2074.59
398.88	1945.57
399.09	1984.48
399.30	1968.10
399.51	2000.87
399.71	1867.75
399.92	1953.76
400.13	1906.66
400.34	1886.18
400.54	1904.61
400.75	2068.45
400.96	1982.43
401.17	2131.94
401.37	2025.44
401.58	1937.38
401.79	1916.90
402.00	2086.88
402.21	2363.36
402.41	2324.44
402.62	2375.64
402.83	2414.56
403.04	2422.75
403.24	2426.84
403.45	2105.31
403.66	2297.82
403.87	2224.09
404.07	2297.82
404.28	2176.99
404.49	2099.17
404.70	2099.17
404.90	2050.02
405.11	1949.67
405.32	2058.21
405.52	1900.52
405.73	1869.80
405.94	1843.17
406.15	2000.87
406.35	1941.47
406.56	2007.01
406.77	1937.38
406.98	1914.85
407.18	1920.99
407.39	2050.02
407.60	1908.71
407.80	2066.40
408.01	1918.95
408.22	2076.64
408.43	1984.48
408.63	2004.96
408.84	2056.16
409.05	1949.67
409.25	1941.47
409.46	1947.62
409.67	1986.53
409.88	1966.05
410.08	1968.10
410.29	1865.70
410.50	1964.00
410.70	1970.15
410.91	1933.28
411.12	2045.92
411.32	2009.06
411.53	1871.84
411.74	2148.32
411.95	2045.92
412.15	2002.91
412.36	2213.85
412.57	2007.01
412.77	2076.64
412.98	1986.53
413.19	1984.48
413.39	1994.72
413.60	1953.76
413.81	2097.12
414.01	1933.28
414.22	2013.15
414.43	1955.81
414.63	2007.01
414.84	2021.35
415.05	2011.11
415.25	1923.04
415.46	2007.01
415.67	1966.05
415.87	1957.86
416.08	1978.34
416.29	1984.48
416.49	2000.87
416.70	1877.99
416.91	1945.57
417.11	1951.71
417.32	2025.44
417.53	2009.06
417.73	1937.38
417.94	1931.23
418.15	2002.91
418.35	1957.86
418.56	1949.67
418.77	2160.61
418.97	1931.23
419.18	1961.95
419.38	1720.29
419.59	1988.58
419.80	2142.18
420.00	1959.91
420.21	2009.06
420.42	2084.83
420.62	2031.58
420.83	1834.98
421.04	2056.16
421.24	1918.95
421.45	2035.68
421.65	2013.15
421.86	2009.06
422.07	2056.16
422.27	2033.63
422.48	1964.00
422.69	1955.81
422.89	1951.71
423.10	1968.10
423.30	1927.14
423.51	1908.71
423.72	1955.81
423.92	2045.92
424.13	1785.83
424.33	1939.43
424.54	2007.01
424.75	1964.00
424.95	2144.22
425.16	1959.91
425.36	1955.81
425.57	2033.63
425.78	1972.19
425.98	2076.64
426.19	1855.46
426.39	1837.03
426.60	1964.00
426.81	2015.20
427.01	2021.35
427.22	1923.04
427.42	1845.22
427.63	1904.61
427.83	2090.98
428.04	2148.32
428.25	2019.30
428.45	2074.59
428.66	1978.34
428.86	1884.13
429.07	1859.56
429.28	2011.11
429.48	2002.91
429.69	1880.04
429.89	1984.48
430.10	1867.75
430.30	2037.73
430.51	1990.63
430.71	1949.67
430.92	1970.15
431.13	1916.90
431.33	2045.92
431.54	1949.67
431.74	2115.55
431.95	2103.26
432.15	1839.08
432.36	1978.34
432.56	2041.82
432.77	2138.08
432.98	2119.65
433.18	2025.44
433.39	2011.11
433.59	1925.09
433.80	2127.84
434.00	2119.65
434.21	2011.11
434.41	1918.95
434.62	2086.88
434.82	1853.41
435.03	1890.28
435.23	2070.50
435.44	1822.69
435.64	1894.37
435.85	1957.86
436.06	2070.50
436.26	2062.30
436.47	1896.42
436.67	1920.99
436.88	1923.04
437.08	2115.55
437.29	2080.74
437.49	2056.16
437.70	2000.87
437.90	1931.23
438.11	2176.99
438.31	2080.74
438.52	2185.18
438.72	2115.55
438.93	2246.62
439.13	2215.90
439.34	2088.93
439.54	2019.30
439.75	2056.16
439.95	2062.30
440.16	1925.09
440.36	2101.22
440.57	2009.06
440.77	1947.62
440.98	1992.67
441.18	1992.67
441.39	1888.23
441.59	1871.84
441.80	2199.52
442.00	1992.67
442.21	2090.98
442.41	1959.91
442.62	2019.30
442.82	1951.71
443.02	2045.92
443.23	2058.21
443.43	1980.39
443.64	2078.69
443.84	2029.54
444.05	2084.83
444.25	2025.44
444.46	1871.84
444.66	1955.81
444.87	2115.55
445.07	1820.64
445.28	1986.53
445.48	1964.00
445.69	2041.82
445.89	2195.42
446.09	1966.05
446.30	2228.19
446.50	2510.81
446.71	4143.04
446.91	5420.97
447.12	6115.23
447.32	6535.07
447.53	5963.68
447.73	5001.14
447.93	4411.32
448.14	4052.93
448.34	3854.28
448.55	3381.20
448.75	3282.89
448.96	3215.31
449.16	2815.96
449.36	2600.92
449.57	2299.87
449.77	2131.94
449.98	1955.81
450.18	2127.84
450.39	2023.39
450.59	2000.87
450.79	2019.30
451.00	1937.38
451.20	2105.31
451.41	1986.53
451.61	1959.91
451.81	2004.96
452.02	1984.48
452.22	1882.08
452.43	1970.15
452.63	2004.96
452.84	2011.11
453.04	1931.23
453.24	1978.34
453.45	1898.47
453.65	1929.19
453.86	1976.29
454.06	1996.77
454.26	1951.71
454.47	1906.66
454.67	2125.79
454.87	2029.54
455.08	1990.63
455.28	2127.84
455.49	2009.06
455.69	1884.13
455.89	2195.42
456.10	2125.79
456.30	2027.49
456.51	2101.22
456.71	2023.39
456.91	2023.39
457.12	1980.39
457.32	1964.00
457.52	1939.43
457.73	2074.59
457.93	2029.54
458.14	1974.24
458.34	1855.46
458.54	1976.29
458.75	1916.90
458.95	2070.50
459.15	1929.19
459.36	1978.34
459.56	2002.91
459.76	2131.94
459.97	1941.47
460.17	1947.62
460.37	2070.50
460.58	1990.63
460.78	1980.39
460.99	2043.87
461.19	1937.38
461.39	1964.00
461.60	1935.33
461.80	2068.45
462.00	1816.55
462.21	2004.96
462.41	1871.84
462.61	1892.32
462.82	1824.74
463.02	1978.34
463.22	1976.29
463.43	2002.91
463.63	2002.91
463.83	2062.30
464.04	2084.83
464.24	1964.00
464.44	1961.95
464.64	1996.77
464.85	2086.88
465.05	2074.59
465.25	2029.54
465.46	1972.19
465.66	1955.81
465.86	2097.12
466.07	1992.67
466.27	1947.62
466.47	1902.56
466.68	1910.75
466.88	2125.79
467.08	2050.02
467.29	2045.92
467.49	2009.06
467.69	1947.62
467.89	2056.16
468.10	2009.06
468.30	2015.20
468.50	2033.63
468.71	1998.82
468.91	1898.47
469.11	2109.41
469.31	2027.49
469.52	1875.94
469.72	2095.07
469.92	2050.02
470.13	1945.57
470.33	2025.44
470.53	2093.02
470.73	2373.60
470.94	2832.34
471.14	3086.29
471.34	3450.83
471.54	3209.17
471.75	2869.20
471.95	2641.88
472.15	2516.95
472.36	2527.19
472.56	2410.46
472.76	2416.60
472.96	2332.64
473.17	2324.44
473.37	2308.06
473.57	2142.18
473.77	2074.59
473.98	2017.25
474.18	1892.32
474.38	2258.91
474.58	2025.44
474.79	1988.58
474.99	1986.53
475.19	2037.73
475.39	1902.56
475.60	1986.53
475.80	1982.43
476.00	2015.20
476.20	1953.76
476.41	2013.15
476.61	2078.69
476.81	2064.35
477.01	1886.18
477.21	2109.41
477.42	2019.30
477.62	1880.04
477.82	2019.30
478.02	2004.96
478.23	1986.53
478.43	1859.56
478.63	1910.75
478.83	1959.91
479.03	1957.86
479.24	2113.50
479.44	2146.27
479.64	1912.80
479.84	1861.60
480.04	1980.39
480.25	2045.92
480.45	1888.23
480.65	1966.05
480.85	2158.56
481.06	1953.76
481.26	1947.62
481.46	2027.49
481.66	2035.68
481.86	1882.08
482.06	2058.21
482.27	2029.54
482.47	1927.14
482.67	1998.82
482.87	1910.75
483.07	2004.96
483.28	1949.67
483.48	1867.75
483.68	2013.15
483.88	1880.04
484.08	1730.53
484.29	1906.66
484.49	1914.85
484.69	1875.94
484.89	2133.98
485.09	2050.02
485.29	1939.43
485.50	1959.91
485.70	1896.42
485.90	1990.63
486.10	1953.76
486.30	2035.68
486.50	2107.36
486.71	1931.23
486.91	2025.44
487.11	2086.88
487.31	1900.52
487.51	1961.95
487.71	1947.62
487.91	1964.00
488.12	1918.95
488.32	1802.21
488.52	1951.71
488.72	1779.68
488.92	1947.62
489.12	2052.06
489.32	2031.58
489.53	1937.38
489.73	1859.56
489.93	2123.74
490.13	1929.19
490.33	1923.04
490.53	1961.95
490.73	2080.74
490.94	1875.94
491.14	1964.00
491.34	2090.98
491.54	2346.97
491.74	2973.65
491.94	3487.69
492.14	3712.97
492.34	3870.66
492.54	3608.52
492.75	3059.67
492.95	2961.36
493.15	2729.94
493.35	2625.50
493.55	2615.26
493.75	2555.86
493.95	2486.23
494.15	2320.35
494.35	2189.28
494.56	2062.30
494.76	2025.44
494.96	2031.58
495.16	1961.95
495.36	2004.96
495.56	1994.72
495.76	1937.38
495.96	1986.53
496.16	1910.75
496.36	2070.50
496.56	1908.71
496.77	1959.91
496.97	1984.48
497.17	2090.98
497.37	1906.66
497.57	1968.10
497.77	2019.30
497.97	1937.38
498.17	1986.53
498.37	2007.01
498.57	2058.21
498.77	1968.10
498.97	2129.89
499.17	2248.67
499.38	1964.00
499.58	1992.67
499.78	2072.54
499.98	2109.41
500.18	1978.34
500.38	1992.67
500.58	2090.98
500.78	2564.06
500.98	4775.86
501.18	7098.26
501.38	8542.08
501.58	9553.77
501.78	9434.99
501.98	7440.27
502.18	6201.25
502.38	5482.41
502.58	4913.08
502.78	4425.66
502.98	4325.31
503.18	4036.55
503.38	3798.98
503.59	3270.61
503.79	3121.10
503.99	2736.09
504.19	2625.50
504.39	2535.39
504.59	2676.70
504.79	2543.58
504.99	2545.63
505.19	2353.12
505.39	2234.33
505.59	2310.11
505.79	2203.61
505.99	2154.46
506.19	2095.07
506.39	2101.22
506.59	1988.58
506.79	2088.93
506.99	2033.63
507.19	1986.53
507.39	2043.87
507.59	1859.56
507.79	1945.57
507.99	1939.43
508.19	1929.19
508.39	1955.81
508.59	1996.77
508.79	2160.61
508.99	2125.79
509.19	1990.63
509.39	2084.83
509.59	2009.06
509.79	1976.29
509.99	2064.35
510.19	2054.11
510.39	2070.50
510.59	1959.91
510.79	1945.57
510.99	1841.12
511.19	1972.19
511.39	2164.70
511.59	2144.22
511.79	2103.26
511.99	1914.85
512.19	2035.68
512.38	1988.58
512.58	1959.91
512.78	2015.20
512.98	2068.45
513.18	2158.56
513.38	1902.56
513.58	2080.74
513.78	1918.95
513.98	1910.75
514.18	1990.63
514.38	1986.53
514.58	2101.22
514.78	1935.33
514.98	1986.53
515.18	1976.29
515.38	1906.66
515.58	2095.07
515.78	1914.85
515.98	2035.68
516.18	1949.67
516.38	2031.58
516.57	1920.99
516.77	1931.23
516.97	2090.98
517.17	1972.19
517.37	1873.89
517.57	2043.87
517.77	1996.77
517.97	1916.90
518.17	2064.35
518.37	1892.32
518.57	1976.29
518.77	1966.05
518.97	1966.05
519.16	2078.69
519.36	2054.11
519.56	1884.13
519.76	1892.32
519.96	1976.29
520.16	2050.02
520.36	1902.56
520.56	2101.22
520.76	1894.37
520.96	1968.10
521.16	2015.20
521.35	2062.30
521.55	2054.11
521.75	1961.95
521.95	1951.71
522.15	1902.56
522.35	1984.48
522.55	1853.41
522.75	2019.30
522.95	1972.19
523.14	1892.32
523.34	1968.10
523.54	2023.39
523.74	2056.16
523.94	2023.39
524.14	1914.85
524.34	2080.74
524.54	2123.74
524.73	1986.53
524.93	1964.00
525.13	1976.29
525.33	1896.42
525.53	2146.27
525.73	2017.25
525.93	1945.57
526.13	1947.62
526.32	1984.48
526.52	2035.68
526.72	2029.54
526.92	1931.23
527.12	1949.67
527.32	1920.99
527.52	2000.87
527.71	1943.52
527.91	1974.24
528.11	1898.47
528.31	1935.33
528.51	1892.32
528.71	2103.26
528.90	2023.39
529.10	2062.30
529.30	2066.40
529.50	1845.22
529.70	1978.34
529.90	1853.41
530.09	1937.38
530.29	1984.48
530.49	1898.47
530.69	2117.60
530.89	1939.43
531.09	2019.30
531.28	1914.85
531.48	2099.17
531.68	1953.76
531.88	1992.67
532.08	2107.36
532.28	2002.91
532.47	2072.54
532.67	2103.26
532.87	2007.01
533.07	1986.53
533.27	2129.89
533.46	2037.73
533.66	2146.27
533.86	2033.63
534.06	1937.38
534.26	2013.15
534.45	2045.92
534.65	2068.45
534.85	1982.43
535.05	1888.23
535.25	2017.25
535.44	1875.94
535.64	2078.69
535.84	1964.00
536.04	1884.13
536.24	1966.05
536.43	1968.10
536.63	1994.72
536.83	2023.39
537.03	1947.62
537.22	1882.08
537.42	1888.23
537.62	1964.00
537.82	1918.95
538.02	2107.36
538.21	2074.59
538.41	2131.94
538.61	1984.48
538.81	1966.05
539.00	2060.26
539.20	1818.60
539.40	2011.11
539.60	2002.91
539.79	1980.39
539.99	1904.61
540.19	1998.82
540.39	1978.34
540.58	2021.35
540.78	2029.54
540.98	1988.58
541.18	2082.78
541.37	2029.54
541.57	1976.29
541.77	2015.20
541.97	1890.28
542.16	1955.81
542.36	1875.94
542.56	1937.38
542.76	2154.46
542.95	1984.48
543.15	2015.20
543.35	1998.82
543.54	1953.76
543.74	2002.91
543.94	2103.26
544.14	1916.90
544.33	2021.35
544.53	1947.62
544.73	1992.67
544.93	1990.63
545.12	2004.96
545.32	2058.21
545.52	1939.43
545.71	1910.75
545.91	2029.54
546.11	1923.04
546.30	1955.81
546.50	1929.19
546.70	1941.47
546.90	1970.15
547.09	1832.93
547.29	1972.19
547.49	1996.77
547.68	1941.47
547.88	1904.61
548.08	2023.39
548.27	2529.24
548.47	1933.28
548.67	1882.08
548.87	1951.71
549.06	1959.91
549.26	1992.67
549.46	2007.01
549.65	2019.30
549.85	1984.48
550.05	2023.39
550.24	1904.61
550.44	1996.77
550.64	2019.30
550.83	1992.67
551.03	2023.39
551.23	2043.87
551.42	2013.15
551.62	1953.76
551.82	2000.87
552.01	1937.38
552.21	2136.03
552.41	1935.33
552.60	2054.11
552.80	2002.91
553.00	1857.51
553.19	2009.06
553.39	2162.66
553.59	1898.47
553.78	1990.63
553.98	2009.06
554.17	1955.81
554.37	2031.58
554.57	2107.36
554.76	1914.85
554.96	1935.33
555.16	2017.25
555.35	1970.15
555.55	1994.72
555.75	1886.18
555.94	2060.26
556.14	1877.99
556.33	1959.91
556.53	1939.43
556.73	1982.43
556.92	1964.00
557.12	2086.88
557.32	2068.45
557.51	2054.11
557.71	2052.06
557.90	2093.02
558.10	2058.21
558.30	1937.38
558.49	2017.25
558.69	1986.53
558.88	1996.77
559.08	1974.24
559.28	1935.33
559.47	1961.95
559.67	2009.06
559.86	2129.89
560.06	1990.63
560.26	2037.73
560.45	1947.62
560.65	1947.62
560.84	2056.16
561.04	1935.33
561.24	1978.34
561.43	1902.56
561.63	2052.06
561.82	2060.26
562.02	2060.26
562.22	1959.91
562.41	1927.14
562.61	2031.58
562.80	1873.89
563.00	2142.18
563.19	1910.75
563.39	2021.35
563.59	2060.26
563.78	1892.32
563.98	1871.84
564.17	1986.53
564.37	1839.08
564.56	2011.11
564.76	1886.18
564.96	2013.15
565.15	1976.29
565.35	2129.89
565.54	1918.95
565.74	1994.72
565.93	1972.19
566.13	1947.62
566.32	2031.58
566.52	2056.16
566.71	1996.77
566.91	2113.50
567.11	2002.91
567.30	1884.13
567.50	2007.01
567.69	1972.19
567.89	1880.04
568.08	1865.70
568.28	2013.15
568.47	1957.86
568.67	2086.88
568.86	1912.80
569.06	2068.45
569.25	1955.81
569.45	1945.57
569.64	1945.57
569.84	1943.52
570.04	2045.92
570.23	1945.57
570.43	1982.43
570.62	1939.43
570.82	2074.59
571.01	1910.75
571.21	1894.37
571.40	1943.52
571.60	2054.11
571.79	2086.88
571.99	2072.54
572.18	1923.04
572.38	2013.15
572.57	1974.24
572.77	2017.25
572.96	2160.61
573.16	2019.30
573.35	1939.43
573.55	2058.21
573.74	2070.50
573.94	1957.86
574.13	2050.02
574.33	2107.36
574.52	2043.87
574.71	2023.39
574.91	2013.15
575.10	1927.14
575.30	2035.68
575.49	1996.77
575.69	2021.35
575.88	2000.87
576.08	2090.98
576.27	2140.13
576.47	2119.65
576.66	2174.94
576.86	2154.46
577.05	2050.02
577.25	1966.05
577.44	2197.47
577.64	1982.43
577.83	2084.83
578.02	1941.47
578.22	2191.33
578.41	2136.03
578.61	2021.35
578.80	2007.01
579.00	2045.92
579.19	2023.39
579.39	2058.21
579.58	2121.70
579.77	2019.30
579.97	2097.12
580.16	2052.06
580.36	2086.88
580.55	2088.93
580.75	2013.15
580.94	2107.36
581.13	2176.99
581.33	2185.18
581.52	2019.30
581.72	2154.46
581.91	2158.56
582.11	1939.43
582.30	2101.22
582.49	2058.21
582.69	2179.04
582.88	2060.26
583.08	2129.89
583.27	2142.18
583.47	2000.87
583.66	2019.30
583.85	1955.81
584.05	2052.06
584.24	2125.79
584.44	2045.92
584.63	2088.93
584.82	2111.46
585.02	2195.42
585.21	2117.60
585.41	2207.71
585.60	2140.13
585.79	2242.53
585.99	2236.38
586.18	2131.94
586.37	2607.06
586.57	3909.57
586.76	11941.71
586.96	30873.13
587.15	44895.57
587.34	54316.23
587.54	60382.31
587.73	56900.76
587.93	40465.81
588.12	30000.69
588.31	24141.46
588.51	20803.27
588.70	19039.97
588.89	17393.40
589.09	15218.46
589.28	13180.73
589.47	10741.60
589.67	8693.63
589.86	6672.28
590.06	4921.27
590.25	3870.66
590.44	3149.78
590.64	2664.41
590.83	2332.64
591.02	2279.39
591.22	2119.65
591.41	2082.78
591.60	2007.01
591.80	2238.43
591.99	2019.30
592.18	1978.34
592.38	2138.08
592.57	1961.95
592.76	2095.07
592.96	1996.77
593.15	1968.10
593.34	2152.42
593.54	1966.05
593.73	2097.12
593.92	2066.40
594.12	2115.55
594.31	2095.07
594.50	2140.13
594.70	2029.54
594.89	2232.29
595.08	1949.67
595.28	2045.92
595.47	2293.72
595.66	2101.22
595.86	1994.72
596.05	1986.53
596.24	2019.30
596.43	2123.74
596.63	2150.37
596.82	1988.58
597.01	2084.83
597.21	2146.27
597.40	2050.02
597.59	2105.31
597.79	2009.06
597.98	2043.87
598.17	2150.37
598.36	2019.30
598.56	2076.64
598.75	2000.87
598.94	2039.78
599.14	1984.48
599.33	1998.82
599.52	2050.02
599.71	2004.96
599.91	2074.59
600.10	2045.92
600.29	2050.02
600.48	2007.01
600.68	2074.59
600.87	1984.48
601.06	1933.28
601.26	1941.47
601.45	1994.72
601.64	2000.87
601.83	2123.74
602.03	2060.26
602.22	1914.85
602.41	2074.59
602.60	2158.56
602.80	2088.93
602.99	2107.36
603.18	1986.53
603.37	1980.39
603.57	2025.44
603.76	2066.40
603.95	2080.74
604.14	1949.67
604.34	1949.67
604.53	2011.11
604.72	1968.10
604.91	2078.69
605.10	1996.77
605.30	1824.74
605.49	2148.32
605.68	2072.54
605.87	2052.06
606.07	1898.47
606.26	2017.25
606.45	1988.58
606.64	2009.06
606.84	1978.34
607.03	2050.02
607.22	2119.65
607.41	1935.33
607.60	2047.97
607.80	2140.13
607.99	1923.04
608.18	1982.43
608.37	2009.06
608.56	2025.44
608.76	2070.50
608.95	2146.27
609.14	2093.02
609.33	2238.43
609.52	2211.81
609.72	2136.03
609.91	2164.70
610.10	2054.11
610.29	2082.78
610.48	2088.93
610.68	2088.93
610.87	1988.58
611.06	2009.06
611.25	1949.67
611.44	2156.51
611.63	1988.58
611.83	2037.73
612.02	1951.71
612.21	2072.54
612.40	1923.04
612.59	1927.14
612.79	1955.81
612.98	1908.71
613.17	2101.22
613.36	1982.43
613.55	2146.27
613.74	2150.37
613.93	2076.64
614.13	2170.85
614.32	2250.72
614.51	2197.47
614.70	2131.94
614.89	2072.54
615.08	2052.06
615.28	2435.03
615.47	1974.24
615.66	2107.36
615.85	2002.91
616.04	2201.57
616.23	2000.87
616.42	2097.12
616.62	2027.49
616.81	2029.54
617.00	2017.25
617.19	2021.35
617.38	2009.06
617.57	2047.97
617.76	2115.55
617.95	2095.07
618.15	2004.96
618.34	2129.89
618.53	1939.43
618.72	2068.45
618.91	2031.58
619.10	2074.59
619.29	1953.76
619.48	1937.38
619.68	1845.22
619.87	1996.77
620.06	1908.71
620.25	2009.06
620.44	2011.11
620.63	1914.85
620.82	1896.42
621.01	2054.11
621.20	1978.34
621.39	1992.67
621.59	1974.24
621.78	2011.11
621.97	1982.43
622.16	2068.45
622.35	1982.43
622.54	1990.63
622.73	2064.35
622.92	1920.99
623.11	1992.67
623.30	1978.34
623.49	2007.01
623.68	1953.76
623.88	2084.83
624.07	1974.24
624.26	1980.39
624.45	2103.26
624.64	1957.86
624.83	2031.58
625.02	2011.11
625.21	1988.58
625.40	1990.63
625.59	2015.20
625.78	1966.05
625.97	2082.78
626.16	2068.45
626.35	2099.17
626.54	2133.98
626.74	2174.94
626.93	1968.10
627.12	1918.95
627.31	2101.22
627.50	2054.11
627.69	2058.21
627.88	1931.23
628.07	2015.20
628.26	1871.84
628.45	1931.23
628.64	1945.57
628.83	1927.14
629.02	1869.80
629.21	1976.29
629.40	1996.77
629.59	1972.19
629.78	1964.00
629.97	2029.54
630.16	2062.30
630.35	2013.15
630.54	1914.85
630.73	2037.73
630.92	1986.53
631.11	1906.66
631.30	2052.06
631.49	2070.50
631.68	1980.39
631.87	2078.69
632.06	1898.47
632.25	2197.47
632.44	1990.63
632.63	1972.19
632.82	2078.69
633.01	2013.15
633.20	2068.45
633.39	2080.74
633.58	2009.06
633.77	2121.70
633.96	2148.32
634.15	2142.18
634.34	2027.49
634.53	2076.64
634.72	1929.19
634.91	1834.98
635.10	1972.19
635.29	2097.12
635.48	2017.25
635.67	1914.85
635.86	1853.41
636.05	2080.74
636.24	1935.33
636.43	1945.57
636.62	2052.06
636.81	1791.97
637.00	1947.62
637.19	2004.96
637.38	1976.29
637.57	1959.91
637.76	2045.92
637.95	2109.41
638.14	2066.40
638.33	2119.65
638.52	2086.88
638.71	1943.52
638.89	1984.48
639.08	2293.72
639.27	2150.37
639.46	2281.44
639.65	2566.10
639.84	2678.74
640.03	2734.04
640.22	2717.65
640.41	2617.30
640.60	2332.64
640.79	2334.68
640.98	2230.24
641.17	2213.85
641.36	2103.26
641.55	2152.42
641.74	2045.92
641.92	2050.02
642.11	1994.72
642.30	2082.78
642.49	2054.11
642.68	1914.85
642.87	1996.77
643.06	2013.15
643.25	1914.85
643.44	1916.90
643.63	1984.48
643.82	2068.45
644.00	1863.65
644.19	1964.00
644.38	1945.57
644.57	1984.48
644.76	2023.39
644.95	1978.34
645.14	1994.72
645.33	1974.24
645.52	1945.57
645.71	1908.71
645.89	1933.28
646.08	1951.71
646.27	1953.76
646.46	2168.80
646.65	1802.21
646.84	1990.63
647.03	1916.90
647.22	2068.45
647.40	2004.96
647.59	2037.73
647.78	1853.41
647.97	1910.75
648.16	1863.65
648.35	2105.31
648.54	2066.40
648.73	1888.23
648.91	2062.30
649.10	1910.75
649.29	1896.42
649.48	1982.43
649.67	2017.25
649.86	2062.30
650.05	2025.44
650.23	2117.60
650.42	2095.07
650.61	2189.28
650.80	2174.94
650.99	2248.67
651.18	2097.12
651.36	2142.18
651.55	2019.30
651.74	2185.18
651.93	1986.53
652.12	1961.95
652.31	1976.29
652.49	2045.92
652.68	1939.43
652.87	2133.98
653.06	2025.44
653.25	2131.94
653.44	2019.30
653.62	2191.33
653.81	1929.19
654.00	1937.38
654.19	2041.82
654.38	2232.29
654.56	2066.40
654.75	1925.09
654.94	1966.05
655.13	2062.30
655.32	1996.77
655.51	2109.41
655.69	1920.99
655.88	2037.73
656.07	1947.62
656.26	2019.30
656.45	1896.42
656.63	2031.58
656.82	2035.68
657.01	2088.93
657.20	1992.67
657.38	2074.59
657.57	1982.43
657.76	1929.19
657.95	2095.07
658.14	1898.47
658.32	1964.00
658.51	1953.76
658.70	2004.96
658.89	1974.24
659.08	2045.92
659.26	2125.79
659.45	2021.35
659.64	2103.26
659.83	2056.16
660.01	2246.62
660.20	2074.59
660.39	2152.42
660.58	1880.04
660.76	2064.35
660.95	1853.41
661.14	1990.63
661.33	1894.37
661.51	1910.75
661.70	2007.01
661.89	2009.06
662.08	1916.90
662.26	1871.84
662.45	1920.99
662.64	2144.22
662.83	2117.60
663.01	1943.52
663.20	1892.32
663.39	2086.88
663.58	1931.23
663.76	1955.81
663.95	2029.54
664.14	1863.65
664.32	2027.49
664.51	1837.03
664.70	1865.70
664.89	2002.91
665.07	1918.95
665.26	2088.93
665.45	1939.43
665.64	1992.67
665.82	2025.44
666.01	1986.53
666.20	1943.52
666.38	2084.83
666.57	2146.27
666.76	2752.47
666.95	6825.88
667.13	15044.38
667.32	21116.61
667.51	24872.58
667.69	27369.05
667.88	26111.60
668.07	18501.35
668.25	14409.51
668.44	11960.14
668.63	10012.52
668.81	8732.54
669.00	7872.39
669.19	7016.34
669.38	6117.28
669.56	5224.37
669.75	4483.00
669.94	3643.34
670.12	3092.43
670.31	2678.74
670.50	2414.56
670.68	2181.09
670.87	2129.89
671.06	2144.22
671.24	2107.36
671.43	2150.37
671.62	2054.11
671.80	1933.28
671.99	2072.54
672.18	1976.29
672.36	1982.43
672.55	2099.17
672.74	1961.95
672.92	1984.48
673.11	1968.10
673.29	1908.71
673.48	2105.31
673.67	1882.08
673.85	2109.41
674.04	1941.47
674.23	1937.38
674.41	2088.93
674.60	1906.66
674.79	1875.94
674.97	1961.95
675.16	2021.35
675.34	2041.82
675.53	1947.62
675.72	1974.24
675.90	2041.82
676.09	1947.62
676.28	2050.02
676.46	1861.60
676.65	2062.30
676.83	1904.61
677.02	1982.43
677.21	1970.15
677.39	1957.86
677.58	1882.08
677.77	1990.63
677.95	1865.70
678.14	1964.00
678.32	1982.43
678.51	1898.47
678.70	2070.50
678.88	1943.52
679.07	2019.30
679.25	1972.19
679.44	1961.95
679.63	1871.84
679.81	1961.95
680.00	2050.02
680.18	1984.48
680.37	2086.88
680.55	1968.10
680.74	1855.46
680.93	1841.12
681.11	2039.78
681.30	1996.77
681.48	1980.39
681.67	1916.90
681.85	1941.47
682.04	1923.04
682.23	2076.64
682.41	1964.00
682.60	1886.18
682.78	1984.48
682.97	1898.47
683.15	2025.44
683.34	1914.85
683.53	2097.12
683.71	1869.80
683.90	2136.03
684.08	2068.45
684.27	1888.23
684.45	2037.73
684.64	1957.86
684.82	2013.15
685.01	2099.17
685.19	1992.67
685.38	2025.44
685.57	2000.87
685.75	1925.09
685.94	1945.57
686.12	1916.90
686.31	1898.47
686.49	2017.25
686.68	1863.65
686.86	1968.10
687.05	1918.95
687.23	2066.40
687.42	1927.14
687.60	1941.47
687.79	1996.77
687.97	2025.44
688.16	2052.06
688.34	1970.15
688.53	1826.79
688.71	1990.63
688.90	2103.26
689.08	1931.23
689.27	1851.36
689.45	2064.35
689.64	1990.63
689.82	2027.49
690.01	1994.72
690.19	2070.50
690.38	1933.28
690.56	2017.25
690.75	1902.56
690.93	1933.28
691.12	1853.41
691.30	1845.22
691.49	1957.86
691.67	1988.58
691.86	2154.46
692.04	1918.95
692.23	1923.04
692.41	1959.91
692.60	2209.76
692.78	2088.93
692.97	2021.35
693.15	2068.45
693.34	2127.84
693.52	2156.51
693.71	1957.86
693.89	1929.19
694.08	1869.80
694.26	2097.12
694.44	2088.93
694.63	2002.91
694.81	1906.66
695.00	1912.80
695.18	2000.87
695.37	2125.79
695.55	1945.57
695.74	2023.39
695.92	1953.76
696.10	2080.74
696.29	1896.42
696.47	1886.18
696.66	1972.19
696.84	1902.56
697.03	1949.67
697.21	2193.37
697.40	2772.95
697.58	2007.01
697.76	1900.52
697.95	1957.86
698.13	1955.81
698.32	1875.94
698.50	1955.81
698.68	1994.72
698.87	2047.97
699.05	2129.89
699.24	1914.85
699.42	1880.04
699.61	1941.47
699.79	2009.06
699.97	1955.81
700.16	1892.32
700.34	1867.75
700.53	1968.10
700.71	2062.30
700.89	2025.44
701.08	1939.43
701.26	1974.24
701.45	2533.34
701.63	1902.56
701.81	1957.86
702.00	1961.95
702.18	1970.15
702.37	1968.10
702.55	2164.70
702.73	2215.90
702.92	2154.46
703.10	2369.50
703.28	2201.57
703.47	2013.15
703.65	2263.01
703.84	2125.79
704.02	2060.26
704.20	2238.43
704.39	1998.82
704.57	2011.11
704.75	2078.69
704.94	2082.78
705.12	1984.48
705.30	2250.72
705.49	3561.42
705.67	8785.79
705.86	18058.99
706.04	22701.73
706.22	26590.83
706.41	28094.04
706.59	25374.33
706.77	18202.35
706.96	14479.14
707.14	12613.44
707.32	10725.21
707.51	9461.62
707.69	8093.57
707.87	6524.83
708.06	5156.79
708.24	4128.70
708.42	3266.51
708.61	2842.58
708.79	2349.02
708.97	2240.48
709.16	2152.42
709.34	2068.45
709.52	2011.11
709.71	1943.52
709.89	1935.33
710.07	1980.39
710.26	1984.48
710.44	1996.77
710.62	2084.83
710.80	1918.95
710.99	2097.12
711.17	2068.45
711.35	1914.85
711.54	1980.39
711.72	2121.70
711.90	2064.35
712.09	2029.54
712.27	1910.75
712.45	1994.72
712.63	1994.72
712.82	1994.72
713.00	1935.33
713.18	1953.76
713.37	2004.96
713.55	2037.73
713.73	2037.73
713.91	1984.48
714.10	1953.76
714.28	1933.28
714.46	2041.82
714.65	2007.01
714.83	1970.15
715.01	1933.28
715.19	1974.24
715.38	1882.08
715.56	1978.34
715.74	1886.18
715.92	1943.52
716.11	2095.07
716.29	1886.18
716.47	1920.99
716.65	1980.39
716.84	1875.94
717.02	2035.68
717.20	1892.32
717.38	1933.28
717.57	2047.97
717.75	1972.19
717.93	1916.90
718.11	2015.20
718.30	1857.51
718.48	1947.62
718.66	2074.59
718.84	2115.55
719.03	1978.34
719.21	1859.56
719.39	2162.66
719.57	2007.01
719.75	2093.02
719.94	1941.47
720.12	2015.20
720.30	1925.09
720.48	1996.77
720.67	1886.18
720.85	1914.85
721.03	1916.90
721.21	1845.22
721.39	2019.30
721.58	2029.54
721.76	1957.86
721.94	1980.39
722.12	1968.10
722.30	2080.74
722.49	1953.76
722.67	1953.76
722.85	2029.54
723.03	1892.32
723.21	1906.66
723.40	1976.29
723.58	2031.58
723.76	1925.09
723.94	2099.17
724.12	1972.19
724.30	2131.94
724.49	2189.28
724.67	2066.40
724.85	2097.12
725.03	1945.57
725.21	2023.39
725.40	2111.46
725.58	1951.71
725.76	2056.16
725.94	1957.86
726.12	1902.56
726.30	1984.48
726.49	1933.28
726.67	1916.90
726.85	1961.95
727.03	2068.45
727.21	3131.34
727.39	4786.10
727.57	5990.31
727.76	6719.39
727.94	7235.47
728.12	6991.77
728.30	5795.75
728.48	4695.99
728.66	4302.78
728.84	3907.52
729.03	3346.38
729.21	2910.16
729.39	2650.07
729.57	2236.38
729.75	2080.74
729.93	2211.81
730.11	1992.67
730.30	1978.34
730.48	1959.91
730.66	2144.22
730.84	2000.87
731.02	2045.92
731.20	1910.75
731.38	2045.92
731.56	1890.28
731.74	1906.66
731.93	2009.06
732.11	1929.19
732.29	1896.42
732.47	2035.68
732.65	1933.28
732.83	2119.65
733.01	2035.68
733.19	1857.51
733.37	1984.48
733.56	1964.00
733.74	1886.18
733.92	2185.18
734.10	1974.24
734.28	2019.30
734.46	1826.79
734.64	2011.11
734.82	1914.85
735.00	1910.75
735.18	1914.85
735.36	1892.32
735.54	1927.14
735.73	1931.23
735.91	2074.59
736.09	2078.69
736.27	1992.67
736.45	2033.63
736.63	1855.46
736.81	1888.23
736.99	2039.78
737.17	2097.12
737.35	2017.25
737.53	1998.82
737.71	1929.19
737.89	2090.98
738.07	1964.00
738.25	1888.23
738.43	1845.22
738.61	1955.81
738.80	1871.84
738.98	1867.75
739.16	1939.43
739.34	1906.66
739.52	2097.12
739.70	1927.14
739.88	2056.16
740.06	2004.96
740.24	1779.68
740.42	2076.64
740.60	1859.56
740.78	1890.28
740.96	1783.78
741.14	1974.24
741.32	1988.58
741.50	1896.42
741.68	2093.02
741.86	2033.63
742.04	1929.19
742.22	1873.89
742.40	2025.44
742.58	1982.43
742.76	1863.65
742.94	2033.63
743.12	1900.52
743.30	1998.82
743.48	1943.52
743.66	1923.04
743.84	1998.82
744.02	1933.28
744.20	1957.86
744.38	1916.90
744.56	1869.80
744.74	2152.42
744.92	2025.44
745.10	2074.59
745.28	1953.76
745.46	2074.59
745.64	1918.95
745.82	2019.30
746.00	1941.47
746.18	2017.25
746.36	1982.43
746.54	1982.43
746.72	1976.29
746.90	1857.51
747.08	2004.96
747.26	1933.28
747.44	2007.01
747.62	2004.96
747.80	1986.53
747.98	2039.78
748.15	2041.82
748.33	2131.94
748.51	2045.92
748.69	2047.97
748.87	1902.56
749.05	1927.14
749.23	1986.53
749.41	1976.29
749.59	1964.00
749.77	2021.35
749.95	1939.43
750.13	1939.43
750.31	2047.97
750.49	1888.23
750.67	2052.06
750.85	2105.31
751.03	1935.33
751.20	2056.16
751.38	1927.14
751.56	1941.47
751.74	1949.67
751.92	1974.24
752.10	1865.70
752.28	2064.35
752.46	1918.95
752.64	1892.32
752.82	1912.80
753.00	2080.74
753.18	1957.86
753.35	1880.04
753.53	2002.91
753.71	1914.85
753.89	2060.26
754.07	1923.04
754.25	2099.17
754.43	2000.87
754.61	1863.65
754.79	2013.15
754.97	1892.32
755.14	2074.59
755.32	1877.99
755.50	1972.19
755.68	1927.14
755.86	1900.52
756.04	1888.23
756.22	1826.79
756.40	2002.91
756.57	2121.70
756.75	1931.23
756.93	2074.59
757.11	2011.11
757.29	1929.19
757.47	1837.03
757.65	1865.70
757.82	1884.13
758.00	1935.33
758.18	1931.23
758.36	1904.61
758.54	2066.40
758.72	1873.89
758.90	2031.58
759.07	1992.67
759.25	1910.75
759.43	2027.49
759.61	1914.85
759.79	2590.68
759.97	2058.21
760.15	1851.36
760.32	1945.57
760.50	1984.48
760.68	2017.25
760.86	1884.13
761.04	2086.88
761.22	1976.29
761.39	1976.29
761.57	2009.06
761.75	1939.43
761.93	1957.86
762.11	1990.63
762.28	1974.24
762.46	1966.05
762.64	2041.82
762.82	1843.17
763.00	1910.75
763.18	2133.98
763.35	1880.04
763.53	1929.19
763.71	1955.81
763.89	1961.95
764.07	2009.06
764.24	1853.41
764.42	1982.43
764.60	1906.66
764.78	2002.91
764.96	2019.30
765.13	2047.97
765.31	1959.91
765.49	2095.07
765.67	1873.89
765.84	1912.80
766.02	1902.56
766.20	1873.89
766.38	1890.28
766.56	2039.78
766.73	2039.78
766.91	1906.66
767.09	1896.42
767.27	2035.68
767.44	1951.71
767.62	2035.68
767.80	2000.87
767.98	1939.43
768.15	1937.38
768.33	2027.49
768.51	2031.58
768.69	1984.48
768.87	1933.28
769.04	1947.62
769.22	2138.08
769.40	2111.46
769.58	2213.85
769.75	1941.47
769.93	2084.83
770.11	1982.43
770.28	1820.64
770.46	1990.63
770.64	2043.87
770.82	1943.52
770.99	1925.09
771.17	1961.95
771.35	1890.28
771.53	2011.11
771.70	1884.13
771.88	1951.71
772.06	1941.47
772.23	1939.43
772.41	1898.47
772.59	1892.32
772.77	1937.38
772.94	1994.72
773.12	1929.19
773.30	1951.71
773.47	1984.48
773.65	1931.23
773.83	2074.59
774.01	1994.72
774.18	1884.13
774.36	1953.76
774.54	1902.56
774.71	1939.43
774.89	1880.04
775.07	1959.91
775.24	1974.24
775.42	1941.47
775.60	2119.65
775.78	1968.10
775.95	1882.08
776.13	1822.69
776.31	1798.12
776.48	1982.43
776.66	2017.25
776.84	1955.81
777.01	1916.90
777.19	1837.03
777.37	1884.13
777.54	2007.01
777.72	2099.17
777.90	1974.24
778.07	1920.99
778.25	2197.47
778.43	2060.26
778.60	1933.28
778.78	1988.58
778.96	2054.11
779.13	1910.75
779.31	1992.67
779.49	1953.76
779.66	1949.67
779.84	1925.09
780.01	1986.53
780.19	1894.37
780.37	2025.44
780.54	1968.10
780.72	1886.18
780.90	1912.80
781.07	2025.44
781.25	1935.33
781.43	1972.19
781.60	1931.23
781.78	2088.93
781.95	1920.99
782.13	1859.56
782.31	2015.20
782.48	1900.52
782.66	1931.23
782.83	2138.08
783.01	1964.00
783.19	1957.86
783.36	1947.62
783.54	1865.70
783.72	2054.11
783.89	1945.57
784.07	2029.54
784.24	1982.43
784.42	1992.67
784.60	2009.06
784.77	1943.52
784.95	1824.74
785.12	1859.56
785.30	1992.67
785.47	1896.42
785.65	1900.52
785.83	1961.95
786.00	1894.37
786.18	1873.89
786.35	1951.71
786.53	1894.37
786.71	2021.35
786.88	1884.13
787.06	1992.67
787.23	2000.87
787.41	1828.84
787.58	1914.85
787.76	1916.90
787.94	1902.56
788.11	2029.54
788.29	1843.17
788.46	1920.99
788.64	1812.45
788.81	1900.52
788.99	1822.69
789.16	1890.28
789.34	2015.20
789.52	1925.09
789.69	1976.29
789.87	1808.36
790.04	1945.57
790.22	1972.19
790.39	2138.08
790.57	1927.14
790.74	1935.33
790.92	1990.63
791.09	1882.08
791.27	1961.95
791.44	2105.31
791.62	1933.28
791.79	2058.21
791.97	1974.24
792.15	2138.08
792.32	2004.96
792.50	2039.78
792.67	2062.30
792.85	2080.74
793.02	1886.18
793.20	1920.99
793.37	1890.28
793.55	1988.58
793.72	1898.47
793.90	1966.05
794.07	1892.32
794.25	1877.99
794.42	2007.01
794.60	1923.04
794.77	2000.87
794.95	2050.02
795.12	2002.91
795.30	1939.43
795.47	1841.12
795.65	2199.52
795.82	2009.06
796.00	1955.81
796.17	1939.43
796.34	1914.85
796.52	2017.25
796.69	2043.87
796.87	2111.46
797.04	2019.30
797.22	1898.47
797.39	1988.58
797.57	2041.82
797.74	1957.86
797.92	1982.43
798.09	1972.19
798.27	2041.82
798.44	1918.95
798.62	1914.85
798.79	1968.10
798.96	2033.63
799.14	1927.14
799.31	2142.18
799.49	1894.37
799.66	1859.56
799.84	1951.71
800.01	1855.46
800.19	1996.77
800.36	1853.41
800.53	1955.81
800.71	2052.06
800.88	2058.21
801.06	1945.57
801.23	1927.14
801.41	1976.29
801.58	1884.13
801.75	1955.81
801.93	1931.23
802.10	1976.29
802.28	1982.43
802.45	1912.80
802.63	2007.01
802.80	2009.06
802.97	1964.00
803.15	1892.32
803.32	1941.47
803.50	1855.46
803.67	1923.04
803.84	1845.22
804.02	1933.28
804.19	1902.56
804.37	1859.56
804.54	1800.16
804.71	1927.14
804.89	1968.10
805.06	1884.13
805.24	1894.37
805.41	1871.84
805.58	1880.04
805.76	2111.46
805.93	1947.62
806.10	2062.30
806.28	1998.82
806.45	1994.72
806.63	1964.00
806.80	1992.67
806.97	1941.47
807.15	1951.71
807.32	1984.48
807.49	2013.15
807.67	1918.95
807.84	1970.15
808.01	1834.98
808.19	2142.18
808.36	2090.98
808.54	1867.75
808.71	1804.26
808.88	2017.25
809.06	2082.78
809.23	2179.04
809.40	1839.08
809.58	2015.20
809.75	1964.00
809.92	1794.02
810.10	2127.84
810.27	1894.37
810.44	2000.87
810.62	1961.95
810.79	1929.19
810.96	1953.76
811.14	1888.23
811.31	2015.20
811.48	1935.33
811.66	1939.43
811.83	2050.02
812.00	1990.63
812.18	1978.34
812.35	2080.74
812.52	1818.60
812.69	1951.71
812.87	1972.19
813.04	1896.42
813.21	1904.61
813.39	1884.13
813.56	1906.66
813.73	2007.01
813.91	1875.94
814.08	1927.14
814.25	1970.15
814.42	1812.45
814.60	1865.70
814.77	2029.54
814.94	1914.85
815.12	1906.66
815.29	2056.16
815.46	1845.22
815.63	1972.19
815.81	1937.38
815.98	1888.23
816.15	1959.91
816.33	1968.10
816.50	1923.04
816.67	1925.09
816.84	1902.56
817.02	1896.42
817.19	1943.52
817.36	1953.76
817.53	2002.91
817.71	1857.51
817.88	1951.71
818.05	1943.52
818.22	1902.56
818.40	2099.17
818.57	1855.46
818.74	1964.00
818.91	1908.71
819.09	1957.86
819.26	2064.35
819.43	1884.13
819.60	1890.28
819.78	1992.67
819.95	2013.15
820.12	1853.41
820.29	2041.82
820.47	2029.54
820.64	1914.85
820.81	1939.43
820.98	1875.94
821.15	1961.95
821.33	2011.11
821.50	1806.31
821.67	1996.77
821.84	1914.85
822.02	2009.06
822.19	2060.26
822.36	1980.39
822.53	1972.19
822.70	1849.32
822.88	1966.05
823.05	2084.83
823.22	2013.15
823.39	2004.96
823.56	1943.52
823.74	2099.17
823.91	1853.41
824.08	1843.17
824.25	1908.71
824.42	2064.35
824.60	1849.32
824.77	2047.97
824.94	1978.34
825.11	2013.15
825.28	1886.18
825.45	2009.06
825.63	1949.67
825.80	1863.65
825.97	1964.00
826.14	1888.23
826.31	1802.21
826.48	2084.83
826.66	1857.51
826.83	1966.05
827.00	1961.95
827.17	1900.52
827.34	1976.29
827.51	1902.56
827.69	1966.05
827.86	1802.21
828.03	1916.90
828.20	1925.09
828.37	1990.63
828.54	1986.53
828.71	1841.12
828.89	2115.55
829.06	1908.71
829.23	2066.40
829.40	1859.56
829.57	1953.76
829.74	2172.89
829.91	1853.41
830.09	1937.38
830.26	2023.39
830.43	2078.69
830.60	1925.09
830.77	1978.34
830.94	2039.78
831.11	2037.73
831.28	1902.56
831.46	2050.02
831.63	1968.10
831.80	1984.48
831.97	1957.86
832.14	1914.85
832.31	2041.82
832.48	1902.56
832.65	2017.25
832.82	2027.49
832.99	1933.28
833.17	1894.37
833.34	1990.63
833.51	1990.63
833.68	1855.46
833.85	1957.86
834.02	1837.03
834.19	1871.84
834.36	1916.90
834.53	1978.34
834.70	2023.39
834.87	2043.87
835.04	1830.88
835.22	1925.09
835.39	1941.47
835.56	1925.09
835.73	1865.70
835.90	2066.40
836.07	1892.32
836.24	1992.67
836.41	1914.85
836.58	1939.43
836.75	1964.00
836.92	1949.67
837.09	1927.14
837.26	2013.15
837.43	1966.05
837.60	1974.24
837.77	1935.33
837.94	2025.44
838.12	2011.11
838.29	2025.44
838.46	1888.23
838.63	1912.80
838.80	2047.97
838.97	2013.15
839.14	1945.57
839.31	1982.43
839.48	1988.58
839.65	1943.52
839.82	1980.39
839.99	1935.33
840.16	1910.75
840.33	1945.57
840.50	2015.20
840.67	1873.89
840.84	1802.21
841.01	1953.76
841.18	1843.17
841.35	1949.67
841.52	1943.52
841.69	2074.59
841.86	2011.11
842.03	1986.53
842.20	1982.43
842.37	1886.18
842.54	1939.43
842.71	1886.18
842.88	1865.70
843.05	1998.82
843.22	1873.89
843.39	2025.44
843.56	1947.62
843.73	1970.15
843.90	1964.00
844.07	1935.33
844.24	2011.11
844.41	1976.29
844.58	1978.34
844.75	1933.28
844.92	1939.43
845.09	1986.53
845.26	2002.91
845.43	1945.57
845.60	1906.66
845.77	2029.54
845.94	1988.58
846.10	2007.01
846.27	1873.89
846.44	1894.37
846.61	1789.92
846.78	1957.86
846.95	1978.34
847.12	1898.47
847.29	1951.71
847.46	1902.56
847.63	1945.57
847.80	1923.04
847.97	1986.53
848.14	2117.60
848.31	1972.19
848.48	1824.74
848.65	2011.11
848.82	1923.04
848.98	2078.69
849.15	1931.23
849.32	2035.68
849.49	2023.39
849.66	2035.68
849.83	1972.19
850.00	1900.52
850.17	2004.96
850.34	1992.67
850.51	1890.28
850.68	1916.90
850.85	2111.46
851.01	1953.76
851.18	1961.95
851.35	1920.99
851.52	1984.48
851.69	2017.25
851.86	1904.61
852.03	1943.52
852.20	2064.35
852.37	1920.99
852.53	1834.98
852.70	1837.03
852.87	2037.73
853.04	2004.96
853.21	2009.06
853.38	1957.86
853.55	2068.45
853.72	1976.29
853.89	1869.80
854.05	1845.22
854.22	1892.32
854.39	1920.99
854.56	1925.09
854.73	2021.35
854.90	1875.94
855.07	1925.09
855.23	1867.75
855.40	1898.47
855.57	1941.47
855.74	1837.03
855.91	2252.77
856.08	1853.41
856.25	1834.98
856.41	1941.47
856.58	1902.56
856.75	1976.29
856.92	1943.52
857.09	2050.02
857.26	1857.51
857.42	1853.41
857.59	2002.91
857.76	2004.96
857.93	1955.81
858.10	1982.43
858.27	1902.56
858.43	2013.15
858.60	1898.47
858.77	1765.35
858.94	1843.17
859.11	2041.82
859.27	1953.76
859.44	1953.76
859.61	2078.69
859.78	1970.15
859.95	1912.80
860.12	1877.99
860.28	2109.41
860.45	2119.65
860.62	1964.00
860.79	1912.80
860.95	1980.39
861.12	1865.70
861.29	1873.89
861.46	1861.60
861.63	1966.05
861.79	1953.76
861.96	1863.65
862.13	1966.05
862.30	2025.44
862.47	1820.64
862.63	1947.62
862.80	1918.95
862.97	2041.82
863.14	1986.53
863.30	2033.63
863.47	1800.16
863.64	2056.16
863.81	1931.23
863.97	1961.95
864.14	2045.92
864.31	2025.44
864.48	1986.53
864.65	1914.85
864.81	1959.91
864.98	1978.34
865.15	2027.49
865.32	1914.85
865.48	2033.63
865.65	1974.24
865.82	1976.29
865.98	1986.53
866.15	1998.82
866.32	1945.57
866.49	1904.61
866.65	1986.53
866.82	1929.19
866.99	1925.09
867.16	1863.65
867.32	1906.66
867.49	1923.04
867.66	1953.76
867.83	1957.86
867.99	1820.64
868.16	1937.38
868.33	1890.28
868.49	1867.75
868.66	1939.43
868.83	2074.59
868.99	1990.63
869.16	1925.09
869.33	1980.39
869.50	1996.77
869.66	1957.86
869.83	1974.24
870.00	1877.99
870.16	2007.01
870.33	1923.04
870.50	2084.83
870.66	1892.32
870.83	2037.73
871.00	1990.63
871.17	2029.54
871.33	1951.71
871.50	1976.29
871.67	1908.71
871.83	1779.68
872.00	2031.58
872.17	1875.94
872.33	2029.54
872.50	1972.19
872.67	1859.56
872.83	1906.66
873.00	2019.30
873.17	2056.16
873.33	1966.05
873.50	1976.29
873.67	1906.66
873.83	1955.81
874.00	1982.43
874.16	2017.25
874.33	2021.35
874.50	1882.08
874.66	1982.43
874.83	1996.77
875.00	2035.68
875.16	2015.20
875.33	2045.92
875.50	1804.26
875.66	1882.08
875.83	2011.11
875.99	1929.19
876.16	1974.24
876.33	1925.09
876.49	1951.71
876.66	1908.71
876.83	1912.80
876.99	1824.74
877.16	1937.38
877.32	1943.52
877.49	1886.18
877.66	1992.67
877.82	2062.30
877.99	1982.43
878.15	1996.77
878.32	1943.52
878.49	1941.47
878.65	1867.75
878.82	2074.59
878.98	1947.62
879.15	2011.11
879.32	2052.06
879.48	2037.73
879.65	1888.23
879.81	1945.57
879.98	1914.85
880.15	1900.52
880.31	2084.83
880.48	1853.41
880.64	1992.67
880.81	2017.25
880.97	2119.65
881.14	2017.25
881.31	1847.27
881.47	2181.09
881.64	1906.66
881.80	1812.45
881.97	1976.29
882.13	2080.74
882.30	1855.46
882.47	1966.05
882.63	1904.61
882.80	1828.84
882.96	1931.23
883.13	2052.06
883.29	1970.15
883.46	1953.76
883.62	2076.64
883.79	1912.80
883.95	1986.53
884.12	1964.00
884.29	2004.96
884.45	2015.20
884.62	1978.34
884.78	1935.33
884.95	2084.83
885.11	1882.08
885.28	1982.43
885.44	1869.80
885.61	2054.11
885.77	1984.48
885.94	1970.15
886.10	1943.52
886.27	1949.67
886.43	2050.02
886.60	2088.93
886.76	1929.19
886.93	1908.71
887.09	1953.76
887.26	1966.05
887.42	1933.28
887.59	2007.01
887.75	2101.22
887.92	2041.82
888.08	1957.86
888.25	2115.55
888.41	2076.64
888.58	1949.67
888.74	1890.28
888.91	1970.15
>>>>>End Processed Spectral Data<<<<<
