SpectraSuite Data File
++++++++++++++++++++++++++++++++++++
Date: Wed May 04 22:46:10 CEST 2016
User: root
Dark Spectrum Present: No
Reference Spectrum Present: No
Number of Sampled Component Spectra: 1
Spectrometers: USB4C02835
Integration Time (usec): 100000 (USB4C02835)
Spectra Averaged: 1 (USB4C02835)
Boxcar Smoothing: 0 (USB4C02835)
Correct for Electrical Dark: No (USB4C02835)
Strobe/Lamp Enabled: No (USB4C02835)
Correct for Detector Non-linearity: No (USB4C02835)
Correct for Stray Light: No (USB4C02835)
Number of Pixels in Processed Spectrum: 3648
>>>>>Begin Processed Spectral Data<<<<<
177.47	1619.94
177.69	1619.94
177.91	1619.94
178.13	1640.42
178.36	1619.94
178.58	1910.75
178.80	2027.49
179.02	1857.51
179.24	1834.98
179.46	1880.04
179.68	1966.05
179.90	1980.39
180.13	1906.66
180.35	1978.34
180.57	1972.19
180.79	2097.12
181.01	1974.24
181.23	1947.62
181.45	2054.11
181.67	1920.99
181.90	1955.81
182.12	1912.80
182.34	1826.79
182.56	1912.80
182.78	1955.81
183.00	1943.52
183.22	1916.90
183.44	1882.08
183.66	2140.13
183.89	2070.50
184.11	1964.00
184.33	2009.06
184.55	2007.01
184.77	1961.95
184.99	1974.24
185.21	1941.47
185.43	2058.21
185.65	1857.51
185.87	1933.28
186.10	2199.52
186.32	2123.74
186.54	2023.39
186.76	1998.82
186.98	2011.11
187.20	2025.44
187.42	1843.17
187.64	1943.52
187.86	2017.25
188.08	2086.88
188.30	1914.85
188.52	1916.90
188.75	1990.63
188.97	2050.02
189.19	1802.21
189.41	1871.84
189.63	2037.73
189.85	1968.10
190.07	1847.27
190.29	1896.42
190.51	1984.48
190.73	1886.18
190.95	1959.91
191.17	1972.19
191.39	1916.90
191.61	1947.62
191.84	1941.47
192.06	2035.68
192.28	1822.69
192.50	2211.81
192.72	2009.06
192.94	1892.32
193.16	1988.58
193.38	2058.21
193.60	1935.33
193.82	1892.32
194.04	1949.67
194.26	2025.44
194.48	1968.10
194.70	1871.84
194.92	1902.56
195.14	1982.43
195.36	1871.84
195.58	2013.15
195.80	1998.82
196.02	1955.81
196.24	1957.86
196.46	1916.90
196.69	1929.19
196.91	2150.37
197.13	1884.13
197.35	1951.71
197.57	2045.92
197.79	2002.91
198.01	1990.63
198.23	2009.06
198.45	2021.35
198.67	1855.46
198.89	1912.80
199.11	2037.73
199.33	1894.37
199.55	1847.27
199.77	1998.82
199.99	2039.78
200.21	1929.19
200.43	1986.53
200.65	1855.46
200.87	1816.55
201.09	2074.59
201.31	2000.87
201.53	1939.43
201.75	1937.38
201.97	2027.49
202.19	1898.47
202.41	2013.15
202.63	2060.26
202.85	1976.29
203.07	1953.76
203.29	1910.75
203.51	1927.14
203.73	1902.56
203.95	2080.74
204.17	1992.67
204.39	1845.22
204.61	1943.52
204.83	1927.14
205.05	1964.00
205.27	1992.67
205.49	2148.32
205.71	1920.99
205.93	1814.50
206.15	1884.13
206.37	1929.19
206.59	1943.52
206.81	1857.51
207.03	1841.12
207.25	1914.85
207.47	2086.88
207.69	1974.24
207.91	2070.50
208.13	2119.65
208.34	1957.86
208.56	1812.45
208.78	1902.56
209.00	1908.71
209.22	1896.42
209.44	1918.95
209.66	1945.57
209.88	1906.66
210.10	1916.90
210.32	1923.04
210.54	1941.47
210.76	1896.42
210.98	2066.40
211.20	1849.32
211.42	2000.87
211.64	1978.34
211.86	2041.82
212.08	1947.62
212.30	1949.67
212.52	1925.09
212.74	2000.87
212.96	2009.06
213.17	1968.10
213.39	1990.63
213.61	2158.56
213.83	1937.38
214.05	1978.34
214.27	2068.45
214.49	1935.33
214.71	1810.40
214.93	1976.29
215.15	1955.81
215.37	2004.96
215.59	1839.08
215.81	2054.11
216.03	2058.21
216.24	1892.32
216.46	1966.05
216.68	1896.42
216.90	1912.80
217.12	2050.02
217.34	1910.75
217.56	1949.67
217.78	2017.25
218.00	2035.68
218.22	1931.23
218.44	2013.15
218.66	1972.19
218.87	2000.87
219.09	1953.76
219.31	1959.91
219.53	1984.48
219.75	1910.75
219.97	1953.76
220.19	1972.19
220.41	1951.71
220.63	2123.74
220.85	1904.61
221.06	1898.47
221.28	2050.02
221.50	1980.39
221.72	1955.81
221.94	1865.70
222.16	1957.86
222.38	2060.26
222.60	1894.37
222.82	1890.28
223.03	2070.50
223.25	1896.42
223.47	1964.00
223.69	2125.79
223.91	2035.68
224.13	1955.81
224.35	1912.80
224.57	2021.35
224.78	1933.28
225.00	1865.70
225.22	1980.39
225.44	1961.95
225.66	2062.30
225.88	1961.95
226.10	1986.53
226.32	2017.25
226.53	2062.30
226.75	1927.14
226.97	1949.67
227.19	1892.32
227.41	1912.80
227.63	1902.56
227.85	1834.98
228.06	1933.28
228.28	2009.06
228.50	1990.63
228.72	1839.08
228.94	1802.21
229.16	1906.66
229.37	1939.43
229.59	1814.50
229.81	2060.26
230.03	1968.10
230.25	1841.12
230.47	1890.28
230.69	1832.93
230.90	1988.58
231.12	1869.80
231.34	1933.28
231.56	2009.06
231.78	1814.50
232.00	2009.06
232.21	1851.36
232.43	1937.38
232.65	1787.88
232.87	1920.99
233.09	1927.14
233.30	1824.74
233.52	2101.22
233.74	1951.71
233.96	1953.76
234.18	1961.95
234.40	1986.53
234.61	2115.55
234.83	1853.41
235.05	1875.94
235.27	2189.28
235.49	2127.84
235.70	1933.28
235.92	2027.49
236.14	1986.53
236.36	2076.64
236.58	1814.50
236.79	1990.63
237.01	1941.47
237.23	1916.90
237.45	2068.45
237.67	1972.19
237.88	1982.43
238.10	2111.46
238.32	1816.55
238.54	1937.38
238.76	1972.19
238.97	1861.60
239.19	1906.66
239.41	1970.15
239.63	2029.54
239.85	1959.91
240.06	1912.80
240.28	1910.75
240.50	1951.71
240.72	1976.29
240.93	1925.09
241.15	1988.58
241.37	1955.81
241.59	2064.35
241.81	1947.62
242.02	1923.04
242.24	2011.11
242.46	2064.35
242.68	1941.47
242.89	1937.38
243.11	2007.01
243.33	1978.34
243.55	1998.82
243.76	2015.20
243.98	1914.85
244.20	1959.91
244.42	1884.13
244.64	2027.49
244.85	1822.69
245.07	1877.99
245.29	1951.71
245.51	1898.47
245.72	1959.91
245.94	2021.35
246.16	1939.43
246.38	1964.00
246.59	1908.71
246.81	1931.23
247.03	1923.04
247.24	1810.40
247.46	1972.19
247.68	1994.72
247.90	1937.38
248.11	1939.43
248.33	1994.72
248.55	2027.49
248.77	1978.34
248.98	2062.30
249.20	2047.97
249.42	1959.91
249.64	1953.76
249.85	1945.57
250.07	1949.67
250.29	2037.73
250.50	2050.02
250.72	1867.75
250.94	1910.75
251.16	2052.06
251.37	2031.58
251.59	1988.58
251.81	2021.35
252.02	2109.41
252.24	1970.15
252.46	2015.20
252.68	1857.51
252.89	1947.62
253.11	1861.60
253.33	2045.92
253.54	2078.69
253.76	1896.42
253.98	1929.19
254.20	1888.23
254.41	1875.94
254.63	1959.91
254.85	1810.40
255.06	1927.14
255.28	1920.99
255.50	1916.90
255.71	1861.60
255.93	1834.98
256.15	1972.19
256.36	1972.19
256.58	1851.36
256.80	1894.37
257.02	1943.52
257.23	1908.71
257.45	1964.00
257.67	2015.20
257.88	1933.28
258.10	1996.77
258.32	1947.62
258.53	1910.75
258.75	2121.70
258.97	1902.56
259.18	1937.38
259.40	1986.53
259.62	2088.93
259.83	2060.26
260.05	2041.82
260.27	2349.02
260.48	1998.82
260.70	1830.88
260.92	1841.12
261.13	1937.38
261.35	1961.95
261.57	2023.39
261.78	1859.56
262.00	1841.12
262.22	2035.68
262.43	1920.99
262.65	1908.71
262.86	2013.15
263.08	2082.78
263.30	1986.53
263.51	1785.83
263.73	1830.88
263.95	2052.06
264.16	1898.47
264.38	1824.74
264.60	1884.13
264.81	1923.04
265.03	2068.45
265.25	2039.78
265.46	1957.86
265.68	2039.78
265.89	2047.97
266.11	1785.83
266.33	1941.47
266.54	1988.58
266.76	1998.82
266.98	2004.96
267.19	1945.57
267.41	2019.30
267.62	1929.19
267.84	1810.40
268.06	1955.81
268.27	1968.10
268.49	2037.73
268.70	1947.62
268.92	1978.34
269.14	1837.03
269.35	1867.75
269.57	1949.67
269.79	1978.34
270.00	1978.34
270.22	2084.83
270.43	1863.65
270.65	1828.84
270.87	1998.82
271.08	2013.15
271.30	1959.91
271.51	1941.47
271.73	1955.81
271.95	2037.73
272.16	1892.32
272.38	1918.95
272.59	1933.28
272.81	2037.73
273.02	1898.47
273.24	1959.91
273.46	2015.20
273.67	1882.08
273.89	1908.71
274.10	1988.58
274.32	1951.71
274.54	1953.76
274.75	1970.15
274.97	1937.38
275.18	1976.29
275.40	2013.15
275.61	1947.62
275.83	1943.52
276.05	1849.32
276.26	1998.82
276.48	1953.76
276.69	1910.75
276.91	1955.81
277.12	2115.55
277.34	2052.06
277.55	2090.98
277.77	2017.25
277.99	1992.67
278.20	1927.14
278.42	1820.64
278.63	1955.81
278.85	1890.28
279.06	1837.03
279.28	1970.15
279.49	1972.19
279.71	2017.25
279.93	2011.11
280.14	1912.80
280.36	1947.62
280.57	2002.91
280.79	1998.82
281.00	1906.66
281.22	1931.23
281.43	2072.54
281.65	1775.59
281.86	1929.19
282.08	2035.68
282.29	2047.97
282.51	1927.14
282.73	1832.93
282.94	1832.93
283.16	2017.25
283.37	2013.15
283.59	1992.67
283.80	2015.20
284.02	2021.35
284.23	2066.40
284.45	1882.08
284.66	1929.19
284.88	1863.65
285.09	2031.58
285.31	2115.55
285.52	1992.67
285.74	1800.16
285.95	1992.67
286.17	1986.53
286.38	1980.39
286.60	1912.80
286.81	1904.61
287.03	1976.29
287.24	1996.77
287.46	1994.72
287.67	1972.19
287.89	2035.68
288.10	1884.13
288.32	2004.96
288.53	2017.25
288.75	1978.34
288.96	2043.87
289.18	1974.24
289.39	2004.96
289.61	1961.95
289.82	2189.28
290.04	2011.11
290.25	1828.84
290.47	2002.91
290.68	1886.18
290.90	2080.74
291.11	1796.07
291.33	1941.47
291.54	1951.71
291.76	1892.32
291.97	1992.67
292.18	1964.00
292.40	1880.04
292.61	1837.03
292.83	2097.12
293.04	1925.09
293.26	1918.95
293.47	1982.43
293.69	1894.37
293.90	1929.19
294.12	2080.74
294.33	2007.01
294.55	1974.24
294.76	1972.19
294.97	2023.39
295.19	2090.98
295.40	1910.75
295.62	2070.50
295.83	2060.26
296.05	1957.86
296.26	1966.05
296.48	1927.14
296.69	1920.99
296.90	1970.15
297.12	2086.88
297.33	1998.82
297.55	1957.86
297.76	2062.30
297.98	2082.78
298.19	1933.28
298.41	1929.19
298.62	1882.08
298.83	2056.16
299.05	1937.38
299.26	1982.43
299.48	1888.23
299.69	1884.13
299.90	1910.75
300.12	1880.04
300.33	1990.63
300.55	2068.45
300.76	2017.25
300.98	1900.52
301.19	2021.35
301.40	1923.04
301.62	1906.66
301.83	2029.54
302.05	1859.56
302.26	1849.32
302.47	1906.66
302.69	1923.04
302.90	1976.29
303.12	1824.74
303.33	2058.21
303.54	2039.78
303.76	1916.90
303.97	1920.99
304.19	2058.21
304.40	1859.56
304.61	2004.96
304.83	2152.42
305.04	2084.83
305.26	1945.57
305.47	1910.75
305.68	1970.15
305.90	1830.88
306.11	2009.06
306.33	1882.08
306.54	1947.62
306.75	1937.38
306.97	1845.22
307.18	1888.23
307.39	1920.99
307.61	2009.06
307.82	1933.28
308.04	1968.10
308.25	1884.13
308.46	1984.48
308.68	1972.19
308.89	1918.95
309.10	2025.44
309.32	1998.82
309.53	1998.82
309.74	1974.24
309.96	1951.71
310.17	2082.78
310.39	1980.39
310.60	1966.05
310.81	1984.48
311.03	1888.23
311.24	2037.73
311.45	1976.29
311.67	2111.46
311.88	1931.23
312.09	1886.18
312.31	1920.99
312.52	1927.14
312.73	1990.63
312.95	1857.51
313.16	1918.95
313.37	2119.65
313.59	2004.96
313.80	2000.87
314.01	2052.06
314.23	1886.18
314.44	1900.52
314.65	1865.70
314.87	1828.84
315.08	1898.47
315.29	1900.52
315.51	1920.99
315.72	1861.60
315.93	2172.89
316.15	2037.73
316.36	1908.71
316.57	1892.32
316.79	1953.76
317.00	1941.47
317.21	2033.63
317.43	1863.65
317.64	2009.06
317.85	1945.57
318.07	1957.86
318.28	1992.67
318.49	2074.59
318.70	2187.23
318.92	2213.85
319.13	2176.99
319.34	2156.51
319.56	2019.30
319.77	2027.49
319.98	2127.84
320.20	2121.70
320.41	2144.22
320.62	1974.24
320.83	1955.81
321.05	2105.31
321.26	1986.53
321.47	2035.68
321.69	1984.48
321.90	1861.60
322.11	1937.38
322.32	1964.00
322.54	2121.70
322.75	2033.63
322.96	2121.70
323.18	1871.84
323.39	1818.60
323.60	1898.47
323.81	2050.02
324.03	1972.19
324.24	1947.62
324.45	1968.10
324.66	1984.48
324.88	2031.58
325.09	2080.74
325.30	2002.91
325.52	1906.66
325.73	1943.52
325.94	1869.80
326.15	1873.89
326.37	1947.62
326.58	1994.72
326.79	1974.24
327.00	1863.65
327.22	1961.95
327.43	2015.20
327.64	1888.23
327.85	2031.58
328.07	1918.95
328.28	2058.21
328.49	1847.27
328.70	1898.47
328.92	1953.76
329.13	1951.71
329.34	2000.87
329.55	2121.70
329.76	1992.67
329.98	1929.19
330.19	1992.67
330.40	2080.74
330.61	2041.82
330.83	1972.19
331.04	1890.28
331.25	1955.81
331.46	1853.41
331.68	1904.61
331.89	2035.68
332.10	1939.43
332.31	1935.33
332.52	1964.00
332.74	2095.07
332.95	1814.50
333.16	1902.56
333.37	2029.54
333.58	1908.71
333.80	2041.82
334.01	1871.84
334.22	1976.29
334.43	1951.71
334.64	1943.52
334.86	1824.74
335.07	1941.47
335.28	2027.49
335.49	1888.23
335.70	2017.25
335.92	2074.59
336.13	2164.70
336.34	1988.58
336.55	1931.23
336.76	1937.38
336.98	1818.60
337.19	1937.38
337.40	2086.88
337.61	2222.05
337.82	1990.63
338.04	2011.11
338.25	1859.56
338.46	1918.95
338.67	1986.53
338.88	1925.09
339.09	1877.99
339.31	1939.43
339.52	1834.98
339.73	1890.28
339.94	1865.70
340.15	1980.39
340.36	1964.00
340.58	1964.00
340.79	1890.28
341.00	1890.28
341.21	1855.46
341.42	2037.73
341.63	2025.44
341.85	1978.34
342.06	1912.80
342.27	1918.95
342.48	2074.59
342.69	1923.04
342.90	1931.23
343.12	2033.63
343.33	1912.80
343.54	1970.15
343.75	2113.50
343.96	1912.80
344.17	1824.74
344.38	1978.34
344.60	1902.56
344.81	1861.60
345.02	1867.75
345.23	2004.96
345.44	2156.51
345.65	1972.19
345.86	1910.75
346.07	1957.86
346.29	1949.67
346.50	1976.29
346.71	1968.10
346.92	2072.54
347.13	2111.46
347.34	1904.61
347.55	1931.23
347.76	2023.39
347.98	1871.84
348.19	1959.91
348.40	2043.87
348.61	1929.19
348.82	2138.08
349.03	2033.63
349.24	1828.84
349.45	2080.74
349.66	1791.97
349.88	1996.77
350.09	1867.75
350.30	2007.01
350.51	2060.26
350.72	2025.44
350.93	1968.10
351.14	1931.23
351.35	1964.00
351.56	1927.14
351.77	1947.62
351.99	2000.87
352.20	2158.56
352.41	2080.74
352.62	1898.47
352.83	1943.52
353.04	1978.34
353.25	1914.85
353.46	2023.39
353.67	2025.44
353.88	1771.49
354.09	1976.29
354.30	1947.62
354.52	1976.29
354.73	1986.53
354.94	1945.57
355.15	1916.90
355.36	2109.41
355.57	2004.96
355.78	1972.19
355.99	1875.94
356.20	1890.28
356.41	2023.39
356.62	2017.25
356.83	1943.52
357.04	2054.11
357.25	1877.99
357.46	1935.33
357.68	1890.28
357.89	1865.70
358.10	1929.19
358.31	1966.05
358.52	1966.05
358.73	1959.91
358.94	1867.75
359.15	1941.47
359.36	1970.15
359.57	1984.48
359.78	1966.05
359.99	2007.01
360.20	1837.03
360.41	1988.58
360.62	1896.42
360.83	1923.04
361.04	1943.52
361.25	2031.58
361.46	2027.49
361.67	2033.63
361.88	1986.53
362.09	2052.06
362.30	1947.62
362.51	1902.56
362.72	2027.49
362.93	2090.98
363.14	2025.44
363.35	1964.00
363.56	1894.37
363.78	1957.86
363.99	2050.02
364.20	1953.76
364.41	1959.91
364.62	2174.94
364.83	2019.30
365.04	1923.04
365.25	1980.39
365.46	2074.59
365.67	1986.53
365.88	2050.02
366.09	1929.19
366.30	1947.62
366.51	1947.62
366.72	1820.64
366.93	1945.57
367.14	1964.00
367.35	2095.07
367.56	2027.49
367.77	1970.15
367.98	1945.57
368.18	1988.58
368.39	1935.33
368.60	1898.47
368.81	1996.77
369.02	2021.35
369.23	1972.19
369.44	1853.41
369.65	1853.41
369.86	2021.35
370.07	2041.82
370.28	1953.76
370.49	2011.11
370.70	1980.39
370.91	1945.57
371.12	1830.88
371.33	2090.98
371.54	1931.23
371.75	1982.43
371.96	1798.12
372.17	2017.25
372.38	1970.15
372.59	2017.25
372.80	1978.34
373.01	1931.23
373.22	1978.34
373.43	1910.75
373.64	1816.55
373.85	2033.63
374.06	2070.50
374.26	2088.93
374.47	2027.49
374.68	2058.21
374.89	2004.96
375.10	1927.14
375.31	2043.87
375.52	1964.00
375.73	1964.00
375.94	1857.51
376.15	2090.98
376.36	1871.84
376.57	1935.33
376.78	1927.14
376.99	2000.87
377.20	2068.45
377.40	1996.77
377.61	2074.59
377.82	1873.89
378.03	2062.30
378.24	2039.78
378.45	1974.24
378.66	1945.57
378.87	1871.84
379.08	1865.70
379.29	1871.84
379.50	2054.11
379.71	1959.91
379.91	1984.48
380.12	1923.04
380.33	1986.53
380.54	1949.67
380.75	1933.28
380.96	1884.13
381.17	1984.48
381.38	2037.73
381.59	2004.96
381.80	1994.72
382.00	2164.70
382.21	1982.43
382.42	2054.11
382.63	2150.37
382.84	2033.63
383.05	2021.35
383.26	2125.79
383.47	1974.24
383.68	2045.92
383.88	1998.82
384.09	1990.63
384.30	2086.88
384.51	2017.25
384.72	1970.15
384.93	1843.17
385.14	2011.11
385.35	2054.11
385.55	1839.08
385.76	2090.98
385.97	1988.58
386.18	1916.90
386.39	1880.04
386.60	1912.80
386.81	1978.34
387.02	1964.00
387.22	1906.66
387.43	1998.82
387.64	2043.87
387.85	2164.70
388.06	2166.75
388.27	4020.16
388.48	8558.46
388.68	12154.69
388.89	14321.45
389.10	15501.08
389.31	14010.15
389.52	10948.44
389.73	9426.80
389.93	8667.00
390.14	7864.20
390.35	7135.12
390.56	6367.13
390.77	5201.84
390.98	4009.92
391.18	3221.45
391.39	2582.49
391.60	2181.09
391.81	2179.04
392.02	1966.05
392.23	2176.99
392.43	2062.30
392.64	1996.77
392.85	1890.28
393.06	2060.26
393.27	2011.11
393.47	1916.90
393.68	2004.96
393.89	1834.98
394.10	2054.11
394.31	1937.38
394.52	1992.67
394.72	1898.47
394.93	2086.88
395.14	1914.85
395.35	2060.26
395.56	2007.01
395.76	1959.91
395.97	1996.77
396.18	2047.97
396.39	2166.75
396.60	2316.25
396.80	2230.24
397.01	2166.75
397.22	2113.50
397.43	2170.85
397.64	2011.11
397.84	2068.45
398.05	2199.52
398.26	1994.72
398.47	2154.46
398.67	2080.74
398.88	1976.29
399.09	2062.30
399.30	1937.38
399.51	1923.04
399.71	1849.32
399.92	1957.86
400.13	1984.48
400.34	1939.43
400.54	1941.47
400.75	2099.17
400.96	2011.11
401.17	2123.74
401.37	2033.63
401.58	1972.19
401.79	2056.16
402.00	2060.26
402.21	2269.15
402.41	2320.35
402.62	2369.50
402.83	2439.13
403.04	2377.69
403.24	2498.52
403.45	2060.26
403.66	2279.39
403.87	2170.85
404.07	2248.67
404.28	2189.28
404.49	2101.22
404.70	2115.55
404.90	2054.11
405.11	2045.92
405.32	2025.44
405.52	1916.90
405.73	1902.56
405.94	1847.27
406.15	1972.19
406.35	2056.16
406.56	2058.21
406.77	1939.43
406.98	1951.71
407.18	1884.13
407.39	2140.13
407.60	1941.47
407.80	1957.86
408.01	2013.15
408.22	2031.58
408.43	1875.94
408.63	2019.30
408.84	1992.67
409.05	2025.44
409.25	1871.84
409.46	1869.80
409.67	1945.57
409.88	1923.04
410.08	2004.96
410.29	1931.23
410.50	2009.06
410.70	2031.58
410.91	1865.70
411.12	1972.19
411.32	1996.77
411.53	1953.76
411.74	2099.17
411.95	2043.87
412.15	2004.96
412.36	2041.82
412.57	2162.66
412.77	2117.60
412.98	1990.63
413.19	1955.81
413.39	1957.86
413.60	2002.91
413.81	2084.83
414.01	1898.47
414.22	2007.01
414.43	2054.11
414.63	2004.96
414.84	1996.77
415.05	1986.53
415.25	1834.98
415.46	2052.06
415.67	1933.28
415.87	2023.39
416.08	1959.91
416.29	1941.47
416.49	2076.64
416.70	1951.71
416.91	1880.04
417.11	1968.10
417.32	1986.53
417.53	2064.35
417.73	2009.06
417.94	1933.28
418.15	2017.25
418.35	2015.20
418.56	1927.14
418.77	2140.13
418.97	1994.72
419.18	1972.19
419.38	1871.84
419.59	1964.00
419.80	2099.17
420.00	1949.67
420.21	1945.57
420.42	2033.63
420.62	1984.48
420.83	1945.57
421.04	1914.85
421.24	1949.67
421.45	2062.30
421.65	2056.16
421.86	1976.29
422.07	1964.00
422.27	1947.62
422.48	2000.87
422.69	1865.70
422.89	2013.15
423.10	1906.66
423.30	1908.71
423.51	1994.72
423.72	2086.88
423.92	2058.21
424.13	1931.23
424.33	1945.57
424.54	1961.95
424.75	1980.39
424.95	2086.88
425.16	2019.30
425.36	1931.23
425.57	2007.01
425.78	1957.86
425.98	1992.67
426.19	1947.62
426.39	1892.32
426.60	1916.90
426.81	2088.93
427.01	1964.00
427.22	1839.08
427.42	1814.50
427.63	1931.23
427.83	1988.58
428.04	2164.70
428.25	2025.44
428.45	2000.87
428.66	2105.31
428.86	1916.90
429.07	1912.80
429.28	2002.91
429.48	1923.04
429.69	1900.52
429.89	1953.76
430.10	1861.60
430.30	1906.66
430.51	2062.30
430.71	1867.75
430.92	1941.47
431.13	1927.14
431.33	2002.91
431.54	2054.11
431.74	2062.30
431.95	2043.87
432.15	1929.19
432.36	1955.81
432.56	1949.67
432.77	2168.80
432.98	2062.30
433.18	1966.05
433.39	1867.75
433.59	1947.62
433.80	2111.46
434.00	2146.27
434.21	1839.08
434.41	1904.61
434.62	2109.41
434.82	1900.52
435.03	1935.33
435.23	2015.20
435.44	1828.84
435.64	1955.81
435.85	2017.25
436.06	2039.78
436.26	2097.12
436.47	1964.00
436.67	1974.24
436.88	2002.91
437.08	1988.58
437.29	2123.74
437.49	1949.67
437.70	2017.25
437.90	1982.43
438.11	2127.84
438.31	2107.36
438.52	2232.29
438.72	2105.31
438.93	2205.66
439.13	2035.68
439.34	2109.41
439.54	2031.58
439.75	1996.77
439.95	2035.68
440.16	1941.47
440.36	2064.35
440.57	2004.96
440.77	1964.00
440.98	2007.01
441.18	2041.82
441.39	1949.67
441.59	1949.67
441.80	2086.88
442.00	1951.71
442.21	2080.74
442.41	1857.51
442.62	2007.01
442.82	1906.66
443.02	1964.00
443.23	1986.53
443.43	2019.30
443.64	2117.60
443.84	1923.04
444.05	2115.55
444.25	1980.39
444.46	1976.29
444.66	1937.38
444.87	2090.98
445.07	1888.23
445.28	1980.39
445.48	2113.50
445.69	2084.83
445.89	2119.65
446.09	1990.63
446.30	2242.53
446.50	2582.49
446.71	4229.06
446.91	5375.92
447.12	5982.12
447.32	6360.99
447.53	6043.56
447.73	4859.83
447.93	4321.21
448.14	3997.64
448.34	3803.08
448.55	3532.75
448.75	3297.23
448.96	3192.78
449.16	2885.59
449.36	2668.50
449.57	2326.49
449.77	2097.12
449.98	2009.06
450.18	2013.15
450.39	2021.35
450.59	2078.69
450.79	2007.01
451.00	1929.19
451.20	2066.40
451.41	2050.02
451.61	2050.02
451.81	2009.06
452.02	1920.99
452.22	1961.95
452.43	1912.80
452.63	1894.37
452.84	1982.43
453.04	1953.76
453.24	1949.67
453.45	1982.43
453.65	1941.47
453.86	1957.86
454.06	1982.43
454.26	2015.20
454.47	1884.13
454.67	2101.22
454.87	2029.54
455.08	2047.97
455.28	2062.30
455.49	2019.30
455.69	1939.43
455.89	2086.88
456.10	2041.82
456.30	1959.91
456.51	1982.43
456.71	2009.06
456.91	2025.44
457.12	2025.44
457.32	2086.88
457.52	1867.75
457.73	2027.49
457.93	2062.30
458.14	1941.47
458.34	1875.94
458.54	1959.91
458.75	1984.48
458.95	2062.30
459.15	1959.91
459.36	2068.45
459.56	2004.96
459.76	2129.89
459.97	1970.15
460.17	1941.47
460.37	2088.93
460.58	1966.05
460.78	2017.25
460.99	1966.05
461.19	1992.67
461.39	1984.48
461.60	1994.72
461.80	2027.49
462.00	1939.43
462.21	1949.67
462.41	1959.91
462.61	1904.61
462.82	1898.47
463.02	2004.96
463.22	1951.71
463.43	2033.63
463.63	2031.58
463.83	2047.97
464.04	2017.25
464.24	1982.43
464.44	1904.61
464.64	1904.61
464.85	2033.63
465.05	2086.88
465.25	1925.09
465.46	1877.99
465.66	2027.49
465.86	2056.16
466.07	1957.86
466.27	1955.81
466.47	1914.85
466.68	1923.04
466.88	2013.15
467.08	2021.35
467.29	2060.26
467.49	2031.58
467.69	1955.81
467.89	1949.67
468.10	2027.49
468.30	2041.82
468.50	2070.50
468.71	2017.25
468.91	1896.42
469.11	2099.17
469.31	1968.10
469.52	1894.37
469.72	2109.41
469.92	2086.88
470.13	1900.52
470.33	2013.15
470.53	2082.78
470.73	2394.08
470.94	2797.53
471.14	2983.89
471.34	3315.66
471.54	3227.60
471.75	2912.21
471.95	2660.31
472.15	2533.34
472.36	2529.24
472.56	2471.90
472.76	2478.04
472.96	2383.84
473.17	2301.92
473.37	2189.28
473.57	1996.77
473.77	2136.03
473.98	2054.11
474.18	1869.80
474.38	2207.71
474.58	1939.43
474.79	1927.14
474.99	2029.54
475.19	2054.11
475.39	1912.80
475.60	2082.78
475.80	2045.92
476.00	1925.09
476.20	1966.05
476.41	2021.35
476.61	2138.08
476.81	2080.74
477.01	1843.17
477.21	2002.91
477.42	2095.07
477.62	1900.52
477.82	1964.00
478.02	1959.91
478.23	2009.06
478.43	1875.94
478.63	2002.91
478.83	1959.91
479.03	2023.39
479.24	2047.97
479.44	2136.03
479.64	1861.60
479.84	1855.46
480.04	1966.05
480.25	2060.26
480.45	1841.12
480.65	1863.65
480.85	2066.40
481.06	1925.09
481.26	1959.91
481.46	2015.20
481.66	1949.67
481.86	1857.51
482.06	2140.13
482.27	1871.84
482.47	1961.95
482.67	1892.32
482.87	1982.43
483.07	2041.82
483.28	1943.52
483.48	1978.34
483.68	1906.66
483.88	1927.14
484.08	1740.77
484.29	1873.89
484.49	1990.63
484.69	1818.60
484.89	1980.39
485.09	2076.64
485.29	2052.06
485.50	2013.15
485.70	2004.96
485.90	2070.50
486.10	1982.43
486.30	2074.59
486.50	2080.74
486.71	1943.52
486.91	2015.20
487.11	1992.67
487.31	1894.37
487.51	1966.05
487.71	1951.71
487.91	1908.71
488.12	1869.80
488.32	1771.49
488.52	1972.19
488.72	1861.60
488.92	2021.35
489.12	2004.96
489.32	2082.78
489.53	2004.96
489.73	1886.18
489.93	2103.26
490.13	1927.14
490.33	1920.99
490.53	1925.09
490.73	1992.67
490.94	1859.56
491.14	1957.86
491.34	2025.44
491.54	2330.59
491.74	2887.64
491.94	3487.69
492.14	3835.85
492.34	3807.17
492.54	3551.18
492.75	2979.79
492.95	2973.65
493.15	2736.09
493.35	2664.41
493.55	2592.73
493.75	2502.62
493.95	2463.71
494.15	2326.49
494.35	2195.42
494.56	2070.50
494.76	2011.11
494.96	2060.26
495.16	2017.25
495.36	2086.88
495.56	2037.73
495.76	1966.05
495.96	1974.24
496.16	1880.04
496.36	2037.73
496.56	2041.82
496.77	2009.06
496.97	2007.01
497.17	2000.87
497.37	1916.90
497.57	1972.19
497.77	1964.00
497.97	1851.36
498.17	1980.39
498.37	1947.62
498.57	2029.54
498.77	1945.57
498.97	2035.68
499.17	2056.16
499.38	1984.48
499.58	1978.34
499.78	2041.82
499.98	2029.54
500.18	2021.35
500.38	1947.62
500.58	2154.46
500.78	2684.89
500.98	4868.02
501.18	6993.81
501.38	8578.94
501.58	9695.08
501.78	9672.56
501.98	7372.69
502.18	6305.70
502.38	5341.10
502.58	4904.89
502.78	4487.10
502.98	4216.77
503.18	4018.11
503.38	3805.13
503.59	3215.31
503.79	3063.76
503.99	2856.92
504.19	2619.35
504.39	2537.43
504.59	2629.59
504.79	2662.36
504.99	2580.44
505.19	2410.46
505.39	2256.86
505.59	2332.64
505.79	2312.16
505.99	2129.89
506.19	2043.87
506.39	2242.53
506.59	2052.06
506.79	1931.23
506.99	2109.41
507.19	2015.20
507.39	2093.02
507.59	1929.19
507.79	1943.52
507.99	1974.24
508.19	2064.35
508.39	1957.86
508.59	2011.11
508.79	2111.46
508.99	2138.08
509.19	1918.95
509.39	2017.25
509.59	1892.32
509.79	1886.18
509.99	1998.82
510.19	2023.39
510.39	1990.63
510.59	2035.68
510.79	1884.13
510.99	1873.89
511.19	1968.10
511.39	2060.26
511.59	2047.97
511.79	2070.50
511.99	2029.54
512.19	2056.16
512.38	1976.29
512.58	1986.53
512.78	1959.91
512.98	2054.11
513.18	2140.13
513.38	1880.04
513.58	2070.50
513.78	1992.67
513.98	1947.62
514.18	1957.86
514.38	1961.95
514.58	1955.81
514.78	1947.62
514.98	1920.99
515.18	1984.48
515.38	1931.23
515.58	2156.51
515.78	1888.23
515.98	1910.75
516.18	2047.97
516.38	2029.54
516.57	1900.52
516.77	1916.90
516.97	2066.40
517.17	1941.47
517.37	1816.55
517.57	2037.73
517.77	1998.82
517.97	1953.76
518.17	2023.39
518.37	1900.52
518.57	1916.90
518.77	1935.33
518.97	1984.48
519.16	2009.06
519.36	2090.98
519.56	1972.19
519.76	1927.14
519.96	2043.87
520.16	2115.55
520.36	1964.00
520.56	2052.06
520.76	1986.53
520.96	2009.06
521.16	2033.63
521.35	2058.21
521.55	2060.26
521.75	2007.01
521.95	1900.52
522.15	1976.29
522.35	1783.78
522.55	1908.71
522.75	2045.92
522.95	1966.05
523.14	1929.19
523.34	2000.87
523.54	1943.52
523.74	2015.20
523.94	1961.95
524.14	1871.84
524.34	2023.39
524.54	2121.70
524.73	1939.43
524.93	1980.39
525.13	1959.91
525.33	1873.89
525.53	2199.52
525.73	2043.87
525.93	1933.28
526.13	2050.02
526.32	1959.91
526.52	2013.15
526.72	2117.60
526.92	2004.96
527.12	1906.66
527.32	1918.95
527.52	1910.75
527.71	1961.95
527.91	1927.14
528.11	1918.95
528.31	2015.20
528.51	1888.23
528.71	2027.49
528.90	1980.39
529.10	2050.02
529.30	2056.16
529.50	1830.88
529.70	2035.68
529.90	1998.82
530.09	2013.15
530.29	1976.29
530.49	1892.32
530.69	2111.46
530.89	1972.19
531.09	2068.45
531.28	1947.62
531.48	1980.39
531.68	1964.00
531.88	2023.39
532.08	2080.74
532.28	1914.85
532.47	2033.63
532.67	2066.40
532.87	2060.26
533.07	1875.94
533.27	2002.91
533.46	2002.91
533.66	2021.35
533.86	2023.39
534.06	2004.96
534.26	2111.46
534.45	1961.95
534.65	2013.15
534.85	2037.73
535.05	1968.10
535.25	1998.82
535.44	1898.47
535.64	2027.49
535.84	2004.96
536.04	1941.47
536.24	1834.98
536.43	1955.81
536.63	1994.72
536.83	2043.87
537.03	1923.04
537.22	1812.45
537.42	1880.04
537.62	2045.92
537.82	1968.10
538.02	2039.78
538.21	2021.35
538.41	2199.52
538.61	2007.01
538.81	1910.75
539.00	1996.77
539.20	1877.99
539.40	2000.87
539.60	2031.58
539.79	2011.11
539.99	1916.90
540.19	1933.28
540.39	1947.62
540.58	2033.63
540.78	2129.89
540.98	2074.59
541.18	2138.08
541.37	2009.06
541.57	1920.99
541.77	2084.83
541.97	1929.19
542.16	1945.57
542.36	1988.58
542.56	1929.19
542.76	2111.46
542.95	2082.78
543.15	1957.86
543.35	2062.30
543.54	1855.46
543.74	1861.60
543.94	2050.02
544.14	1865.70
544.33	2047.97
544.53	2013.15
544.73	1968.10
544.93	1943.52
545.12	1990.63
545.32	2004.96
545.52	2007.01
545.71	1970.15
545.91	1941.47
546.11	1943.52
546.30	1908.71
546.50	1951.71
546.70	2019.30
546.90	1990.63
547.09	1923.04
547.29	1998.82
547.49	2080.74
547.68	2002.91
547.88	1933.28
548.08	1994.72
548.27	2529.24
548.47	1896.42
548.67	1964.00
548.87	2031.58
549.06	1974.24
549.26	2007.01
549.46	2039.78
549.65	1916.90
549.85	2050.02
550.05	2009.06
550.24	1894.37
550.44	1961.95
550.64	2035.68
550.83	1910.75
551.03	2029.54
551.23	2078.69
551.42	2041.82
551.62	1980.39
551.82	2002.91
552.01	1992.67
552.21	2054.11
552.41	1912.80
552.60	2035.68
552.80	1974.24
553.00	2004.96
553.19	1968.10
553.39	2183.13
553.59	1951.71
553.78	2062.30
553.98	2007.01
554.17	1945.57
554.37	2000.87
554.57	2002.91
554.76	1931.23
554.96	1964.00
555.16	2068.45
555.35	2043.87
555.55	2062.30
555.75	1994.72
555.94	2070.50
556.14	1861.60
556.33	1939.43
556.53	1982.43
556.73	1988.58
556.92	1955.81
557.12	2017.25
557.32	2109.41
557.51	2113.50
557.71	2045.92
557.90	2107.36
558.10	2111.46
558.30	1923.04
558.49	1964.00
558.69	2013.15
558.88	1978.34
559.08	1951.71
559.28	1902.56
559.47	2031.58
559.67	2066.40
559.86	2166.75
560.06	2021.35
560.26	2043.87
560.45	2033.63
560.65	1972.19
560.84	2076.64
561.04	1923.04
561.24	2011.11
561.43	1945.57
561.63	2074.59
561.82	1970.15
562.02	1994.72
562.22	1880.04
562.41	1869.80
562.61	1914.85
562.80	1941.47
563.00	2242.53
563.19	1988.58
563.39	2035.68
563.59	2043.87
563.78	1904.61
563.98	1830.88
564.17	1869.80
564.37	1867.75
564.56	2050.02
564.76	1861.60
564.96	2125.79
565.15	2088.93
565.35	2224.09
565.54	2002.91
565.74	2045.92
565.93	2009.06
566.13	1900.52
566.32	2037.73
566.52	2013.15
566.71	1957.86
566.91	2037.73
567.11	2058.21
567.30	1941.47
567.50	2076.64
567.69	2129.89
567.89	1941.47
568.08	1875.94
568.28	1955.81
568.47	1945.57
568.67	2021.35
568.86	2000.87
569.06	2105.31
569.25	2041.82
569.45	1863.65
569.64	1918.95
569.84	1890.28
570.04	1957.86
570.23	1941.47
570.43	1980.39
570.62	2007.01
570.82	2119.65
571.01	1861.60
571.21	1931.23
571.40	1945.57
571.60	2027.49
571.79	2078.69
571.99	2060.26
572.18	1910.75
572.38	1990.63
572.57	1964.00
572.77	2025.44
572.96	2146.27
573.16	1980.39
573.35	1955.81
573.55	2148.32
573.74	2068.45
573.94	1896.42
574.13	1951.71
574.33	2056.16
574.52	2090.98
574.71	1996.77
574.91	2013.15
575.10	1953.76
575.30	2086.88
575.49	1955.81
575.69	1941.47
575.88	2052.06
576.08	2076.64
576.27	2090.98
576.47	2025.44
576.66	2187.23
576.86	2179.04
577.05	2037.73
577.25	1998.82
577.44	2228.19
577.64	2017.25
577.83	2019.30
578.02	1939.43
578.22	2138.08
578.41	2107.36
578.61	2007.01
578.80	1966.05
579.00	1984.48
579.19	2064.35
579.39	1994.72
579.58	2068.45
579.77	2068.45
579.97	2072.54
580.16	2119.65
580.36	2066.40
580.55	2111.46
580.75	2004.96
580.94	2050.02
581.13	2090.98
581.33	2164.70
581.52	2025.44
581.72	2170.85
581.91	2123.74
582.11	1986.53
582.30	2197.47
582.49	1982.43
582.69	2176.99
582.88	2062.30
583.08	2064.35
583.27	2084.83
583.47	1988.58
583.66	1955.81
583.85	1931.23
584.05	1970.15
584.24	2156.51
584.44	2031.58
584.63	2144.22
584.82	2220.00
585.02	2117.60
585.21	2146.27
585.41	2136.03
585.60	2117.60
585.79	2222.05
585.99	2207.71
586.18	2052.06
586.37	2623.45
586.57	3925.96
586.76	11794.25
586.96	30772.78
587.15	44729.69
587.34	54398.15
587.54	59876.46
587.73	56640.67
587.93	40230.30
588.12	30041.65
588.31	24137.36
588.51	20846.27
588.70	18757.35
588.89	17198.84
589.09	15327.00
589.28	13176.63
589.47	11046.74
589.67	8591.23
589.86	6576.03
590.06	4839.35
590.25	3854.28
590.44	3055.57
590.64	2670.55
590.83	2379.74
591.02	2273.25
591.22	2156.51
591.41	2103.26
591.60	2060.26
591.80	2260.96
591.99	1978.34
592.18	2033.63
592.38	2056.16
592.57	2050.02
592.76	1982.43
592.96	2160.61
593.15	1953.76
593.34	2156.51
593.54	1974.24
593.73	2113.50
593.92	2031.58
594.12	2127.84
594.31	2078.69
594.50	2142.18
594.70	2125.79
594.89	2252.77
595.08	1982.43
595.28	2150.37
595.47	2213.85
595.66	2101.22
595.86	1972.19
596.05	1961.95
596.24	1984.48
596.43	2152.42
596.63	2154.46
596.82	1982.43
597.01	2054.11
597.21	2131.94
597.40	2076.64
597.59	2023.39
597.79	2041.82
597.98	1992.67
598.17	2043.87
598.36	2060.26
598.56	2084.83
598.75	1974.24
598.94	2072.54
599.14	2027.49
599.33	1974.24
599.52	2060.26
599.71	2115.55
599.91	2047.97
600.10	2047.97
600.29	1990.63
600.48	2074.59
600.68	2021.35
600.87	1941.47
601.06	1912.80
601.26	2062.30
601.45	1972.19
601.64	1912.80
601.83	2119.65
602.03	2009.06
602.22	1966.05
602.41	2080.74
602.60	2086.88
602.80	2045.92
602.99	1972.19
603.18	1939.43
603.37	2009.06
603.57	1982.43
603.76	2047.97
603.95	2052.06
604.14	2037.73
604.34	1951.71
604.53	1916.90
604.72	1972.19
604.91	2121.70
605.10	2011.11
605.30	1925.09
605.49	2179.04
605.68	2021.35
605.87	2039.78
606.07	1937.38
606.26	1974.24
606.45	2064.35
606.64	2019.30
606.84	1966.05
607.03	1974.24
607.22	2197.47
607.41	1943.52
607.60	1941.47
607.80	2086.88
607.99	1996.77
608.18	2015.20
608.37	1968.10
608.56	1923.04
608.76	2031.58
608.95	2088.93
609.14	2072.54
609.33	2230.24
609.52	2181.09
609.72	2129.89
609.91	2101.22
610.10	2015.20
610.29	2113.50
610.48	2052.06
610.68	2045.92
610.87	2023.39
611.06	2017.25
611.25	1970.15
611.44	2076.64
611.63	1984.48
611.83	2047.97
612.02	1935.33
612.21	2033.63
612.40	1859.56
612.59	1904.61
612.79	1869.80
612.98	2000.87
613.17	2150.37
613.36	2023.39
613.55	2131.94
613.74	2062.30
613.93	2072.54
614.13	2207.71
614.32	2263.01
614.51	2267.10
614.70	2107.36
614.89	2107.36
615.08	2138.08
615.28	2435.03
615.47	1949.67
615.66	2086.88
615.85	2062.30
616.04	2125.79
616.23	2076.64
616.42	2058.21
616.62	2078.69
616.81	2000.87
617.00	2013.15
617.19	2007.01
617.38	1972.19
617.57	1980.39
617.76	2050.02
617.95	2023.39
618.15	1992.67
618.34	2158.56
618.53	1931.23
618.72	1966.05
618.91	2037.73
619.10	2123.74
619.29	1943.52
619.48	1976.29
619.68	1935.33
619.87	1984.48
620.06	1955.81
620.25	2054.11
620.44	1978.34
620.63	1972.19
620.82	2084.83
621.01	2052.06
621.20	1945.57
621.39	1943.52
621.59	2002.91
621.78	2031.58
621.97	1992.67
622.16	2025.44
622.35	1959.91
622.54	2068.45
622.73	2099.17
622.92	1877.99
623.11	2017.25
623.30	1964.00
623.49	1996.77
623.68	1990.63
623.88	2107.36
624.07	1949.67
624.26	1904.61
624.45	1992.67
624.64	1939.43
624.83	2007.01
625.02	1947.62
625.21	1894.37
625.40	2011.11
625.59	2150.37
625.78	1945.57
625.97	2129.89
626.16	2121.70
626.35	2109.41
626.54	2052.06
626.74	2181.09
626.93	2052.06
627.12	2013.15
627.31	2109.41
627.50	2035.68
627.69	2066.40
627.88	1927.14
628.07	1961.95
628.26	1861.60
628.45	1871.84
628.64	1941.47
628.83	1908.71
629.02	1898.47
629.21	2070.50
629.40	2029.54
629.59	1943.52
629.78	1964.00
629.97	1943.52
630.16	1947.62
630.35	1966.05
630.54	2041.82
630.73	1880.04
630.92	1972.19
631.11	1953.76
631.30	1933.28
631.49	2021.35
631.68	1982.43
631.87	1959.91
632.06	1945.57
632.25	2127.84
632.44	1966.05
632.63	2101.22
632.82	1959.91
633.01	2074.59
633.20	2103.26
633.39	2064.35
633.58	1964.00
633.77	2164.70
633.96	2019.30
634.15	2029.54
634.34	2072.54
634.53	1966.05
634.72	2045.92
634.91	1865.70
635.10	2050.02
635.29	2088.93
635.48	2025.44
635.67	1937.38
635.86	1923.04
636.05	2019.30
636.24	1951.71
636.43	1931.23
636.62	2002.91
636.81	1783.78
637.00	2015.20
637.19	1976.29
637.38	1927.14
637.57	1953.76
637.76	2127.84
637.95	2064.35
638.14	2095.07
638.33	2070.50
638.52	2043.87
638.71	1945.57
638.89	1886.18
639.08	2142.18
639.27	2131.94
639.46	2267.10
639.65	2578.39
639.84	2652.12
640.03	2783.19
640.22	2686.94
640.41	2615.26
640.60	2387.93
640.79	2332.64
640.98	2215.90
641.17	2148.32
641.36	2142.18
641.55	2199.52
641.74	2068.45
641.92	2068.45
642.11	1935.33
642.30	2027.49
642.49	1935.33
642.68	1941.47
642.87	2033.63
643.06	2031.58
643.25	1982.43
643.44	1912.80
643.63	1957.86
643.82	2007.01
644.00	1951.71
644.19	1982.43
644.38	1896.42
644.57	2027.49
644.76	2095.07
644.95	1998.82
645.14	1990.63
645.33	2047.97
645.52	1931.23
645.71	1859.56
645.89	1839.08
646.08	1951.71
646.27	1945.57
646.46	2090.98
646.65	1933.28
646.84	1943.52
647.03	1886.18
647.22	2027.49
647.40	1935.33
647.59	1935.33
647.78	1861.60
647.97	1968.10
648.16	1966.05
648.35	2084.83
648.54	2019.30
648.73	1902.56
648.91	2021.35
649.10	1972.19
649.29	1984.48
649.48	1898.47
649.67	2050.02
649.86	1927.14
650.05	2013.15
650.23	2240.48
650.42	2027.49
650.61	2283.49
650.80	2234.33
650.99	2244.57
651.18	2162.66
651.36	2084.83
651.55	1935.33
651.74	2082.78
651.93	1959.91
652.12	1964.00
652.31	1986.53
652.49	1994.72
652.68	2007.01
652.87	2033.63
653.06	2007.01
653.25	2179.04
653.44	1918.95
653.62	2056.16
653.81	1980.39
654.00	2009.06
654.19	2041.82
654.38	2211.81
654.56	1968.10
654.75	1978.34
654.94	2007.01
655.13	2007.01
655.32	2021.35
655.51	2093.02
655.69	1929.19
655.88	2023.39
656.07	1957.86
656.26	2043.87
656.45	1949.67
656.63	1982.43
656.82	2017.25
657.01	2066.40
657.20	1877.99
657.38	2058.21
657.57	2045.92
657.76	1886.18
657.95	1998.82
658.14	1898.47
658.32	1920.99
658.51	1877.99
658.70	2045.92
658.89	1943.52
659.08	1937.38
659.26	2136.03
659.45	1935.33
659.64	2074.59
659.83	2007.01
660.01	2267.10
660.20	2041.82
660.39	2119.65
660.58	1820.64
660.76	2068.45
660.95	1851.36
661.14	1929.19
661.33	1937.38
661.51	1976.29
661.70	1966.05
661.89	2013.15
662.08	1982.43
662.26	1857.51
662.45	1914.85
662.64	2119.65
662.83	1972.19
663.01	2013.15
663.20	2002.91
663.39	2002.91
663.58	1966.05
663.76	1918.95
663.95	2033.63
664.14	1906.66
664.32	1859.56
664.51	1902.56
664.70	1884.13
664.89	2054.11
665.07	1843.17
665.26	2027.49
665.45	1845.22
665.64	2029.54
665.82	1941.47
666.01	2025.44
666.20	1925.09
666.38	2090.98
666.57	2125.79
666.76	2748.37
666.95	6700.95
667.13	15095.58
667.32	21182.14
667.51	24622.73
667.69	26979.94
667.88	25509.50
668.07	18773.73
668.25	14348.07
668.44	11765.58
668.63	9916.26
668.81	8873.85
669.00	7767.95
669.19	6872.98
669.38	6016.93
669.56	5136.31
669.75	4280.25
669.94	3688.39
670.12	3000.27
670.31	2691.03
670.50	2439.13
670.68	2279.39
670.87	2207.71
671.06	2019.30
671.24	2058.21
671.43	2086.88
671.62	2093.02
671.80	2017.25
671.99	1986.53
672.18	1992.67
672.36	2041.82
672.55	1974.24
672.74	1972.19
672.92	1980.39
673.11	1968.10
673.29	1832.93
673.48	2050.02
673.67	1961.95
673.85	2093.02
674.04	1923.04
674.23	2029.54
674.41	2074.59
674.60	1873.89
674.79	1810.40
674.97	1914.85
675.16	2025.44
675.34	2021.35
675.53	1914.85
675.72	1966.05
675.90	2127.84
676.09	1964.00
676.28	1984.48
676.46	1855.46
676.65	1957.86
676.83	1966.05
677.02	2015.20
677.21	1943.52
677.39	1943.52
677.58	1910.75
677.77	1918.95
677.95	1920.99
678.14	2002.91
678.32	1976.29
678.51	1908.71
678.70	2136.03
678.88	1931.23
679.07	2031.58
679.25	2037.73
679.44	2000.87
679.63	1834.98
679.81	1968.10
680.00	1988.58
680.18	2045.92
680.37	2086.88
680.55	1933.28
680.74	1939.43
680.93	1906.66
681.11	1953.76
681.30	1920.99
681.48	1931.23
681.67	1937.38
681.85	1982.43
682.04	1925.09
682.23	2082.78
682.41	1955.81
682.60	1882.08
682.78	1980.39
682.97	1867.75
683.15	1986.53
683.34	1970.15
683.53	2119.65
683.71	1865.70
683.90	2107.36
684.08	2086.88
684.27	1941.47
684.45	2002.91
684.64	2074.59
684.82	1927.14
685.01	1998.82
685.19	1908.71
685.38	2111.46
685.57	1980.39
685.75	1945.57
685.94	1900.52
686.12	1826.79
686.31	1908.71
686.49	2101.22
686.68	1877.99
686.86	2009.06
687.05	1884.13
687.23	2062.30
687.42	2000.87
687.60	1875.94
687.79	2025.44
687.97	2144.22
688.16	2056.16
688.34	2056.16
688.53	1830.88
688.71	1996.77
688.90	2062.30
689.08	1908.71
689.27	1853.41
689.45	2080.74
689.64	2070.50
689.82	2027.49
690.01	2015.20
690.19	2007.01
690.38	1980.39
690.56	2058.21
690.75	1894.37
690.93	1871.84
691.12	1925.09
691.30	2015.20
691.49	2002.91
691.67	1923.04
691.86	2072.54
692.04	1947.62
692.23	1974.24
692.41	2019.30
692.60	2189.28
692.78	2004.96
692.97	2052.06
693.15	2029.54
693.34	2117.60
693.52	2060.26
693.71	1941.47
693.89	1992.67
694.08	1884.13
694.26	2125.79
694.44	2009.06
694.63	2045.92
694.81	1849.32
695.00	1906.66
695.18	2002.91
695.37	2136.03
695.55	1970.15
695.74	1949.67
695.92	1949.67
696.10	2039.78
696.29	1894.37
696.47	1892.32
696.66	1855.46
696.84	1955.81
697.03	1996.77
697.21	2168.80
697.40	2699.22
697.58	2058.21
697.76	1931.23
697.95	1968.10
698.13	1902.56
698.32	1953.76
698.50	1931.23
698.68	2060.26
698.87	2037.73
699.05	2078.69
699.24	1908.71
699.42	1935.33
699.61	2002.91
699.79	1978.34
699.97	1961.95
700.16	1929.19
700.34	1851.36
700.53	1990.63
700.71	2068.45
700.89	2017.25
701.08	1914.85
701.26	2002.91
701.45	2590.68
701.63	1914.85
701.81	1947.62
702.00	1939.43
702.18	1976.29
702.37	1992.67
702.55	2179.04
702.73	2263.01
702.92	2064.35
703.10	2275.29
703.28	2244.57
703.47	2097.12
703.65	2103.26
703.84	2127.84
704.02	2000.87
704.20	2164.70
704.39	1984.48
704.57	2009.06
704.75	2068.45
704.94	2045.92
705.12	2004.96
705.30	2138.08
705.49	3631.05
705.67	8808.31
705.86	18183.91
706.04	22679.21
706.22	26406.51
706.41	28567.12
706.59	25273.98
706.77	17964.78
706.96	14319.40
707.14	12412.74
707.32	10774.36
707.51	9635.69
707.69	8044.42
707.87	6485.92
708.06	5158.83
708.24	4261.82
708.42	3160.02
708.61	2795.48
708.79	2328.54
708.97	2240.48
709.16	2166.75
709.34	2084.83
709.52	1980.39
709.71	2015.20
709.89	2037.73
710.07	1972.19
710.26	1916.90
710.44	1996.77
710.62	2021.35
710.80	2000.87
710.99	2074.59
711.17	2015.20
711.35	1890.28
711.54	1959.91
711.72	2052.06
711.90	1957.86
712.09	1943.52
712.27	1882.08
712.45	2131.94
712.63	1961.95
712.82	1988.58
713.00	1978.34
713.18	2058.21
713.37	2025.44
713.55	1992.67
713.73	2058.21
713.91	2078.69
714.10	1988.58
714.28	1964.00
714.46	1955.81
714.65	1984.48
714.83	1982.43
715.01	1978.34
715.19	1947.62
715.38	1910.75
715.56	1980.39
715.74	1933.28
715.92	1968.10
716.11	2064.35
716.29	1832.93
716.47	2013.15
716.65	1939.43
716.84	1875.94
717.02	2015.20
717.20	1834.98
717.38	1898.47
717.57	1970.15
717.75	1943.52
717.93	2041.82
718.11	1992.67
718.30	1861.60
718.48	2013.15
718.66	2107.36
718.84	2050.02
719.03	1935.33
719.21	1912.80
719.39	2119.65
719.57	2039.78
719.75	2078.69
719.94	1906.66
720.12	1972.19
720.30	1959.91
720.48	2037.73
720.67	1888.23
720.85	1904.61
721.03	1898.47
721.21	1886.18
721.39	2068.45
721.58	1984.48
721.76	1980.39
721.94	1998.82
722.12	1882.08
722.30	2047.97
722.49	1951.71
722.67	2029.54
722.85	1982.43
723.03	1914.85
723.21	1912.80
723.40	2013.15
723.58	2064.35
723.76	2082.78
723.94	2082.78
724.12	2074.59
724.30	2176.99
724.49	2029.54
724.67	1953.76
724.85	2058.21
725.03	1916.90
725.21	2052.06
725.40	2043.87
725.58	1863.65
725.76	2035.68
725.94	2011.11
726.12	1890.28
726.30	1988.58
726.49	1966.05
726.67	1945.57
726.85	2013.15
727.03	2162.66
727.21	3178.45
727.39	4730.81
727.57	6088.61
727.76	6717.34
727.94	7114.64
728.12	6983.57
728.30	5662.63
728.48	4720.57
728.66	4284.35
728.84	3866.56
729.03	3315.66
729.21	2985.94
729.39	2596.82
729.57	2322.40
729.75	2238.43
729.93	2154.46
730.11	2017.25
730.30	2019.30
730.48	1939.43
730.66	2095.07
730.84	2068.45
731.02	1933.28
731.20	1888.23
731.38	2047.97
731.56	1841.12
731.74	1916.90
731.93	1964.00
732.11	1992.67
732.29	1933.28
732.47	2035.68
732.65	1927.14
732.83	1996.77
733.01	1984.48
733.19	1863.65
733.37	2017.25
733.56	1990.63
733.74	1902.56
733.92	2037.73
734.10	1914.85
734.28	1943.52
734.46	1920.99
734.64	1910.75
734.82	1861.60
735.00	1904.61
735.18	1947.62
735.36	1980.39
735.54	1931.23
735.73	1955.81
735.91	1933.28
736.09	1959.91
736.27	1980.39
736.45	1939.43
736.63	1875.94
736.81	1900.52
736.99	2033.63
737.17	2117.60
737.35	1875.94
737.53	1910.75
737.71	1994.72
737.89	2015.20
738.07	1888.23
738.25	1890.28
738.43	1869.80
738.61	1920.99
738.80	1820.64
738.98	1923.04
739.16	1890.28
739.34	1888.23
739.52	2015.20
739.70	1916.90
739.88	2023.39
740.06	2068.45
740.24	1748.97
740.42	2039.78
740.60	1834.98
740.78	1890.28
740.96	1865.70
741.14	1972.19
741.32	1894.37
741.50	1857.51
741.68	2129.89
741.86	2015.20
742.04	1892.32
742.22	1902.56
742.40	1994.72
742.58	1986.53
742.76	1925.09
742.94	2033.63
743.12	1906.66
743.30	1949.67
743.48	2070.50
743.66	1961.95
743.84	2066.40
744.02	1972.19
744.20	1955.81
744.38	1892.32
744.56	1886.18
744.74	2047.97
744.92	1957.86
745.10	2113.50
745.28	2000.87
745.46	2095.07
745.64	1933.28
745.82	1994.72
746.00	1980.39
746.18	2058.21
746.36	1912.80
746.54	2007.01
746.72	1998.82
746.90	1912.80
747.08	2068.45
747.26	1886.18
747.44	1990.63
747.62	1998.82
747.80	1974.24
747.98	2029.54
748.15	1937.38
748.33	2076.64
748.51	1961.95
748.69	2074.59
748.87	1920.99
749.05	1916.90
749.23	2017.25
749.41	2066.40
749.59	1937.38
749.77	1972.19
749.95	1923.04
750.13	1949.67
750.31	2017.25
750.49	1968.10
750.67	2009.06
750.85	2056.16
751.03	1986.53
751.20	2109.41
751.38	1945.57
751.56	1972.19
751.74	1957.86
751.92	1992.67
752.10	1869.80
752.28	1982.43
752.46	1890.28
752.64	1978.34
752.82	1886.18
753.00	2090.98
753.18	1968.10
753.35	1941.47
753.53	2002.91
753.71	1920.99
753.89	1986.53
754.07	1890.28
754.25	2095.07
754.43	1935.33
754.61	1822.69
754.79	1988.58
754.97	1914.85
755.14	2095.07
755.32	1908.71
755.50	1988.58
755.68	1968.10
755.86	1904.61
756.04	1943.52
756.22	1808.36
756.40	2011.11
756.57	2041.82
756.75	1884.13
756.93	2052.06
757.11	2064.35
757.29	1951.71
757.47	1920.99
757.65	1939.43
757.82	1832.93
758.00	1906.66
758.18	1882.08
758.36	1871.84
758.54	2007.01
758.72	1912.80
758.90	1986.53
759.07	1941.47
759.25	1863.65
759.43	1943.52
759.61	1869.80
759.79	2629.59
759.97	2009.06
760.15	1959.91
760.32	1869.80
760.50	1945.57
760.68	2093.02
760.86	1877.99
761.04	1990.63
761.22	1972.19
761.39	1988.58
761.57	1927.14
761.75	2002.91
761.93	2035.68
762.11	1929.19
762.28	1996.77
762.46	1828.84
762.64	2088.93
762.82	1890.28
763.00	1923.04
763.18	2017.25
763.35	1873.89
763.53	2054.11
763.71	1943.52
763.89	1984.48
764.07	1943.52
764.24	1902.56
764.42	2043.87
764.60	1957.86
764.78	2023.39
764.96	2002.91
765.13	1966.05
765.31	1906.66
765.49	1978.34
765.67	1877.99
765.84	1923.04
766.02	1994.72
766.20	1861.60
766.38	1906.66
766.56	1972.19
766.73	2043.87
766.91	1970.15
767.09	1992.67
767.27	2074.59
767.44	2035.68
767.62	2021.35
767.80	1935.33
767.98	1912.80
768.15	1941.47
768.33	1939.43
768.51	2015.20
768.69	2000.87
768.87	1949.67
769.04	1931.23
769.22	2168.80
769.40	2027.49
769.58	2150.37
769.75	2011.11
769.93	2033.63
770.11	1914.85
770.28	1855.46
770.46	2054.11
770.64	2060.26
770.82	1964.00
770.99	1867.75
771.17	2002.91
771.35	1900.52
771.53	1974.24
771.70	1908.71
771.88	1964.00
772.06	1988.58
772.23	1992.67
772.41	1980.39
772.59	1990.63
772.77	1830.88
772.94	1900.52
773.12	2039.78
773.30	1910.75
773.47	1957.86
773.65	1968.10
773.83	2058.21
774.01	1968.10
774.18	1855.46
774.36	1980.39
774.54	1882.08
774.71	1961.95
774.89	1953.76
775.07	1902.56
775.24	1996.77
775.42	1871.84
775.60	2093.02
775.78	1994.72
775.95	1888.23
776.13	1834.98
776.31	1818.60
776.48	2000.87
776.66	2021.35
776.84	1945.57
777.01	1935.33
777.19	1898.47
777.37	1888.23
777.54	2017.25
777.72	2093.02
777.90	1988.58
778.07	1929.19
778.25	2256.86
778.43	2027.49
778.60	1916.90
778.78	2043.87
778.96	2027.49
779.13	1851.36
779.31	2060.26
779.49	1974.24
779.66	1990.63
779.84	1949.67
780.01	1927.14
780.19	1920.99
780.37	2037.73
780.54	1959.91
780.72	1839.08
780.90	1920.99
781.07	1992.67
781.25	1927.14
781.43	2064.35
781.60	1914.85
781.78	2009.06
781.95	1966.05
782.13	1894.37
782.31	2000.87
782.48	1824.74
782.66	1968.10
782.83	2119.65
783.01	1957.86
783.19	1990.63
783.36	1918.95
783.54	1861.60
783.72	1984.48
783.89	1964.00
784.07	2031.58
784.24	1927.14
784.42	2035.68
784.60	1908.71
784.77	1968.10
784.95	1791.97
785.12	1953.76
785.30	1982.43
785.47	1896.42
785.65	1886.18
785.83	1927.14
786.00	1925.09
786.18	1933.28
786.35	1849.32
786.53	1863.65
786.71	1982.43
786.88	1988.58
787.06	1957.86
787.23	1884.13
787.41	1853.41
787.58	1970.15
787.76	1927.14
787.94	1964.00
788.11	2021.35
788.29	1947.62
788.46	1914.85
788.64	1910.75
788.81	1896.42
788.99	1904.61
789.16	1865.70
789.34	1976.29
789.52	1869.80
789.69	1920.99
789.87	1937.38
790.04	1929.19
790.22	2013.15
790.39	2170.85
790.57	1898.47
790.74	1996.77
790.92	2025.44
791.09	1898.47
791.27	1949.67
791.44	2045.92
791.62	1972.19
791.79	2060.26
791.97	1933.28
792.15	2271.20
792.32	1945.57
792.50	2064.35
792.67	2084.83
792.85	2035.68
793.02	2013.15
793.20	1877.99
793.37	1867.75
793.55	1957.86
793.72	1890.28
793.90	1980.39
794.07	1892.32
794.25	1845.22
794.42	1918.95
794.60	1906.66
794.77	1966.05
794.95	1974.24
795.12	2029.54
795.30	1914.85
795.47	1832.93
795.65	2164.70
795.82	1988.58
796.00	1892.32
796.17	1912.80
796.34	1931.23
796.52	1884.13
796.69	1959.91
796.87	2023.39
797.04	1959.91
797.22	1978.34
797.39	2013.15
797.57	1980.39
797.74	2033.63
797.92	2029.54
798.09	1914.85
798.27	2033.63
798.44	1949.67
798.62	1787.88
798.79	1945.57
798.96	1957.86
799.14	1951.71
799.31	2246.62
799.49	1929.19
799.66	1916.90
799.84	1875.94
800.01	1908.71
800.19	1980.39
800.36	1832.93
800.53	2002.91
800.71	2031.58
800.88	2095.07
801.06	1920.99
801.23	1890.28
801.41	1918.95
801.58	1941.47
801.75	1849.32
801.93	2009.06
802.10	1974.24
802.28	1880.04
802.45	1949.67
802.63	1933.28
802.80	2054.11
802.97	1900.52
803.15	1945.57
803.32	1929.19
803.50	1888.23
803.67	1873.89
803.84	1849.32
804.02	1953.76
804.19	1972.19
804.37	1849.32
804.54	1910.75
804.71	1939.43
804.89	1943.52
805.06	1904.61
805.24	1904.61
805.41	1849.32
805.58	1892.32
805.76	2138.08
805.93	1945.57
806.10	2064.35
806.28	1951.71
806.45	1951.71
806.63	2011.11
806.80	1976.29
806.97	1939.43
807.15	1972.19
807.32	1966.05
807.49	2035.68
807.67	1865.70
807.84	1943.52
808.01	1935.33
808.19	2140.13
808.36	2140.13
808.54	1974.24
808.71	1937.38
808.88	1912.80
809.06	2013.15
809.23	2062.30
809.40	1900.52
809.58	1974.24
809.75	1984.48
809.92	1855.46
810.10	2070.50
810.27	1972.19
810.44	1996.77
810.62	2002.91
810.79	1990.63
810.96	1877.99
811.14	1957.86
811.31	2013.15
811.48	1998.82
811.66	1968.10
811.83	2002.91
812.00	1961.95
812.18	2000.87
812.35	2027.49
812.52	1953.76
812.69	1953.76
812.87	1896.42
813.04	1941.47
813.21	1980.39
813.39	1845.22
813.56	1863.65
813.73	2025.44
813.91	1851.36
814.08	1916.90
814.25	1896.42
814.42	1845.22
814.60	1972.19
814.77	1974.24
814.94	1955.81
815.12	1937.38
815.29	2066.40
815.46	1939.43
815.63	1943.52
815.81	2013.15
815.98	1849.32
816.15	1923.04
816.33	1941.47
816.50	1980.39
816.67	1972.19
816.84	1935.33
817.02	1849.32
817.19	1877.99
817.36	2013.15
817.53	1964.00
817.71	1900.52
817.88	2011.11
818.05	1976.29
818.22	2050.02
818.40	2111.46
818.57	1984.48
818.74	1976.29
818.91	1951.71
819.09	1998.82
819.26	1968.10
819.43	1920.99
819.60	1906.66
819.78	2011.11
819.95	2072.54
820.12	1826.79
820.29	2019.30
820.47	2041.82
820.64	1853.41
820.81	1832.93
820.98	1908.71
821.15	1875.94
821.33	1925.09
821.50	1886.18
821.67	2041.82
821.84	1882.08
822.02	1941.47
822.19	2037.73
822.36	1910.75
822.53	2031.58
822.70	1779.68
822.88	1892.32
823.05	2064.35
823.22	2027.49
823.39	2007.01
823.56	1867.75
823.74	2142.18
823.91	1882.08
824.08	1849.32
824.25	1939.43
824.42	2107.36
824.60	1822.69
824.77	1957.86
824.94	1912.80
825.11	1957.86
825.28	1886.18
825.45	2025.44
825.63	1912.80
825.80	1914.85
825.97	1970.15
826.14	1959.91
826.31	1882.08
826.48	2070.50
826.66	1859.56
826.83	1953.76
827.00	1964.00
827.17	1941.47
827.34	1968.10
827.51	1857.51
827.69	1959.91
827.86	1861.60
828.03	1933.28
828.20	1961.95
828.37	1896.42
828.54	1964.00
828.71	1976.29
828.89	2037.73
829.06	1914.85
829.23	2052.06
829.40	1925.09
829.57	1961.95
829.74	1957.86
829.91	1947.62
830.09	1937.38
830.26	1986.53
830.43	2078.69
830.60	1957.86
830.77	1966.05
830.94	2009.06
831.11	2017.25
831.28	1851.36
831.46	2035.68
831.63	1914.85
831.80	2052.06
831.97	1902.56
832.14	1898.47
832.31	1990.63
832.48	2004.96
832.65	2021.35
832.82	1966.05
832.99	1976.29
833.17	1853.41
833.34	2064.35
833.51	1970.15
833.68	1787.88
833.85	2037.73
834.02	1877.99
834.19	1898.47
834.36	1890.28
834.53	1910.75
834.70	2033.63
834.87	1984.48
835.04	1923.04
835.22	1834.98
835.39	1910.75
835.56	1796.07
835.73	1875.94
835.90	1994.72
836.07	1896.42
836.24	2009.06
836.41	1914.85
836.58	1918.95
836.75	2047.97
836.92	1980.39
837.09	1892.32
837.26	1972.19
837.43	1976.29
837.60	1990.63
837.77	1957.86
837.94	1986.53
838.12	1970.15
838.29	1996.77
838.46	1843.17
838.63	1900.52
838.80	2129.89
838.97	1925.09
839.14	1906.66
839.31	1941.47
839.48	2125.79
839.65	1920.99
839.82	1992.67
839.99	1923.04
840.16	2037.73
840.33	1988.58
840.50	1966.05
840.67	1875.94
840.84	1769.44
841.01	1990.63
841.18	1892.32
841.35	2002.91
841.52	1966.05
841.69	2148.32
841.86	2078.69
842.03	1964.00
842.20	1947.62
842.37	1996.77
842.54	1974.24
842.71	1970.15
842.88	1845.22
843.05	2021.35
843.22	1920.99
843.39	1976.29
843.56	1898.47
843.73	1966.05
843.90	1953.76
844.07	2021.35
844.24	1982.43
844.41	2015.20
844.58	2019.30
844.75	1968.10
844.92	2017.25
845.09	1961.95
845.26	1914.85
845.43	2035.68
845.60	1902.56
845.77	2031.58
845.94	1898.47
846.10	2009.06
846.27	1814.50
846.44	1902.56
846.61	1875.94
846.78	2037.73
846.95	1961.95
847.12	1959.91
847.29	1959.91
847.46	1880.04
847.63	2072.54
847.80	1945.57
847.97	1935.33
848.14	2127.84
848.31	1943.52
848.48	1937.38
848.65	1994.72
848.82	1931.23
848.98	2189.28
849.15	1994.72
849.32	2082.78
849.49	2066.40
849.66	1978.34
849.83	1941.47
850.00	1828.84
850.17	1943.52
850.34	1980.39
850.51	1918.95
850.68	1898.47
850.85	2097.12
851.01	1951.71
851.18	1972.19
851.35	1953.76
851.52	2033.63
851.69	2023.39
851.86	1873.89
852.03	1820.64
852.20	1988.58
852.37	1961.95
852.53	1869.80
852.70	1875.94
852.87	1939.43
853.04	1955.81
853.21	2054.11
853.38	1957.86
853.55	2066.40
853.72	2043.87
853.89	1920.99
854.05	1843.17
854.22	1927.14
854.39	1925.09
854.56	1916.90
854.73	2047.97
854.90	1941.47
855.07	1970.15
855.23	1875.94
855.40	1949.67
855.57	2002.91
855.74	1757.16
855.91	2170.85
856.08	1863.65
856.25	1945.57
856.41	1935.33
856.58	1925.09
856.75	1968.10
856.92	1923.04
857.09	2023.39
857.26	1923.04
857.42	1947.62
857.59	1996.77
857.76	1945.57
857.93	1976.29
858.10	1968.10
858.27	1918.95
858.43	1961.95
858.60	1943.52
858.77	1787.88
858.94	1859.56
859.11	2078.69
859.27	1890.28
859.44	1920.99
859.61	2050.02
859.78	2021.35
859.95	1966.05
860.12	1869.80
860.28	2099.17
860.45	2107.36
860.62	1976.29
860.79	2017.25
860.95	1894.37
861.12	1867.75
861.29	1894.37
861.46	1966.05
861.63	1920.99
861.79	1970.15
861.96	1982.43
862.13	1861.60
862.30	2082.78
862.47	1935.33
862.63	1914.85
862.80	1931.23
862.97	2007.01
863.14	2000.87
863.30	1951.71
863.47	1802.21
863.64	2099.17
863.81	1992.67
863.97	1959.91
864.14	2035.68
864.31	1896.42
864.48	1976.29
864.65	1853.41
864.81	2021.35
864.98	1916.90
865.15	2050.02
865.32	1972.19
865.48	2041.82
865.65	2054.11
865.82	1861.60
865.98	1955.81
866.15	1986.53
866.32	1935.33
866.49	1953.76
866.65	2023.39
866.82	1927.14
866.99	1947.62
867.16	1781.73
867.32	1970.15
867.49	1798.12
867.66	1898.47
867.83	1865.70
867.99	1853.41
868.16	1886.18
868.33	1849.32
868.49	1923.04
868.66	1832.93
868.83	2025.44
868.99	1957.86
869.16	1933.28
869.33	2119.65
869.50	1982.43
869.66	1990.63
869.83	2009.06
870.00	1859.56
870.16	2041.82
870.33	1923.04
870.50	2039.78
870.66	1949.67
870.83	2117.60
871.00	2062.30
871.17	1976.29
871.33	1964.00
871.50	1959.91
871.67	1894.37
871.83	1869.80
872.00	2152.42
872.17	1916.90
872.33	2058.21
872.50	1964.00
872.67	2031.58
872.83	1888.23
873.00	1937.38
873.17	1927.14
873.33	2027.49
873.50	1939.43
873.67	1851.36
873.83	1937.38
874.00	1980.39
874.16	2068.45
874.33	1953.76
874.50	1851.36
874.66	1986.53
874.83	2011.11
875.00	2017.25
875.16	2019.30
875.33	2052.06
875.50	1816.55
875.66	1964.00
875.83	2019.30
875.99	2045.92
876.16	1888.23
876.33	1892.32
876.49	1988.58
876.66	1908.71
876.83	1980.39
876.99	1763.30
877.16	2011.11
877.32	1927.14
877.49	1906.66
877.66	2000.87
877.82	2043.87
877.99	2011.11
878.15	1951.71
878.32	1964.00
878.49	2025.44
878.65	1894.37
878.82	2074.59
878.98	1914.85
879.15	2072.54
879.32	1968.10
879.48	2027.49
879.65	1964.00
879.81	1939.43
879.98	1912.80
880.15	1918.95
880.31	1976.29
880.48	2033.63
880.64	2025.44
880.81	2060.26
880.97	2068.45
881.14	1994.72
881.31	1894.37
881.47	2121.70
881.64	1947.62
881.80	1849.32
881.97	1935.33
882.13	2000.87
882.30	1841.12
882.47	1918.95
882.63	1900.52
882.80	1900.52
882.96	1961.95
883.13	2080.74
883.29	1972.19
883.46	1925.09
883.62	2070.50
883.79	1972.19
883.95	2107.36
884.12	1877.99
884.29	1970.15
884.45	2060.26
884.62	1968.10
884.78	1855.46
884.95	2031.58
885.11	1863.65
885.28	1933.28
885.44	1939.43
885.61	2011.11
885.77	2033.63
885.94	2011.11
886.10	1929.19
886.27	2023.39
886.43	2101.22
886.60	2076.64
886.76	1964.00
886.93	1937.38
887.09	1931.23
887.26	1765.35
887.42	1902.56
887.59	2013.15
887.75	2088.93
887.92	2043.87
888.08	2056.16
888.25	2093.02
888.41	2056.16
888.58	1959.91
888.74	1953.76
888.91	1906.66
>>>>>End Processed Spectral Data<<<<<
