SpectraSuite Data File
++++++++++++++++++++++++++++++++++++
Date: Wed May 04 22:45:41 CEST 2016
User: root
Dark Spectrum Present: No
Reference Spectrum Present: No
Number of Sampled Component Spectra: 1
Spectrometers: USB4C02835
Integration Time (usec): 100000 (USB4C02835)
Spectra Averaged: 1 (USB4C02835)
Boxcar Smoothing: 0 (USB4C02835)
Correct for Electrical Dark: No (USB4C02835)
Strobe/Lamp Enabled: No (USB4C02835)
Correct for Detector Non-linearity: No (USB4C02835)
Correct for Stray Light: No (USB4C02835)
Number of Pixels in Processed Spectrum: 3648
>>>>>Begin Processed Spectral Data<<<<<
177.47	1578.98
177.69	1578.98
177.91	1578.98
178.13	1634.28
178.36	1548.26
178.58	1859.56
178.80	1976.29
179.02	1789.92
179.24	1882.08
179.46	1882.08
179.68	1998.82
179.90	1992.67
180.13	1994.72
180.35	1880.04
180.57	1929.19
180.79	1968.10
181.01	1980.39
181.23	1980.39
181.45	2054.11
181.67	2009.06
181.90	1959.91
182.12	1906.66
182.34	1837.03
182.56	2004.96
182.78	1970.15
183.00	1884.13
183.22	1945.57
183.44	1816.55
183.66	2168.80
183.89	2062.30
184.11	1925.09
184.33	1988.58
184.55	2027.49
184.77	1957.86
184.99	1912.80
185.21	1957.86
185.43	2174.94
185.65	1898.47
185.87	2007.01
186.10	2090.98
186.32	2142.18
186.54	1955.81
186.76	1939.43
186.98	2033.63
187.20	1910.75
187.42	1918.95
187.64	1966.05
187.86	1974.24
188.08	2082.78
188.30	1904.61
188.52	1898.47
188.75	2021.35
188.97	2056.16
189.19	1851.36
189.41	1918.95
189.63	2009.06
189.85	1951.71
190.07	1847.27
190.29	1863.65
190.51	2002.91
190.73	1824.74
190.95	2013.15
191.17	1931.23
191.39	1794.02
191.61	2007.01
191.84	1974.24
192.06	1955.81
192.28	1888.23
192.50	2244.57
192.72	1976.29
192.94	1943.52
193.16	2035.68
193.38	1986.53
193.60	1859.56
193.82	1859.56
194.04	2072.54
194.26	1859.56
194.48	2011.11
194.70	1837.03
194.92	2002.91
195.14	1939.43
195.36	1984.48
195.58	1984.48
195.80	2004.96
196.02	1931.23
196.24	1923.04
196.46	2011.11
196.69	1861.60
196.91	2148.32
197.13	1873.89
197.35	1912.80
197.57	2082.78
197.79	2037.73
198.01	1943.52
198.23	1988.58
198.45	2025.44
198.67	1814.50
198.89	1951.71
199.11	1923.04
199.33	1943.52
199.55	1734.63
199.77	1964.00
199.99	2004.96
200.21	1914.85
200.43	1949.67
200.65	1906.66
200.87	1804.26
201.09	1939.43
201.31	1918.95
201.53	2027.49
201.75	1933.28
201.97	1970.15
202.19	1920.99
202.41	2070.50
202.63	2052.06
202.85	1992.67
203.07	1961.95
203.29	1910.75
203.51	1937.38
203.73	1902.56
203.95	2121.70
204.17	1918.95
204.39	1984.48
204.61	1920.99
204.83	1945.57
205.05	1988.58
205.27	2000.87
205.49	2080.74
205.71	2004.96
205.93	1855.46
206.15	1824.74
206.37	1994.72
206.59	1923.04
206.81	1845.22
207.03	1855.46
207.25	1941.47
207.47	1994.72
207.69	1912.80
207.91	2103.26
208.13	2029.54
208.34	1947.62
208.56	1832.93
208.78	1955.81
209.00	1933.28
209.22	1964.00
209.44	1929.19
209.66	1916.90
209.88	1957.86
210.10	1925.09
210.32	1935.33
210.54	2004.96
210.76	1933.28
210.98	2025.44
211.20	1777.64
211.42	1970.15
211.64	2111.46
211.86	1961.95
212.08	1865.70
212.30	1929.19
212.52	1972.19
212.74	1937.38
212.96	1964.00
213.17	2033.63
213.39	1982.43
213.61	2023.39
213.83	1900.52
214.05	1884.13
214.27	2047.97
214.49	1884.13
214.71	1904.61
214.93	1964.00
215.15	1941.47
215.37	2011.11
215.59	1834.98
215.81	1957.86
216.03	2103.26
216.24	1929.19
216.46	1906.66
216.68	1910.75
216.90	2060.26
217.12	2054.11
217.34	1912.80
217.56	1970.15
217.78	2080.74
218.00	1994.72
218.22	2011.11
218.44	1953.76
218.66	1968.10
218.87	2090.98
219.09	1961.95
219.31	1992.67
219.53	2023.39
219.75	1910.75
219.97	1945.57
220.19	1892.32
220.41	1894.37
220.63	1988.58
220.85	1937.38
221.06	1912.80
221.28	2060.26
221.50	1998.82
221.72	1992.67
221.94	1880.04
222.16	1935.33
222.38	1988.58
222.60	1923.04
222.82	1957.86
223.03	1966.05
223.25	1843.17
223.47	2025.44
223.69	2093.02
223.91	2058.21
224.13	1929.19
224.35	1927.14
224.57	2045.92
224.78	1941.47
225.00	1886.18
225.22	1984.48
225.44	1935.33
225.66	2041.82
225.88	1992.67
226.10	2019.30
226.32	1900.52
226.53	2037.73
226.75	1945.57
226.97	1976.29
227.19	1980.39
227.41	1980.39
227.63	1947.62
227.85	1935.33
228.06	1933.28
228.28	1998.82
228.50	2023.39
228.72	1859.56
228.94	1943.52
229.16	1857.51
229.37	1888.23
229.59	1890.28
229.81	2019.30
230.03	1929.19
230.25	1871.84
230.47	1886.18
230.69	1812.45
230.90	2043.87
231.12	1902.56
231.34	1945.57
231.56	2033.63
231.78	1873.89
232.00	1949.67
232.21	1914.85
232.43	2009.06
232.65	1826.79
232.87	1988.58
233.09	1902.56
233.30	1884.13
233.52	1972.19
233.74	1943.52
233.96	1914.85
234.18	1959.91
234.40	1957.86
234.61	2136.03
234.83	1834.98
235.05	1816.55
235.27	2209.76
235.49	2109.41
235.70	1980.39
235.92	2082.78
236.14	2047.97
236.36	2138.08
236.58	1861.60
236.79	1984.48
237.01	1894.37
237.23	1937.38
237.45	2086.88
237.67	1865.70
237.88	1982.43
238.10	2064.35
238.32	1871.84
238.54	1916.90
238.76	1935.33
238.97	1900.52
239.19	1914.85
239.41	2000.87
239.63	2025.44
239.85	1853.41
240.06	1959.91
240.28	1892.32
240.50	1980.39
240.72	2015.20
240.93	1851.36
241.15	1988.58
241.37	2035.68
241.59	2068.45
241.81	1904.61
242.02	1869.80
242.24	1959.91
242.46	2054.11
242.68	1908.71
242.89	1916.90
243.11	2021.35
243.33	2011.11
243.55	1931.23
243.76	1937.38
243.98	1931.23
244.20	1890.28
244.42	1957.86
244.64	2029.54
244.85	1767.40
245.07	1886.18
245.29	1961.95
245.51	1941.47
245.72	1927.14
245.94	2054.11
246.16	1955.81
246.38	1949.67
246.59	1931.23
246.81	1927.14
247.03	1892.32
247.24	1853.41
247.46	1949.67
247.68	1978.34
247.90	1900.52
248.11	1980.39
248.33	2017.25
248.55	1984.48
248.77	1935.33
248.98	2004.96
249.20	2004.96
249.42	2011.11
249.64	1974.24
249.85	1988.58
250.07	1972.19
250.29	2009.06
250.50	1908.71
250.72	1869.80
250.94	2064.35
251.16	2097.12
251.37	1923.04
251.59	1957.86
251.81	1994.72
252.02	2058.21
252.24	1896.42
252.46	2000.87
252.68	1914.85
252.89	1957.86
253.11	1834.98
253.33	1998.82
253.54	2086.88
253.76	1837.03
253.98	1976.29
254.20	1929.19
254.41	1888.23
254.63	1896.42
254.85	1818.60
255.06	1970.15
255.28	2002.91
255.50	1931.23
255.71	1882.08
255.93	1875.94
256.15	1943.52
256.36	1906.66
256.58	1904.61
256.80	1951.71
257.02	2035.68
257.23	1947.62
257.45	1966.05
257.67	2039.78
257.88	1882.08
258.10	2002.91
258.32	1982.43
258.53	1937.38
258.75	2097.12
258.97	1882.08
259.18	1941.47
259.40	1877.99
259.62	2142.18
259.83	2052.06
260.05	2009.06
260.27	2289.63
260.48	1994.72
260.70	1916.90
260.92	1906.66
261.13	1976.29
261.35	1992.67
261.57	2013.15
261.78	1892.32
262.00	1904.61
262.22	2021.35
262.43	1916.90
262.65	1904.61
262.86	1951.71
263.08	2113.50
263.30	1914.85
263.51	1804.26
263.73	1947.62
263.95	2066.40
264.16	1869.80
264.38	1824.74
264.60	1875.94
264.81	1941.47
265.03	2056.16
265.25	2025.44
265.46	1970.15
265.68	2074.59
265.89	2050.02
266.11	1812.45
266.33	2009.06
266.54	1988.58
266.76	1943.52
266.98	2023.39
267.19	2021.35
267.41	2025.44
267.62	1945.57
267.84	1820.64
268.06	1980.39
268.27	1986.53
268.49	2043.87
268.70	1935.33
268.92	1964.00
269.14	1896.42
269.35	1914.85
269.57	1898.47
269.79	2023.39
270.00	1865.70
270.22	2025.44
270.43	1824.74
270.65	1785.83
270.87	1923.04
271.08	1959.91
271.30	1976.29
271.51	1892.32
271.73	2013.15
271.95	1990.63
272.16	1982.43
272.38	1941.47
272.59	1916.90
272.81	1951.71
273.02	1972.19
273.24	1994.72
273.46	2054.11
273.67	1882.08
273.89	1875.94
274.10	1904.61
274.32	2066.40
274.54	1994.72
274.75	1908.71
274.97	1896.42
275.18	1976.29
275.40	1998.82
275.61	1929.19
275.83	1959.91
276.05	1865.70
276.26	1951.71
276.48	1976.29
276.69	1943.52
276.91	1947.62
277.12	2099.17
277.34	2050.02
277.55	2035.68
277.77	1900.52
277.99	1988.58
278.20	1820.64
278.42	1853.41
278.63	1943.52
278.85	1910.75
279.06	1875.94
279.28	2015.20
279.49	1968.10
279.71	1949.67
279.93	1882.08
280.14	1904.61
280.36	1859.56
280.57	2056.16
280.79	2043.87
281.00	1900.52
281.22	1845.22
281.43	2033.63
281.65	1843.17
281.86	1894.37
282.08	1974.24
282.29	2123.74
282.51	1937.38
282.73	1816.55
282.94	1861.60
283.16	2029.54
283.37	2129.89
283.59	1871.84
283.80	1976.29
284.02	1998.82
284.23	1949.67
284.45	1976.29
284.66	1841.12
284.88	1945.57
285.09	1957.86
285.31	1968.10
285.52	2029.54
285.74	1810.40
285.95	2031.58
286.17	1996.77
286.38	1998.82
286.60	1902.56
286.81	1884.13
287.03	1904.61
287.24	1925.09
287.46	1994.72
287.67	1959.91
287.89	2045.92
288.10	1914.85
288.32	1961.95
288.53	2072.54
288.75	1986.53
288.96	1939.43
289.18	1920.99
289.39	1918.95
289.61	1968.10
289.82	2107.36
290.04	2123.74
290.25	1892.32
290.47	1968.10
290.68	1955.81
290.90	1976.29
291.11	1824.74
291.33	2066.40
291.54	1894.37
291.76	1910.75
291.97	1908.71
292.18	1935.33
292.40	1994.72
292.61	1955.81
292.83	2068.45
293.04	1918.95
293.26	1978.34
293.47	1980.39
293.69	1908.71
293.90	1990.63
294.12	2064.35
294.33	1994.72
294.55	2047.97
294.76	1996.77
294.97	2084.83
295.19	2148.32
295.40	2000.87
295.62	1931.23
295.83	2070.50
296.05	1927.14
296.26	2103.26
296.48	2031.58
296.69	1982.43
296.90	2002.91
297.12	2050.02
297.33	2045.92
297.55	1951.71
297.76	1953.76
297.98	2041.82
298.19	1951.71
298.41	1939.43
298.62	1986.53
298.83	2031.58
299.05	1923.04
299.26	1914.85
299.48	1894.37
299.69	1951.71
299.90	1943.52
300.12	1914.85
300.33	2011.11
300.55	2004.96
300.76	1994.72
300.98	1871.84
301.19	2002.91
301.40	1961.95
301.62	2029.54
301.83	2054.11
302.05	2045.92
302.26	1994.72
302.47	1943.52
302.69	1859.56
302.90	1937.38
303.12	1816.55
303.33	2002.91
303.54	2113.50
303.76	1914.85
303.97	2054.11
304.19	2068.45
304.40	1841.12
304.61	1984.48
304.83	2152.42
305.04	1947.62
305.26	1951.71
305.47	1914.85
305.68	1966.05
305.90	1816.55
306.11	2047.97
306.33	2029.54
306.54	1902.56
306.75	1865.70
306.97	1812.45
307.18	1873.89
307.39	1861.60
307.61	1961.95
307.82	1939.43
308.04	1961.95
308.25	1931.23
308.46	1953.76
308.68	1986.53
308.89	1916.90
309.10	2050.02
309.32	2007.01
309.53	1898.47
309.74	1931.23
309.96	1884.13
310.17	1984.48
310.39	1939.43
310.60	1964.00
310.81	1990.63
311.03	1857.51
311.24	2052.06
311.45	1880.04
311.67	2064.35
311.88	2009.06
312.09	1964.00
312.31	1929.19
312.52	1888.23
312.73	1959.91
312.95	1875.94
313.16	1834.98
313.37	2011.11
313.59	1994.72
313.80	2017.25
314.01	2109.41
314.23	1966.05
314.44	1912.80
314.65	1884.13
314.87	1853.41
315.08	1873.89
315.29	1871.84
315.51	1839.08
315.72	1841.12
315.93	2062.30
316.15	2021.35
316.36	1873.89
316.57	1898.47
316.79	1964.00
317.00	1947.62
317.21	2011.11
317.43	1978.34
317.64	1892.32
317.85	1935.33
318.07	1925.09
318.28	2017.25
318.49	2082.78
318.70	2306.01
318.92	2160.61
319.13	2105.31
319.34	2170.85
319.56	2105.31
319.77	2080.74
319.98	2097.12
320.20	2095.07
320.41	2103.26
320.62	2043.87
320.83	1865.70
321.05	2191.33
321.26	1916.90
321.47	1908.71
321.69	2015.20
321.90	1943.52
322.11	1824.74
322.32	1923.04
322.54	2086.88
322.75	1890.28
322.96	2207.71
323.18	1904.61
323.39	1794.02
323.60	1912.80
323.81	2015.20
324.03	1853.41
324.24	1910.75
324.45	1964.00
324.66	1845.22
324.88	2099.17
325.09	2056.16
325.30	1920.99
325.52	1916.90
325.73	1984.48
325.94	1945.57
326.15	1906.66
326.37	1986.53
326.58	2015.20
326.79	2117.60
327.00	1882.08
327.22	2021.35
327.43	1888.23
327.64	1886.18
327.85	1970.15
328.07	2023.39
328.28	2115.55
328.49	1968.10
328.70	1964.00
328.92	1902.56
329.13	1898.47
329.34	1957.86
329.55	2101.22
329.76	2095.07
329.98	1957.86
330.19	2027.49
330.40	1998.82
330.61	1968.10
330.83	1988.58
331.04	1959.91
331.25	1982.43
331.46	1925.09
331.68	1877.99
331.89	2088.93
332.10	1953.76
332.31	1841.12
332.52	1945.57
332.74	2027.49
332.95	1880.04
333.16	1918.95
333.37	1929.19
333.58	1875.94
333.80	2021.35
334.01	1839.08
334.22	1955.81
334.43	1906.66
334.64	1857.51
334.86	1755.11
335.07	1966.05
335.28	2066.40
335.49	1841.12
335.70	2021.35
335.92	2021.35
336.13	2101.22
336.34	1933.28
336.55	1939.43
336.76	1978.34
336.98	1845.22
337.19	2031.58
337.40	2095.07
337.61	2121.70
337.82	1892.32
338.04	1988.58
338.25	1810.40
338.46	1920.99
338.67	1953.76
338.88	1912.80
339.09	1923.04
339.31	1880.04
339.52	1888.23
339.73	1896.42
339.94	2062.30
340.15	1998.82
340.36	1970.15
340.58	2029.54
340.79	1943.52
341.00	2050.02
341.21	1943.52
341.42	2119.65
341.63	1918.95
341.85	2047.97
342.06	1959.91
342.27	1845.22
342.48	2062.30
342.69	1867.75
342.90	1988.58
343.12	2002.91
343.33	1986.53
343.54	2058.21
343.75	2068.45
343.96	1886.18
344.17	1845.22
344.38	1927.14
344.60	1847.27
344.81	1857.51
345.02	1935.33
345.23	1953.76
345.44	2187.23
345.65	2023.39
345.86	2002.91
346.07	1998.82
346.29	1890.28
346.50	2011.11
346.71	2062.30
346.92	2086.88
347.13	2050.02
347.34	1933.28
347.55	1957.86
347.76	2021.35
347.98	1855.46
348.19	1931.23
348.40	2056.16
348.61	1957.86
348.82	2023.39
349.03	1980.39
349.24	1894.37
349.45	2017.25
349.66	1730.53
349.88	1906.66
350.09	1959.91
350.30	2103.26
350.51	2117.60
350.72	1964.00
350.93	2013.15
351.14	1892.32
351.35	2017.25
351.56	1910.75
351.77	1896.42
351.99	1966.05
352.20	1994.72
352.41	2009.06
352.62	1812.45
352.83	1861.60
353.04	1943.52
353.25	1904.61
353.46	2056.16
353.67	2015.20
353.88	1771.49
354.09	1943.52
354.30	2019.30
354.52	1945.57
354.73	1888.23
354.94	1920.99
355.15	1943.52
355.36	2113.50
355.57	1976.29
355.78	1955.81
355.99	1910.75
356.20	1931.23
356.41	2066.40
356.62	2031.58
356.83	2041.82
357.04	1964.00
357.25	1841.12
357.46	1982.43
357.68	1822.69
357.89	1853.41
358.10	2090.98
358.31	1937.38
358.52	1906.66
358.73	1863.65
358.94	1859.56
359.15	1945.57
359.36	1929.19
359.57	1939.43
359.78	1941.47
359.99	2019.30
360.20	1886.18
360.41	1959.91
360.62	2015.20
360.83	1984.48
361.04	2015.20
361.25	1974.24
361.46	2172.89
361.67	2033.63
361.88	2054.11
362.09	2086.88
362.30	1974.24
362.51	1955.81
362.72	1974.24
362.93	2025.44
363.14	2066.40
363.35	1937.38
363.56	1943.52
363.78	2086.88
363.99	2011.11
364.20	1929.19
364.41	2064.35
364.62	2123.74
364.83	2052.06
365.04	1943.52
365.25	1945.57
365.46	2154.46
365.67	1820.64
365.88	1947.62
366.09	1929.19
366.30	1918.95
366.51	2080.74
366.72	1857.51
366.93	1964.00
367.14	1906.66
367.35	2072.54
367.56	1945.57
367.77	2041.82
367.98	1953.76
368.18	1988.58
368.39	2021.35
368.60	1904.61
368.81	1953.76
369.02	2000.87
369.23	1894.37
369.44	1783.78
369.65	1894.37
369.86	2054.11
370.07	2002.91
370.28	1933.28
370.49	1943.52
370.70	2017.25
370.91	1877.99
371.12	1849.32
371.33	2031.58
371.54	1925.09
371.75	2101.22
371.96	1830.88
372.17	1935.33
372.38	1857.51
372.59	2013.15
372.80	1861.60
373.01	1992.67
373.22	2021.35
373.43	1943.52
373.64	1894.37
373.85	2062.30
374.06	2052.06
374.26	2052.06
374.47	2068.45
374.68	2101.22
374.89	1939.43
375.10	1980.39
375.31	2019.30
375.52	1982.43
375.73	1968.10
375.94	1900.52
376.15	2088.93
376.36	1945.57
376.57	1898.47
376.78	1931.23
376.99	1929.19
377.20	1988.58
377.40	1877.99
377.61	2029.54
377.82	1804.26
378.03	2068.45
378.24	1970.15
378.45	1992.67
378.66	1998.82
378.87	1824.74
379.08	1871.84
379.29	1968.10
379.50	2023.39
379.71	1953.76
379.91	1990.63
380.12	1933.28
380.33	1984.48
380.54	1923.04
380.75	1957.86
380.96	1933.28
381.17	2074.59
381.38	1933.28
381.59	1990.63
381.80	1941.47
382.00	2168.80
382.21	2062.30
382.42	2097.12
382.63	2187.23
382.84	1982.43
383.05	1970.15
383.26	2117.60
383.47	1927.14
383.68	2017.25
383.88	2029.54
384.09	2107.36
384.30	2080.74
384.51	2058.21
384.72	1888.23
384.93	1861.60
385.14	1980.39
385.35	2033.63
385.55	1867.75
385.76	2017.25
385.97	1951.71
386.18	1884.13
386.39	1871.84
386.60	1972.19
386.81	1920.99
387.02	1853.41
387.22	1959.91
387.43	2019.30
387.64	2019.30
387.85	2162.66
388.06	2256.86
388.27	3981.25
388.48	8601.47
388.68	11878.22
388.89	14489.38
389.10	15394.58
389.31	14083.88
389.52	11065.18
389.73	9748.33
389.93	8449.92
390.14	7792.52
390.35	7083.92
390.56	6473.63
390.77	5435.31
390.98	4165.57
391.18	3172.30
391.39	2559.96
391.60	2170.85
391.81	2162.66
392.02	1929.19
392.23	2166.75
392.43	1968.10
392.64	2117.60
392.85	1970.15
393.06	2068.45
393.27	2056.16
393.47	1910.75
393.68	1978.34
393.89	1959.91
394.10	2035.68
394.31	2000.87
394.52	1914.85
394.72	1865.70
394.93	2154.46
395.14	1824.74
395.35	1964.00
395.56	1916.90
395.76	1986.53
395.97	2090.98
396.18	2158.56
396.39	2095.07
396.60	2359.26
396.80	2203.61
397.01	2195.42
397.22	2093.02
397.43	2162.66
397.64	1990.63
397.84	2019.30
398.05	2211.81
398.26	1998.82
398.47	2086.88
398.67	2109.41
398.88	1923.04
399.09	2000.87
399.30	2031.58
399.51	2039.78
399.71	1918.95
399.92	1996.77
400.13	1986.53
400.34	1976.29
400.54	1914.85
400.75	2105.31
400.96	1980.39
401.17	2088.93
401.37	2004.96
401.58	1992.67
401.79	1992.67
402.00	2082.78
402.21	2248.67
402.41	2297.82
402.62	2357.21
402.83	2447.32
403.04	2402.27
403.24	2475.99
403.45	2207.71
403.66	2234.33
403.87	2111.46
404.07	2209.76
404.28	2228.19
404.49	2140.13
404.70	2056.16
404.90	2117.60
405.11	1978.34
405.32	2009.06
405.52	1925.09
405.73	1957.86
405.94	1920.99
406.15	1986.53
406.35	2025.44
406.56	1996.77
406.77	2002.91
406.98	1902.56
407.18	1918.95
407.39	2021.35
407.60	1941.47
407.80	1877.99
408.01	1890.28
408.22	2031.58
408.43	1914.85
408.63	1906.66
408.84	1957.86
409.05	2039.78
409.25	1861.60
409.46	1912.80
409.67	1988.58
409.88	1945.57
410.08	1976.29
410.29	1890.28
410.50	2015.20
410.70	2007.01
410.91	1857.51
411.12	1980.39
411.32	1890.28
411.53	1923.04
411.74	2209.76
411.95	2070.50
412.15	2062.30
412.36	2144.22
412.57	2062.30
412.77	2095.07
412.98	2082.78
413.19	1933.28
413.39	2084.83
413.60	1988.58
413.81	2142.18
414.01	1988.58
414.22	2043.87
414.43	1982.43
414.63	1920.99
414.84	2082.78
415.05	2002.91
415.25	1871.84
415.46	2033.63
415.67	1945.57
415.87	1998.82
416.08	1947.62
416.29	1980.39
416.49	2019.30
416.70	1918.95
416.91	1957.86
417.11	2027.49
417.32	2025.44
417.53	2062.30
417.73	1955.81
417.94	1857.51
418.15	2009.06
418.35	1939.43
418.56	1925.09
418.77	2136.03
418.97	1935.33
419.18	1873.89
419.38	1845.22
419.59	1943.52
419.80	2062.30
420.00	1888.23
420.21	1970.15
420.42	2037.73
420.62	2000.87
420.83	1914.85
421.04	1916.90
421.24	1912.80
421.45	1968.10
421.65	2007.01
421.86	1939.43
422.07	2015.20
422.27	2004.96
422.48	1966.05
422.69	1875.94
422.89	1925.09
423.10	1861.60
423.30	1859.56
423.51	2035.68
423.72	1990.63
423.92	2060.26
424.13	1920.99
424.33	2009.06
424.54	1964.00
424.75	2019.30
424.95	2097.12
425.16	2041.82
425.36	1898.47
425.57	2025.44
425.78	2076.64
425.98	2107.36
426.19	1918.95
426.39	1894.37
426.60	1910.75
426.81	2062.30
427.01	1939.43
427.22	1892.32
427.42	1869.80
427.63	1925.09
427.83	1955.81
428.04	2099.17
428.25	2052.06
428.45	2072.54
428.66	1964.00
428.86	2002.91
429.07	1933.28
429.28	2007.01
429.48	1976.29
429.69	1908.71
429.89	1959.91
430.10	1875.94
430.30	2037.73
430.51	2039.78
430.71	1923.04
430.92	1949.67
431.13	1937.38
431.33	2037.73
431.54	1914.85
431.74	2041.82
431.95	2070.50
432.15	1896.42
432.36	1951.71
432.56	2068.45
432.77	2072.54
432.98	2074.59
433.18	1941.47
433.39	1986.53
433.59	1980.39
433.80	2115.55
434.00	2093.02
434.21	1916.90
434.41	1964.00
434.62	2142.18
434.82	1867.75
435.03	1904.61
435.23	1990.63
435.44	1830.88
435.64	1957.86
435.85	2004.96
436.06	2047.97
436.26	1918.95
436.47	1923.04
436.67	1953.76
436.88	2011.11
437.08	2144.22
437.29	2117.60
437.49	1949.67
437.70	2111.46
437.90	1894.37
438.11	2144.22
438.31	2060.26
438.52	2195.42
438.72	2158.56
438.93	2185.18
439.13	2082.78
439.34	2084.83
439.54	2054.11
439.75	2088.93
439.95	2027.49
440.16	1898.47
440.36	2029.54
440.57	2031.58
440.77	1986.53
440.98	2027.49
441.18	2013.15
441.39	1929.19
441.59	1865.70
441.80	2205.66
442.00	1970.15
442.21	2025.44
442.41	1869.80
442.62	1945.57
442.82	1927.14
443.02	1998.82
443.23	1951.71
443.43	1992.67
443.64	2054.11
443.84	1906.66
444.05	2103.26
444.25	1974.24
444.46	2000.87
444.66	2002.91
444.87	2070.50
445.07	1859.56
445.28	1980.39
445.48	2064.35
445.69	2150.37
445.89	2162.66
446.09	2025.44
446.30	2248.67
446.50	2660.31
446.71	4286.40
446.91	5408.69
447.12	6270.88
447.32	6502.30
447.53	5939.11
447.73	4765.62
447.93	4265.92
448.14	3985.35
448.34	3856.33
448.55	3383.24
448.75	3309.52
448.96	3250.13
449.16	2863.06
449.36	2680.79
449.57	2404.32
449.77	2133.98
449.98	1984.48
450.18	2004.96
450.39	2113.50
450.59	1996.77
450.79	1920.99
451.00	1972.19
451.20	2035.68
451.41	1933.28
451.61	1943.52
451.81	1992.67
452.02	1978.34
452.22	1886.18
452.43	1900.52
452.63	1935.33
452.84	1990.63
453.04	1951.71
453.24	2011.11
453.45	1931.23
453.65	2025.44
453.86	2045.92
454.06	2002.91
454.26	1933.28
454.47	1927.14
454.67	2070.50
454.87	1947.62
455.08	1964.00
455.28	2029.54
455.49	1990.63
455.69	1908.71
455.89	2148.32
456.10	2052.06
456.30	2050.02
456.51	2009.06
456.71	2052.06
456.91	2068.45
457.12	1996.77
457.32	2039.78
457.52	1929.19
457.73	2062.30
457.93	2066.40
458.14	1886.18
458.34	1916.90
458.54	1916.90
458.75	2031.58
458.95	2064.35
459.15	1978.34
459.36	2050.02
459.56	2037.73
459.76	2140.13
459.97	2013.15
460.17	1982.43
460.37	2045.92
460.58	1994.72
460.78	2082.78
460.99	1894.37
461.19	1910.75
461.39	1900.52
461.60	1990.63
461.80	2029.54
462.00	1961.95
462.21	1929.19
462.41	1980.39
462.61	1904.61
462.82	1861.60
463.02	2068.45
463.22	2009.06
463.43	2103.26
463.63	1941.47
463.83	2074.59
464.04	2009.06
464.24	1912.80
464.44	1834.98
464.64	1941.47
464.85	2033.63
465.05	2009.06
465.25	2009.06
465.46	1955.81
465.66	2000.87
465.86	2011.11
466.07	1955.81
466.27	2009.06
466.47	1810.40
466.68	1861.60
466.88	2107.36
467.08	2013.15
467.29	2004.96
467.49	1949.67
467.69	2011.11
467.89	1955.81
468.10	1935.33
468.30	2058.21
468.50	2015.20
468.71	2041.82
468.91	1947.62
469.11	2176.99
469.31	2062.30
469.52	1916.90
469.72	2080.74
469.92	2136.03
470.13	1918.95
470.33	2021.35
470.53	2021.35
470.73	2432.99
470.94	2793.43
471.14	3071.95
471.34	3413.96
471.54	3258.32
471.75	2906.07
471.95	2750.42
472.15	2484.19
472.36	2590.68
472.56	2490.33
472.76	2465.75
472.96	2488.28
473.17	2242.53
473.37	2289.63
473.57	2109.41
473.77	2168.80
473.98	2080.74
474.18	1832.93
474.38	2232.29
474.58	1976.29
474.79	1976.29
474.99	2064.35
475.19	1980.39
475.39	1943.52
475.60	1984.48
475.80	1920.99
476.00	1947.62
476.20	1980.39
476.41	1945.57
476.61	2086.88
476.81	2078.69
477.01	1894.37
477.21	2140.13
477.42	2101.22
477.62	1920.99
477.82	2090.98
478.02	1890.28
478.23	1988.58
478.43	1892.32
478.63	2015.20
478.83	1961.95
479.03	2017.25
479.24	2031.58
479.44	2093.02
479.64	1925.09
479.84	1918.95
480.04	2027.49
480.25	1998.82
480.45	1865.70
480.65	1984.48
480.85	2101.22
481.06	1951.71
481.26	2009.06
481.46	2033.63
481.66	2045.92
481.86	1882.08
482.06	2062.30
482.27	1976.29
482.47	1990.63
482.67	2002.91
482.87	1908.71
483.07	2117.60
483.28	1894.37
483.48	1945.57
483.68	1916.90
483.88	1964.00
484.08	1906.66
484.29	1847.27
484.49	1961.95
484.69	1871.84
484.89	2058.21
485.09	2058.21
485.29	2002.91
485.50	1904.61
485.70	2007.01
485.90	2082.78
486.10	1972.19
486.30	1980.39
486.50	1984.48
486.71	2062.30
486.91	2025.44
487.11	2082.78
487.31	1859.56
487.51	2004.96
487.71	1949.67
487.91	1857.51
488.12	1929.19
488.32	1810.40
488.52	1945.57
488.72	1882.08
488.92	2031.58
489.12	2068.45
489.32	2097.12
489.53	2043.87
489.73	1875.94
489.93	2054.11
490.13	1927.14
490.33	1943.52
490.53	2007.01
490.73	2021.35
490.94	1896.42
491.14	2041.82
491.34	2172.89
491.54	2263.01
491.74	3006.42
491.94	3542.99
492.14	3739.59
492.34	3880.90
492.54	3579.85
492.75	2981.84
492.95	2928.60
493.15	2680.79
493.35	2662.36
493.55	2631.64
493.75	2453.47
493.95	2447.32
494.15	2273.25
494.35	2230.24
494.56	2121.70
494.76	2009.06
494.96	2007.01
495.16	2021.35
495.36	2027.49
495.56	2009.06
495.76	1970.15
495.96	1939.43
496.16	1894.37
496.36	2172.89
496.56	1990.63
496.77	2072.54
496.97	2041.82
497.17	2101.22
497.37	1867.75
497.57	2068.45
497.77	1935.33
497.97	1904.61
498.17	2013.15
498.37	1912.80
498.57	2037.73
498.77	1972.19
498.97	2031.58
499.17	2185.18
499.38	1986.53
499.58	2002.91
499.78	1976.29
499.98	2103.26
500.18	1986.53
500.38	1910.75
500.58	2080.74
500.78	2588.63
500.98	4741.05
501.18	6952.85
501.38	8761.21
501.58	9707.37
501.78	9586.54
501.98	7643.02
502.18	6295.46
502.38	5324.72
502.58	4999.09
502.78	4368.32
502.98	4364.22
503.18	4005.83
503.38	3780.55
503.59	3237.84
503.79	3082.19
503.99	2797.53
504.19	2613.21
504.39	2672.60
504.59	2637.78
504.79	2586.58
504.99	2574.30
505.19	2461.66
505.39	2303.96
505.59	2351.07
505.79	2242.53
505.99	2181.09
506.19	2101.22
506.39	2258.91
506.59	2017.25
506.79	2084.83
506.99	2121.70
507.19	1980.39
507.39	1996.77
507.59	1927.14
507.79	1974.24
507.99	1912.80
508.19	2023.39
508.39	1939.43
508.59	2002.91
508.79	2105.31
508.99	2146.27
509.19	1976.29
509.39	1988.58
509.59	1845.22
509.79	1951.71
509.99	1925.09
510.19	2041.82
510.39	2068.45
510.59	1916.90
510.79	1925.09
510.99	1920.99
511.19	1972.19
511.39	2086.88
511.59	2078.69
511.79	2103.26
511.99	1998.82
512.19	2107.36
512.38	1953.76
512.58	1943.52
512.78	1933.28
512.98	2064.35
513.18	2021.35
513.38	1839.08
513.58	2084.83
513.78	1951.71
513.98	1994.72
514.18	1931.23
514.38	1947.62
514.58	1992.67
514.78	1970.15
514.98	1865.70
515.18	1966.05
515.38	1886.18
515.58	2162.66
515.78	1990.63
515.98	2004.96
516.18	2027.49
516.38	1951.71
516.57	1914.85
516.77	1966.05
516.97	1974.24
517.17	1896.42
517.37	1900.52
517.57	2031.58
517.77	1943.52
517.97	1914.85
518.17	2066.40
518.37	1890.28
518.57	1908.71
518.77	1990.63
518.97	1998.82
519.16	2058.21
519.36	2140.13
519.56	1945.57
519.76	1986.53
519.96	1968.10
520.16	2082.78
520.36	1996.77
520.56	2037.73
520.76	1957.86
520.96	1990.63
521.16	2068.45
521.35	1968.10
521.55	2119.65
521.75	1957.86
521.95	1945.57
522.15	1935.33
522.35	1855.46
522.55	1877.99
522.75	2019.30
522.95	1929.19
523.14	1949.67
523.34	1994.72
523.54	1927.14
523.74	1986.53
523.94	2070.50
524.14	1882.08
524.34	1949.67
524.54	2090.98
524.73	2017.25
524.93	1988.58
525.13	1951.71
525.33	1908.71
525.53	2166.75
525.73	2017.25
525.93	2007.01
526.13	1935.33
526.32	2007.01
526.52	2072.54
526.72	2090.98
526.92	1978.34
527.12	1933.28
527.32	1900.52
527.52	1988.58
527.71	2105.31
527.91	1894.37
528.11	1927.14
528.31	1998.82
528.51	1935.33
528.71	2041.82
528.90	2002.91
529.10	2084.83
529.30	2101.22
529.50	1832.93
529.70	2004.96
529.90	1980.39
530.09	2023.39
530.29	1902.56
530.49	1966.05
530.69	2129.89
530.89	2031.58
531.09	1990.63
531.28	1923.04
531.48	2105.31
531.68	1964.00
531.88	2101.22
532.08	2043.87
532.28	1927.14
532.47	2060.26
532.67	2056.16
532.87	2082.78
533.07	1947.62
533.27	2021.35
533.46	2041.82
533.66	2050.02
533.86	2074.59
534.06	2013.15
534.26	2025.44
534.45	1951.71
534.65	2054.11
534.85	2039.78
535.05	1951.71
535.25	2039.78
535.44	1814.50
535.64	2035.68
535.84	1900.52
536.04	1984.48
536.24	2009.06
536.43	1953.76
536.63	2103.26
536.83	1920.99
537.03	2017.25
537.22	1920.99
537.42	1818.60
537.62	2009.06
537.82	1957.86
538.02	2066.40
538.21	2109.41
538.41	2191.33
538.61	2076.64
538.81	1972.19
539.00	2103.26
539.20	1849.32
539.40	1974.24
539.60	1988.58
539.79	1951.71
539.99	1939.43
540.19	1978.34
540.39	1978.34
540.58	1980.39
540.78	2119.65
540.98	1978.34
541.18	2072.54
541.37	1998.82
541.57	1945.57
541.77	2039.78
541.97	1925.09
542.16	1857.51
542.36	1916.90
542.56	1925.09
542.76	2138.08
542.95	2029.54
543.15	2047.97
543.35	2066.40
543.54	1966.05
543.74	1970.15
543.94	2062.30
544.14	1988.58
544.33	1996.77
544.53	1900.52
544.73	1908.71
544.93	1900.52
545.12	1951.71
545.32	1968.10
545.52	1970.15
545.71	1927.14
545.91	1892.32
546.11	1908.71
546.30	1898.47
546.50	2004.96
546.70	2031.58
546.90	2027.49
547.09	1851.36
547.29	1949.67
547.49	2039.78
547.68	1968.10
547.88	1943.52
548.08	1984.48
548.27	2498.52
548.47	1920.99
548.67	1953.76
548.87	2052.06
549.06	1927.14
549.26	2013.15
549.46	1974.24
549.65	1927.14
549.85	2086.88
550.05	2047.97
550.24	1888.23
550.44	1884.13
550.64	1894.37
550.83	2025.44
551.03	2084.83
551.23	2058.21
551.42	1980.39
551.62	1982.43
551.82	2004.96
552.01	1898.47
552.21	2027.49
552.41	1961.95
552.60	2066.40
552.80	1980.39
553.00	1939.43
553.19	2068.45
553.39	2103.26
553.59	1918.95
553.78	1998.82
553.98	2000.87
554.17	1943.52
554.37	1998.82
554.57	2025.44
554.76	1880.04
554.96	1953.76
555.16	1961.95
555.35	2033.63
555.55	2011.11
555.75	1988.58
555.94	2039.78
556.14	1927.14
556.33	2058.21
556.53	2009.06
556.73	1959.91
556.92	1949.67
557.12	2068.45
557.32	2148.32
557.51	2070.50
557.71	1988.58
557.90	2185.18
558.10	2060.26
558.30	1966.05
558.49	2013.15
558.69	1914.85
558.88	2002.91
559.08	1974.24
559.28	1943.52
559.47	1937.38
559.67	2078.69
559.86	2115.55
560.06	2029.54
560.26	1966.05
560.45	2000.87
560.65	1910.75
560.84	2131.94
561.04	2015.20
561.24	2011.11
561.43	2011.11
561.63	2162.66
561.82	1994.72
562.02	2068.45
562.22	1904.61
562.41	1894.37
562.61	1927.14
562.80	1929.19
563.00	2168.80
563.19	2039.78
563.39	1990.63
563.59	2086.88
563.78	1941.47
563.98	1867.75
564.17	1949.67
564.37	1865.70
564.56	2011.11
564.76	1941.47
564.96	2095.07
565.15	1970.15
565.35	2162.66
565.54	1968.10
565.74	2011.11
565.93	1964.00
566.13	1886.18
566.32	2027.49
566.52	2043.87
566.71	1949.67
566.91	2062.30
567.11	1955.81
567.30	1918.95
567.50	2023.39
567.69	2017.25
567.89	1988.58
568.08	1978.34
568.28	1990.63
568.47	1947.62
568.67	1964.00
568.86	1966.05
569.06	2064.35
569.25	1970.15
569.45	1894.37
569.64	1943.52
569.84	1980.39
570.04	2068.45
570.23	1925.09
570.43	1929.19
570.62	2019.30
570.82	2140.13
571.01	1855.46
571.21	1964.00
571.40	1923.04
571.60	2093.02
571.79	1992.67
571.99	2004.96
572.18	1929.19
572.38	1996.77
572.57	1933.28
572.77	1992.67
572.96	2199.52
573.16	2072.54
573.35	1957.86
573.55	2103.26
573.74	2033.63
573.94	1937.38
574.13	1916.90
574.33	2047.97
574.52	2066.40
574.71	2009.06
574.91	1978.34
575.10	1890.28
575.30	1984.48
575.49	2031.58
575.69	1980.39
575.88	2068.45
576.08	1984.48
576.27	2138.08
576.47	2035.68
576.66	2193.37
576.86	2138.08
577.05	1984.48
577.25	2080.74
577.44	2164.70
577.64	1945.57
577.83	2009.06
578.02	1992.67
578.22	2076.64
578.41	2129.89
578.61	2035.68
578.80	1929.19
579.00	1947.62
579.19	1972.19
579.39	2086.88
579.58	2136.03
579.77	1974.24
579.97	2154.46
580.16	2101.22
580.36	2047.97
580.55	2127.84
580.75	2021.35
580.94	2101.22
581.13	2101.22
581.33	2164.70
581.52	2054.11
581.72	2187.23
581.91	2086.88
582.11	2000.87
582.30	2084.83
582.49	2095.07
582.69	2119.65
582.88	2080.74
583.08	2025.44
583.27	2107.36
583.47	2019.30
583.66	1976.29
583.85	1927.14
584.05	2009.06
584.24	2023.39
584.44	2047.97
584.63	2138.08
584.82	2224.09
585.02	2181.09
585.21	2271.20
585.41	2193.37
585.60	2074.59
585.79	2281.44
585.99	2199.52
586.18	2215.90
586.37	2717.65
586.57	3749.83
586.76	11980.62
586.96	30369.33
587.15	44750.17
587.34	54420.67
587.54	59993.20
587.73	56241.32
587.93	39937.44
588.12	30058.04
588.31	23770.77
588.51	20590.28
588.70	18865.89
588.89	17293.05
589.09	15085.34
589.28	13133.62
589.47	10893.15
589.67	8744.83
589.86	6721.43
590.06	4892.60
590.25	3889.09
590.44	3041.23
590.64	2619.35
590.83	2369.50
591.02	2277.34
591.22	2136.03
591.41	2117.60
591.60	2125.79
591.80	2242.53
591.99	1996.77
592.18	2029.54
592.38	2111.46
592.57	1980.39
592.76	2033.63
592.96	2035.68
593.15	1998.82
593.34	2123.74
593.54	2021.35
593.73	2017.25
593.92	2080.74
594.12	2074.59
594.31	2033.63
594.50	2291.68
594.70	2111.46
594.89	2201.57
595.08	1890.28
595.28	2056.16
595.47	2158.56
595.66	2052.06
595.86	1980.39
596.05	2007.01
596.24	1984.48
596.43	2150.37
596.63	2125.79
596.82	2062.30
597.01	2088.93
597.21	2195.42
597.40	2035.68
597.59	2041.82
597.79	2047.97
597.98	2056.16
598.17	2060.26
598.36	1966.05
598.56	2056.16
598.75	1961.95
598.94	2185.18
599.14	2004.96
599.33	2029.54
599.52	2082.78
599.71	2019.30
599.91	1992.67
600.10	2004.96
600.29	2015.20
600.48	2082.78
600.68	2004.96
600.87	2015.20
601.06	1931.23
601.26	1937.38
601.45	2004.96
601.64	1931.23
601.83	2050.02
602.03	1925.09
602.22	1916.90
602.41	2121.70
602.60	2109.41
602.80	2105.31
602.99	1998.82
603.18	1941.47
603.37	1988.58
603.57	2007.01
603.76	2037.73
603.95	2027.49
604.14	1918.95
604.34	1970.15
604.53	2064.35
604.72	2037.73
604.91	2050.02
605.10	2076.64
605.30	1894.37
605.49	2152.42
605.68	2095.07
605.87	2043.87
606.07	1935.33
606.26	2050.02
606.45	2041.82
606.64	2072.54
606.84	1972.19
607.03	1992.67
607.22	2101.22
607.41	2007.01
607.60	1990.63
607.80	2097.12
607.99	1943.52
608.18	1974.24
608.37	1994.72
608.56	1929.19
608.76	2068.45
608.95	2244.57
609.14	2080.74
609.33	2138.08
609.52	2144.22
609.72	2078.69
609.91	2213.85
610.10	2068.45
610.29	2213.85
610.48	2045.92
610.68	2031.58
610.87	2004.96
611.06	2058.21
611.25	1939.43
611.44	2023.39
611.63	1949.67
611.83	2035.68
612.02	1939.43
612.21	2082.78
612.40	1890.28
612.59	1904.61
612.79	1951.71
612.98	1992.67
613.17	2131.94
613.36	2019.30
613.55	2170.85
613.74	2068.45
613.93	2152.42
614.13	2299.87
614.32	2281.44
614.51	2263.01
614.70	2156.51
614.89	2117.60
615.08	2176.99
615.28	2412.51
615.47	1966.05
615.66	2152.42
615.85	2031.58
616.04	2201.57
616.23	2041.82
616.42	2070.50
616.62	1988.58
616.81	2068.45
617.00	1982.43
617.19	2031.58
617.38	1923.04
617.57	2017.25
617.76	2054.11
617.95	2119.65
618.15	2023.39
618.34	2170.85
618.53	1966.05
618.72	2084.83
618.91	2136.03
619.10	2129.89
619.29	1925.09
619.48	1974.24
619.68	1925.09
619.87	1953.76
620.06	1845.22
620.25	2117.60
620.44	1918.95
620.63	1986.53
620.82	2007.01
621.01	2035.68
621.20	2056.16
621.39	1974.24
621.59	1986.53
621.78	1974.24
621.97	2033.63
622.16	1957.86
622.35	2097.12
622.54	2068.45
622.73	2129.89
622.92	1865.70
623.11	2062.30
623.30	2007.01
623.49	2064.35
623.68	1898.47
623.88	2052.06
624.07	1974.24
624.26	1984.48
624.45	2041.82
624.64	1968.10
624.83	1933.28
625.02	1902.56
625.21	1961.95
625.40	1947.62
625.59	2088.93
625.78	1957.86
625.97	1998.82
626.16	2193.37
626.35	2113.50
626.54	2050.02
626.74	2183.13
626.93	2062.30
627.12	2031.58
627.31	2113.50
627.50	2074.59
627.69	2015.20
627.88	1925.09
628.07	1970.15
628.26	1855.46
628.45	1998.82
628.64	1894.37
628.83	1984.48
629.02	1927.14
629.21	1968.10
629.40	1998.82
629.59	2017.25
629.78	1970.15
629.97	1974.24
630.16	2045.92
630.35	2004.96
630.54	1976.29
630.73	1968.10
630.92	1996.77
631.11	1925.09
631.30	2004.96
631.49	2090.98
631.68	2029.54
631.87	2056.16
632.06	1896.42
632.25	2224.09
632.44	2129.89
632.63	2037.73
632.82	2019.30
633.01	2054.11
633.20	2029.54
633.39	2074.59
633.58	1941.47
633.77	2080.74
633.96	2043.87
634.15	2107.36
634.34	2068.45
634.53	1943.52
634.72	1923.04
634.91	1925.09
635.10	2007.01
635.29	2007.01
635.48	2080.74
635.67	1972.19
635.86	1906.66
636.05	2097.12
636.24	1945.57
636.43	1996.77
636.62	1976.29
636.81	1824.74
637.00	1986.53
637.19	2050.02
637.38	2017.25
637.57	1951.71
637.76	2090.98
637.95	2224.09
638.14	2015.20
638.33	2072.54
638.52	2101.22
638.71	2015.20
638.89	1959.91
639.08	2238.43
639.27	2117.60
639.46	2162.66
639.65	2590.68
639.84	2648.02
640.03	2762.71
640.22	2699.22
640.41	2703.32
640.60	2324.44
640.79	2265.05
640.98	2273.25
641.17	2220.00
641.36	2193.37
641.55	2172.89
641.74	2031.58
641.92	1998.82
642.11	1982.43
642.30	2007.01
642.49	1986.53
642.68	2039.78
642.87	2088.93
643.06	2013.15
643.25	1976.29
643.44	1849.32
643.63	2015.20
643.82	2054.11
644.00	1867.75
644.19	2009.06
644.38	1873.89
644.57	2029.54
644.76	1990.63
644.95	1910.75
645.14	2027.49
645.33	1941.47
645.52	1923.04
645.71	1908.71
645.89	1902.56
646.08	1982.43
646.27	1927.14
646.46	2060.26
646.65	1875.94
646.84	1986.53
647.03	1904.61
647.22	2125.79
647.40	1974.24
647.59	1961.95
647.78	1865.70
647.97	1984.48
648.16	1869.80
648.35	2062.30
648.54	2107.36
648.73	1908.71
648.91	2076.64
649.10	2009.06
649.29	1902.56
649.48	1966.05
649.67	1976.29
649.86	2041.82
650.05	2045.92
650.23	2144.22
650.42	2039.78
650.61	2195.42
650.80	2230.24
650.99	2234.33
651.18	2138.08
651.36	2138.08
651.55	2090.98
651.74	2070.50
651.93	2002.91
652.12	1998.82
652.31	2082.78
652.49	1974.24
652.68	1949.67
652.87	2101.22
653.06	1990.63
653.25	2095.07
653.44	2002.91
653.62	2082.78
653.81	1964.00
654.00	2017.25
654.19	2027.49
654.38	2162.66
654.56	1994.72
654.75	1964.00
654.94	2045.92
655.13	2039.78
655.32	1949.67
655.51	2039.78
655.69	1929.19
655.88	2033.63
656.07	1828.84
656.26	1990.63
656.45	1871.84
656.63	2050.02
656.82	1982.43
657.01	2043.87
657.20	1980.39
657.38	2086.88
657.57	1894.37
657.76	1826.79
657.95	1978.34
658.14	1880.04
658.32	2035.68
658.51	1966.05
658.70	2050.02
658.89	2004.96
659.08	1951.71
659.26	2123.74
659.45	1964.00
659.64	2148.32
659.83	1990.63
660.01	2332.64
660.20	2025.44
660.39	2185.18
660.58	1914.85
660.76	2041.82
660.95	1826.79
661.14	1998.82
661.33	1892.32
661.51	1957.86
661.70	1968.10
661.89	1935.33
662.08	1978.34
662.26	1857.51
662.45	1904.61
662.64	2127.84
662.83	2041.82
663.01	1884.13
663.20	1953.76
663.39	2107.36
663.58	1988.58
663.76	1923.04
663.95	2039.78
664.14	1873.89
664.32	1953.76
664.51	1929.19
664.70	1832.93
664.89	1945.57
665.07	1886.18
665.26	1970.15
665.45	1869.80
665.64	2066.40
665.82	1970.15
666.01	2123.74
666.20	1951.71
666.38	2088.93
666.57	2084.83
666.76	2719.70
666.95	6705.05
667.13	14950.17
667.32	21167.80
667.51	24635.02
667.69	27113.06
667.88	26031.73
668.07	18753.25
668.25	14413.60
668.44	11736.91
668.63	9942.89
668.81	8982.39
669.00	7905.16
669.19	6954.90
669.38	6127.52
669.56	5296.05
669.75	4394.94
669.94	3700.68
670.12	3049.43
670.31	2746.33
670.50	2389.98
670.68	2359.26
670.87	2189.28
671.06	2052.06
671.24	2088.93
671.43	2119.65
671.62	2107.36
671.80	2000.87
671.99	2058.21
672.18	2084.83
672.36	2033.63
672.55	2004.96
672.74	2041.82
672.92	1980.39
673.11	1959.91
673.29	1910.75
673.48	2013.15
673.67	1937.38
673.85	2009.06
674.04	1966.05
674.23	1920.99
674.41	2056.16
674.60	1925.09
674.79	1910.75
674.97	1937.38
675.16	2000.87
675.34	2027.49
675.53	1933.28
675.72	2105.31
675.90	2107.36
676.09	1916.90
676.28	1982.43
676.46	1841.12
676.65	2011.11
676.83	1912.80
677.02	1947.62
677.21	2009.06
677.39	1974.24
677.58	1880.04
677.77	1857.51
677.95	1906.66
678.14	1884.13
678.32	2015.20
678.51	1990.63
678.70	2156.51
678.88	1935.33
679.07	2047.97
679.25	1937.38
679.44	1986.53
679.63	1873.89
679.81	2019.30
680.00	2045.92
680.18	1978.34
680.37	2052.06
680.55	2004.96
680.74	1869.80
680.93	1855.46
681.11	2004.96
681.30	1972.19
681.48	1970.15
681.67	1927.14
681.85	1953.76
682.04	1898.47
682.23	2064.35
682.41	2039.78
682.60	1955.81
682.78	1855.46
682.97	1863.65
683.15	1888.23
683.34	1982.43
683.53	2105.31
683.71	1906.66
683.90	2105.31
684.08	2027.49
684.27	2027.49
684.45	2025.44
684.64	2070.50
684.82	1996.77
685.01	2035.68
685.19	1871.84
685.38	2062.30
685.57	1978.34
685.75	1929.19
685.94	1980.39
686.12	1957.86
686.31	1953.76
686.49	2111.46
686.68	1857.51
686.86	2084.83
687.05	1888.23
687.23	2023.39
687.42	1927.14
687.60	1912.80
687.79	2033.63
687.97	2082.78
688.16	2047.97
688.34	2080.74
688.53	1859.56
688.71	2015.20
688.90	2107.36
689.08	1933.28
689.27	1824.74
689.45	2035.68
689.64	1982.43
689.82	1976.29
690.01	2050.02
690.19	1937.38
690.38	1935.33
690.56	2107.36
690.75	1931.23
690.93	2017.25
691.12	1853.41
691.30	1902.56
691.49	1937.38
691.67	1959.91
691.86	2076.64
692.04	1945.57
692.23	2060.26
692.41	2070.50
692.60	2293.72
692.78	2109.41
692.97	1935.33
693.15	2027.49
693.34	2121.70
693.52	2097.12
693.71	1978.34
693.89	1986.53
694.08	1867.75
694.26	2088.93
694.44	2007.01
694.63	1990.63
694.81	1974.24
695.00	1923.04
695.18	2058.21
695.37	2109.41
695.55	1949.67
695.74	1996.77
695.92	1869.80
696.10	2054.11
696.29	1839.08
696.47	1947.62
696.66	1931.23
696.84	1929.19
697.03	1882.08
697.21	2101.22
697.40	2838.48
697.58	2019.30
697.76	1906.66
697.95	1931.23
698.13	1886.18
698.32	1925.09
698.50	1955.81
698.68	2009.06
698.87	2029.54
699.05	2056.16
699.24	2027.49
699.42	1855.46
699.61	2021.35
699.79	1998.82
699.97	2029.54
700.16	1920.99
700.34	1865.70
700.53	1947.62
700.71	2086.88
700.89	2060.26
701.08	1978.34
701.26	2015.20
701.45	2428.89
701.63	1976.29
701.81	1980.39
702.00	1900.52
702.18	2033.63
702.37	1933.28
702.55	2111.46
702.73	2203.61
702.92	2252.77
703.10	2342.88
703.28	2252.77
703.47	2090.98
703.65	2105.31
703.84	2197.47
704.02	2027.49
704.20	2187.23
704.39	2035.68
704.57	1972.19
704.75	2131.94
704.94	2047.97
705.12	2097.12
705.30	2170.85
705.49	3647.43
705.67	9228.15
705.86	18464.49
706.04	23629.46
706.22	27285.09
706.41	29052.48
706.59	25919.09
706.77	18593.51
706.96	14538.53
707.14	12576.58
707.32	11138.90
707.51	9611.12
707.69	8236.93
707.87	6633.37
708.06	5326.77
708.24	4124.61
708.42	3340.24
708.61	2879.44
708.79	2349.02
708.97	2107.36
709.16	2156.51
709.34	2109.41
709.52	1968.10
709.71	2000.87
709.89	1972.19
710.07	1900.52
710.26	1959.91
710.44	2039.78
710.62	2113.50
710.80	1927.14
710.99	2078.69
711.17	2070.50
711.35	1943.52
711.54	1941.47
711.72	1974.24
711.90	2000.87
712.09	1980.39
712.27	1888.23
712.45	2009.06
712.63	1937.38
712.82	1996.77
713.00	1968.10
713.18	1986.53
713.37	2101.22
713.55	2027.49
713.73	1984.48
713.91	1982.43
714.10	1986.53
714.28	1925.09
714.46	1964.00
714.65	1988.58
714.83	1961.95
715.01	1957.86
715.19	2027.49
715.38	1888.23
715.56	2004.96
715.74	1900.52
715.92	1929.19
716.11	2109.41
716.29	1859.56
716.47	1951.71
716.65	1990.63
716.84	1834.98
717.02	2043.87
717.20	1884.13
717.38	1984.48
717.57	2002.91
717.75	1949.67
717.93	1951.71
718.11	1988.58
718.30	1957.86
718.48	1970.15
718.66	2023.39
718.84	2054.11
719.03	1916.90
719.21	1908.71
719.39	2062.30
719.57	1949.67
719.75	1972.19
719.94	1900.52
720.12	1904.61
720.30	1951.71
720.48	1955.81
720.67	1953.76
720.85	1888.23
721.03	1966.05
721.21	1880.04
721.39	1990.63
721.58	1957.86
721.76	1908.71
721.94	1982.43
722.12	1935.33
722.30	2097.12
722.49	1978.34
722.67	1894.37
722.85	1986.53
723.03	1910.75
723.21	1900.52
723.40	1996.77
723.58	2062.30
723.76	2037.73
723.94	2129.89
724.12	2133.98
724.30	2076.64
724.49	2142.18
724.67	1941.47
724.85	2068.45
725.03	1888.23
725.21	2074.59
725.40	2148.32
725.58	1927.14
725.76	2082.78
725.94	2002.91
726.12	1959.91
726.30	1994.72
726.49	1964.00
726.67	1904.61
726.85	1986.53
727.03	2154.46
727.21	3123.15
727.39	4829.11
727.57	6098.85
727.76	6891.41
727.94	7280.53
728.12	7153.55
728.30	5924.77
728.48	4726.71
728.66	4415.42
728.84	3921.86
729.03	3450.83
729.21	3063.76
729.39	2574.30
729.57	2310.11
729.75	2273.25
729.93	2121.70
730.11	2111.46
730.30	2011.11
730.48	1972.19
730.66	2185.18
730.84	2068.45
731.02	1992.67
731.20	1927.14
731.38	1949.67
731.56	1888.23
731.74	1890.28
731.93	1961.95
732.11	1998.82
732.29	1929.19
732.47	1984.48
732.65	1970.15
732.83	2140.13
733.01	1923.04
733.19	1880.04
733.37	1892.32
733.56	1941.47
733.74	1964.00
733.92	2050.02
734.10	1933.28
734.28	1998.82
734.46	1843.17
734.64	1957.86
734.82	1968.10
735.00	1929.19
735.18	1937.38
735.36	1947.62
735.54	2019.30
735.73	1990.63
735.91	1968.10
736.09	2047.97
736.27	1920.99
736.45	1974.24
736.63	1900.52
736.81	1904.61
736.99	1996.77
737.17	2097.12
737.35	1855.46
737.53	1933.28
737.71	1888.23
737.89	2021.35
738.07	1845.22
738.25	1896.42
738.43	1851.36
738.61	1978.34
738.80	1875.94
738.98	1900.52
739.16	1943.52
739.34	1880.04
739.52	2031.58
739.70	1945.57
739.88	2019.30
740.06	2129.89
740.24	1804.26
740.42	1949.67
740.60	1863.65
740.78	1865.70
740.96	1828.84
741.14	1951.71
741.32	1966.05
741.50	1816.55
741.68	2054.11
741.86	2097.12
742.04	1869.80
742.22	1914.85
742.40	1992.67
742.58	2023.39
742.76	1947.62
742.94	2064.35
743.12	1863.65
743.30	1943.52
743.48	2039.78
743.66	1959.91
743.84	1982.43
744.02	1914.85
744.20	1865.70
744.38	1908.71
744.56	1863.65
744.74	2084.83
744.92	1970.15
745.10	2084.83
745.28	2152.42
745.46	2062.30
745.64	1951.71
745.82	2007.01
746.00	1894.37
746.18	1970.15
746.36	1871.84
746.54	1986.53
746.72	2047.97
746.90	1904.61
747.08	2021.35
747.26	1912.80
747.44	1972.19
747.62	2029.54
747.80	1994.72
747.98	2050.02
748.15	1968.10
748.33	2099.17
748.51	1955.81
748.69	1984.48
748.87	1892.32
749.05	1994.72
749.23	1937.38
749.41	2029.54
749.59	1894.37
749.77	2025.44
749.95	1877.99
750.13	1945.57
750.31	1951.71
750.49	1968.10
750.67	2025.44
750.85	2099.17
751.03	1970.15
751.20	2095.07
751.38	2029.54
751.56	1894.37
751.74	1961.95
751.92	1994.72
752.10	1894.37
752.28	2078.69
752.46	1888.23
752.64	1943.52
752.82	1947.62
753.00	2064.35
753.18	1976.29
753.35	1931.23
753.53	1906.66
753.71	1916.90
753.89	2043.87
754.07	1941.47
754.25	2066.40
754.43	1968.10
754.61	1886.18
754.79	2013.15
754.97	1949.67
755.14	2045.92
755.32	1834.98
755.50	1978.34
755.68	1910.75
755.86	1912.80
756.04	1888.23
756.22	1888.23
756.40	2035.68
756.57	2041.82
756.75	1959.91
756.93	2021.35
757.11	2033.63
757.29	1808.36
757.47	1830.88
757.65	1839.08
757.82	1781.73
758.00	1861.60
758.18	1900.52
758.36	1869.80
758.54	2060.26
758.72	1796.07
758.90	2029.54
759.07	1920.99
759.25	1918.95
759.43	1980.39
759.61	1789.92
759.79	2701.27
759.97	2027.49
760.15	1875.94
760.32	1951.71
760.50	1931.23
760.68	2086.88
760.86	1839.08
761.04	2125.79
761.22	1982.43
761.39	1916.90
761.57	1990.63
761.75	1920.99
761.93	2070.50
762.11	1892.32
762.28	1923.04
762.46	1820.64
762.64	2056.16
762.82	1886.18
763.00	1961.95
763.18	2078.69
763.35	1837.03
763.53	2050.02
763.71	1957.86
763.89	2015.20
764.07	1951.71
764.24	1945.57
764.42	1990.63
764.60	1939.43
764.78	1988.58
764.96	1984.48
765.13	1992.67
765.31	1916.90
765.49	1947.62
765.67	1923.04
765.84	1875.94
766.02	1904.61
766.20	1845.22
766.38	1961.95
766.56	1964.00
766.73	2035.68
766.91	1939.43
767.09	1943.52
767.27	2015.20
767.44	1920.99
767.62	1937.38
767.80	2002.91
767.98	1933.28
768.15	1986.53
768.33	2031.58
768.51	2004.96
768.69	2013.15
768.87	1875.94
769.04	1925.09
769.22	2232.29
769.40	2074.59
769.58	2156.51
769.75	2019.30
769.93	1984.48
770.11	1851.36
770.28	1994.72
770.46	1976.29
770.64	2043.87
770.82	1982.43
770.99	1986.53
771.17	1964.00
771.35	1947.62
771.53	1941.47
771.70	1986.53
771.88	1943.52
772.06	2037.73
772.23	1945.57
772.41	1968.10
772.59	1931.23
772.77	1943.52
772.94	1978.34
773.12	1982.43
773.30	1943.52
773.47	2000.87
773.65	1816.55
773.83	2109.41
774.01	1949.67
774.18	1822.69
774.36	1968.10
774.54	1847.27
774.71	1978.34
774.89	1877.99
775.07	1880.04
775.24	1957.86
775.42	1890.28
775.60	2121.70
775.78	1898.47
775.95	1837.03
776.13	1865.70
776.31	1800.16
776.48	1974.24
776.66	2062.30
776.84	1914.85
777.01	1896.42
777.19	1877.99
777.37	1877.99
777.54	2037.73
777.72	2115.55
777.90	1986.53
778.07	1884.13
778.25	2160.61
778.43	2013.15
778.60	1873.89
778.78	2045.92
778.96	2127.84
779.13	1845.22
779.31	1984.48
779.49	1894.37
779.66	1949.67
779.84	1877.99
780.01	1941.47
780.19	1837.03
780.37	2045.92
780.54	2000.87
780.72	1888.23
780.90	1959.91
781.07	1867.75
781.25	1949.67
781.43	2086.88
781.60	1955.81
781.78	2093.02
781.95	2045.92
782.13	1845.22
782.31	1961.95
782.48	1820.64
782.66	1894.37
782.83	2052.06
783.01	2023.39
783.19	1990.63
783.36	1974.24
783.54	1849.32
783.72	2037.73
783.89	1933.28
784.07	1972.19
784.24	1955.81
784.42	2050.02
784.60	1972.19
784.77	2041.82
784.95	1820.64
785.12	1902.56
785.30	1976.29
785.47	1837.03
785.65	1912.80
785.83	1966.05
786.00	1951.71
786.18	1935.33
786.35	1861.60
786.53	1875.94
786.71	2050.02
786.88	2019.30
787.06	1980.39
787.23	1896.42
787.41	1834.98
787.58	1951.71
787.76	1941.47
787.94	2002.91
788.11	1998.82
788.29	1904.61
788.46	1888.23
788.64	1865.70
788.81	1869.80
788.99	1839.08
789.16	1931.23
789.34	1884.13
789.52	1871.84
789.69	1966.05
789.87	1800.16
790.04	1943.52
790.22	1978.34
790.39	2090.98
790.57	1900.52
790.74	1882.08
790.92	1998.82
791.09	1818.60
791.27	1943.52
791.44	2054.11
791.62	1978.34
791.79	2043.87
791.97	2041.82
792.15	2164.70
792.32	2023.39
792.50	2045.92
792.67	2090.98
792.85	2047.97
793.02	1929.19
793.20	1955.81
793.37	1912.80
793.55	1972.19
793.72	1859.56
793.90	1982.43
794.07	1816.55
794.25	1972.19
794.42	1949.67
794.60	1984.48
794.77	1959.91
794.95	2060.26
795.12	2058.21
795.30	1968.10
795.47	1820.64
795.65	2246.62
795.82	1970.15
796.00	1939.43
796.17	1888.23
796.34	1888.23
796.52	1972.19
796.69	1957.86
796.87	2047.97
797.04	1931.23
797.22	2031.58
797.39	1941.47
797.57	1970.15
797.74	2023.39
797.92	1955.81
798.09	1904.61
798.27	2037.73
798.44	1937.38
798.62	1882.08
798.79	1966.05
798.96	1976.29
799.14	1990.63
799.31	2111.46
799.49	1988.58
799.66	1970.15
799.84	1947.62
800.01	1830.88
800.19	2002.91
800.36	1785.83
800.53	1970.15
800.71	1959.91
800.88	2080.74
801.06	1908.71
801.23	1972.19
801.41	1931.23
801.58	1941.47
801.75	1959.91
801.93	2002.91
802.10	2019.30
802.28	1839.08
802.45	2004.96
802.63	2021.35
802.80	1992.67
802.97	2002.91
803.15	1970.15
803.32	1949.67
803.50	1923.04
803.67	1908.71
803.84	1832.93
804.02	1935.33
804.19	1939.43
804.37	1822.69
804.54	1865.70
804.71	1927.14
804.89	1980.39
805.06	1853.41
805.24	1988.58
805.41	1869.80
805.58	1873.89
805.76	2131.94
805.93	1992.67
806.10	2066.40
806.28	2033.63
806.45	1968.10
806.63	1998.82
806.80	1974.24
806.97	1953.76
807.15	1976.29
807.32	1943.52
807.49	2029.54
807.67	1918.95
807.84	1984.48
808.01	1775.59
808.19	2088.93
808.36	2099.17
808.54	2004.96
808.71	1906.66
808.88	1955.81
809.06	1996.77
809.23	2138.08
809.40	1935.33
809.58	2041.82
809.75	1918.95
809.92	1935.33
810.10	2058.21
810.27	1945.57
810.44	1912.80
810.62	2035.68
810.79	1941.47
810.96	1892.32
811.14	1961.95
811.31	2009.06
811.48	1978.34
811.66	1951.71
811.83	2017.25
812.00	1988.58
812.18	1961.95
812.35	2127.84
812.52	1964.00
812.69	2027.49
812.87	1892.32
813.04	1873.89
813.21	1920.99
813.39	1898.47
813.56	1910.75
813.73	2074.59
813.91	1869.80
814.08	1925.09
814.25	1869.80
814.42	1845.22
814.60	1945.57
814.77	1970.15
814.94	1990.63
815.12	1986.53
815.29	2084.83
815.46	1896.42
815.63	2009.06
815.81	1990.63
815.98	1935.33
816.15	1929.19
816.33	1964.00
816.50	1939.43
816.67	1923.04
816.84	1880.04
817.02	1918.95
817.19	1904.61
817.36	1927.14
817.53	1972.19
817.71	1890.28
817.88	2056.16
818.05	1972.19
818.22	1943.52
818.40	2035.68
818.57	1937.38
818.74	2011.11
818.91	1923.04
819.09	2068.45
819.26	2054.11
819.43	1918.95
819.60	1900.52
819.78	1935.33
819.95	2045.92
820.12	1902.56
820.29	2029.54
820.47	2107.36
820.64	1957.86
820.81	1826.79
820.98	1894.37
821.15	1959.91
821.33	2033.63
821.50	1845.22
821.67	1984.48
821.84	1892.32
822.02	1974.24
822.19	1964.00
822.36	2021.35
822.53	1904.61
822.70	1931.23
822.88	1976.29
823.05	2066.40
823.22	1918.95
823.39	1980.39
823.56	1923.04
823.74	2084.83
823.91	1869.80
824.08	1871.84
824.25	1877.99
824.42	2013.15
824.60	1949.67
824.77	2023.39
824.94	1947.62
825.11	1978.34
825.28	1892.32
825.45	1961.95
825.63	1966.05
825.80	1949.67
825.97	1955.81
826.14	1937.38
826.31	1867.75
826.48	1949.67
826.66	1955.81
826.83	1900.52
827.00	1892.32
827.17	1875.94
827.34	1888.23
827.51	1994.72
827.69	1943.52
827.86	1845.22
828.03	1966.05
828.20	1935.33
828.37	1916.90
828.54	1951.71
828.71	1888.23
828.89	2080.74
829.06	2011.11
829.23	2045.92
829.40	1882.08
829.57	1980.39
829.74	2004.96
829.91	1884.13
830.09	1970.15
830.26	2004.96
830.43	2054.11
830.60	1937.38
830.77	1890.28
830.94	2086.88
831.11	1925.09
831.28	2002.91
831.46	2082.78
831.63	1904.61
831.80	1974.24
831.97	1898.47
832.14	1941.47
832.31	2021.35
832.48	1959.91
832.65	1970.15
832.82	1888.23
832.99	2041.82
833.17	1859.56
833.34	2109.41
833.51	1978.34
833.68	1779.68
833.85	2019.30
834.02	1916.90
834.19	1849.32
834.36	1918.95
834.53	2078.69
834.70	2084.83
834.87	2004.96
835.04	1927.14
835.22	1890.28
835.39	1925.09
835.56	1884.13
835.73	1929.19
835.90	2029.54
836.07	1859.56
836.24	1986.53
836.41	1920.99
836.58	1900.52
836.75	2088.93
836.92	2000.87
837.09	1892.32
837.26	2033.63
837.43	1986.53
837.60	1939.43
837.77	1851.36
837.94	1998.82
838.12	2011.11
838.29	1966.05
838.46	1834.98
838.63	1900.52
838.80	2121.70
838.97	1920.99
839.14	1929.19
839.31	1951.71
839.48	1914.85
839.65	1920.99
839.82	1968.10
839.99	1992.67
840.16	1933.28
840.33	1929.19
840.50	1943.52
840.67	1943.52
840.84	1669.09
841.01	1918.95
841.18	1943.52
841.35	1949.67
841.52	2068.45
841.69	2076.64
841.86	1939.43
842.03	1982.43
842.20	2007.01
842.37	1834.98
842.54	1929.19
842.71	1996.77
842.88	1912.80
843.05	2072.54
843.22	1957.86
843.39	1988.58
843.56	1935.33
843.73	1941.47
843.90	1951.71
844.07	1929.19
844.24	2068.45
844.41	2007.01
844.58	1964.00
844.75	1906.66
844.92	1908.71
845.09	1943.52
845.26	1914.85
845.43	2062.30
845.60	1980.39
845.77	1996.77
845.94	2019.30
846.10	2050.02
846.27	1906.66
846.44	1916.90
846.61	1849.32
846.78	1906.66
846.95	2039.78
847.12	1884.13
847.29	1988.58
847.46	1884.13
847.63	2035.68
847.80	1920.99
847.97	1857.51
848.14	2105.31
848.31	1886.18
848.48	1816.55
848.65	2009.06
848.82	1904.61
848.98	2166.75
849.15	2000.87
849.32	2095.07
849.49	1998.82
849.66	2025.44
849.83	1996.77
850.00	1877.99
850.17	1867.75
850.34	1970.15
850.51	1894.37
850.68	1908.71
850.85	2037.73
851.01	1882.08
851.18	1929.19
851.35	1953.76
851.52	2037.73
851.69	2045.92
851.86	1863.65
852.03	1918.95
852.20	1984.48
852.37	1978.34
852.53	1908.71
852.70	1970.15
852.87	2011.11
853.04	2019.30
853.21	1939.43
853.38	2047.97
853.55	1937.38
853.72	2097.12
853.89	1867.75
854.05	1970.15
854.22	1939.43
854.39	1824.74
854.56	1937.38
854.73	2039.78
854.90	1916.90
855.07	1992.67
855.23	1918.95
855.40	1841.12
855.57	1892.32
855.74	1732.58
855.91	2111.46
856.08	1863.65
856.25	1894.37
856.41	1865.70
856.58	1914.85
856.75	1910.75
856.92	1892.32
857.09	1990.63
857.26	1839.08
857.42	1923.04
857.59	2021.35
857.76	1947.62
857.93	1949.67
858.10	2076.64
858.27	1906.66
858.43	1888.23
858.60	1927.14
858.77	1875.94
858.94	2029.54
859.11	2031.58
859.27	1910.75
859.44	1890.28
859.61	2066.40
859.78	2052.06
859.95	1953.76
860.12	1896.42
860.28	2072.54
860.45	2129.89
860.62	2041.82
860.79	1984.48
860.95	1900.52
861.12	1927.14
861.29	1804.26
861.46	1855.46
861.63	1970.15
861.79	2023.39
861.96	1873.89
862.13	1873.89
862.30	2056.16
862.47	1906.66
862.63	1929.19
862.80	2068.45
862.97	2041.82
863.14	1972.19
863.30	1964.00
863.47	1875.94
863.64	2060.26
863.81	2013.15
863.97	1949.67
864.14	1955.81
864.31	1945.57
864.48	2056.16
864.65	1882.08
864.81	1974.24
864.98	2043.87
865.15	2011.11
865.32	2023.39
865.48	2050.02
865.65	2047.97
865.82	1947.62
865.98	2000.87
866.15	2002.91
866.32	1920.99
866.49	1920.99
866.65	2009.06
866.82	1888.23
866.99	1927.14
867.16	1900.52
867.32	1939.43
867.49	1949.67
867.66	1992.67
867.83	1996.77
867.99	1914.85
868.16	1947.62
868.33	1923.04
868.49	1945.57
868.66	1880.04
868.83	2062.30
868.99	1988.58
869.16	2004.96
869.33	1964.00
869.50	1955.81
869.66	1974.24
869.83	1918.95
870.00	1873.89
870.16	2009.06
870.33	1871.84
870.50	1984.48
870.66	1955.81
870.83	1992.67
871.00	1951.71
871.17	1982.43
871.33	1994.72
871.50	1947.62
871.67	1941.47
871.83	1865.70
872.00	2027.49
872.17	1941.47
872.33	2041.82
872.50	2109.41
872.67	1906.66
872.83	1902.56
873.00	2021.35
873.17	1978.34
873.33	2013.15
873.50	1902.56
873.67	1933.28
873.83	1800.16
874.00	2007.01
874.16	2041.82
874.33	2009.06
874.50	1931.23
874.66	1996.77
874.83	1972.19
875.00	2064.35
875.16	2002.91
875.33	2031.58
875.50	1773.54
875.66	1875.94
875.83	1959.91
875.99	2062.30
876.16	1933.28
876.33	1957.86
876.49	1898.47
876.66	2000.87
876.83	1941.47
876.99	1947.62
877.16	1920.99
877.32	1959.91
877.49	1892.32
877.66	1990.63
877.82	2078.69
877.99	1923.04
878.15	1992.67
878.32	1988.58
878.49	1970.15
878.65	1867.75
878.82	2033.63
878.98	1900.52
879.15	2033.63
879.32	1994.72
879.48	1951.71
879.65	1984.48
879.81	1888.23
879.98	1918.95
880.15	1853.41
880.31	2007.01
880.48	1925.09
880.64	2029.54
880.81	1968.10
880.97	2131.94
881.14	2062.30
881.31	1841.12
881.47	2043.87
881.64	1978.34
881.80	1828.84
881.97	1986.53
882.13	2025.44
882.30	1837.03
882.47	1937.38
882.63	1832.93
882.80	1959.91
882.96	1925.09
883.13	2072.54
883.29	1972.19
883.46	1959.91
883.62	2166.75
883.79	2009.06
883.95	2021.35
884.12	1949.67
884.29	1982.43
884.45	2021.35
884.62	1916.90
884.78	1898.47
884.95	2105.31
885.11	1851.36
885.28	1961.95
885.44	1880.04
885.61	1982.43
885.77	2039.78
885.94	1988.58
886.10	1996.77
886.27	1949.67
886.43	2054.11
886.60	2011.11
886.76	1904.61
886.93	1859.56
887.09	1980.39
887.26	1798.12
887.42	1966.05
887.59	2002.91
887.75	2136.03
887.92	1925.09
888.08	2047.97
888.25	2146.27
888.41	1914.85
888.58	1929.19
888.74	1976.29
888.91	1843.17
>>>>>End Processed Spectral Data<<<<<
