SpectraSuite Data File
++++++++++++++++++++++++++++++++++++
Date: Wed May 04 22:46:14 CEST 2016
User: root
Dark Spectrum Present: No
Reference Spectrum Present: No
Number of Sampled Component Spectra: 1
Spectrometers: USB4C02835
Integration Time (usec): 100000 (USB4C02835)
Spectra Averaged: 1 (USB4C02835)
Boxcar Smoothing: 0 (USB4C02835)
Correct for Electrical Dark: No (USB4C02835)
Strobe/Lamp Enabled: No (USB4C02835)
Correct for Detector Non-linearity: No (USB4C02835)
Correct for Stray Light: No (USB4C02835)
Number of Pixels in Processed Spectrum: 3648
>>>>>Begin Processed Spectral Data<<<<<
177.47	1636.33
177.69	1636.33
177.91	1636.33
178.13	1597.42
178.36	1671.14
178.58	1916.90
178.80	1990.63
179.02	1843.17
179.24	1873.89
179.46	1916.90
179.68	1951.71
179.90	1974.24
180.13	1935.33
180.35	1898.47
180.57	1859.56
180.79	1968.10
181.01	1941.47
181.23	2039.78
181.45	1990.63
181.67	2031.58
181.90	1957.86
182.12	1877.99
182.34	1773.54
182.56	2058.21
182.78	1937.38
183.00	1912.80
183.22	1964.00
183.44	1804.26
183.66	2058.21
183.89	2078.69
184.11	1875.94
184.33	2029.54
184.55	2002.91
184.77	1949.67
184.99	2050.02
185.21	1925.09
185.43	2154.46
185.65	1966.05
185.87	1902.56
186.10	2088.93
186.32	2211.81
186.54	2052.06
186.76	1908.71
186.98	2017.25
187.20	1912.80
187.42	1855.46
187.64	1941.47
187.86	1945.57
188.08	2025.44
188.30	1859.56
188.52	1992.67
188.75	2101.22
188.97	2074.59
189.19	1914.85
189.41	1892.32
189.63	2002.91
189.85	1964.00
190.07	1916.90
190.29	1804.26
190.51	1976.29
190.73	1914.85
190.95	1937.38
191.17	1920.99
191.39	1834.98
191.61	1990.63
191.84	1949.67
192.06	1984.48
192.28	1873.89
192.50	2144.22
192.72	1947.62
192.94	2029.54
193.16	1935.33
193.38	2007.01
193.60	1871.84
193.82	1941.47
194.04	2070.50
194.26	1959.91
194.48	1951.71
194.70	1871.84
194.92	1912.80
195.14	1964.00
195.36	1898.47
195.58	1935.33
195.80	1970.15
196.02	1961.95
196.24	2013.15
196.46	1886.18
196.69	1908.71
196.91	2103.26
197.13	1841.12
197.35	1853.41
197.57	2062.30
197.79	1933.28
198.01	1988.58
198.23	2023.39
198.45	2035.68
198.67	1779.68
198.89	1898.47
199.11	1994.72
199.33	1888.23
199.55	1808.36
199.77	1966.05
199.99	2035.68
200.21	1939.43
200.43	1935.33
200.65	1886.18
200.87	1812.45
201.09	1988.58
201.31	1947.62
201.53	1947.62
201.75	2039.78
201.97	1925.09
202.19	1894.37
202.41	2031.58
202.63	2074.59
202.85	1890.28
203.07	1994.72
203.29	1916.90
203.51	1890.28
203.73	1918.95
203.95	2107.36
204.17	1949.67
204.39	2025.44
204.61	1949.67
204.83	1898.47
205.05	2064.35
205.27	1976.29
205.49	2082.78
205.71	1951.71
205.93	1880.04
206.15	1957.86
206.37	1890.28
206.59	1945.57
206.81	1918.95
207.03	1847.27
207.25	1912.80
207.47	2013.15
207.69	1902.56
207.91	2047.97
208.13	2131.94
208.34	1982.43
208.56	1843.17
208.78	1920.99
209.00	1910.75
209.22	1947.62
209.44	1941.47
209.66	1896.42
209.88	1927.14
210.10	1867.75
210.32	1871.84
210.54	1988.58
210.76	1996.77
210.98	2033.63
211.20	1832.93
211.42	1900.52
211.64	2066.40
211.86	1955.81
212.08	2002.91
212.30	2002.91
212.52	1931.23
212.74	1935.33
212.96	1894.37
213.17	2002.91
213.39	1998.82
213.61	2156.51
213.83	1884.13
214.05	1947.62
214.27	2050.02
214.49	1884.13
214.71	1896.42
214.93	2119.65
215.15	1968.10
215.37	1957.86
215.59	1886.18
215.81	1955.81
216.03	2007.01
216.24	2031.58
216.46	1943.52
216.68	1935.33
216.90	1961.95
217.12	2047.97
217.34	1892.32
217.56	2027.49
217.78	2043.87
218.00	1986.53
218.22	1976.29
218.44	2011.11
218.66	1916.90
218.87	2138.08
219.09	1925.09
219.31	2033.63
219.53	1994.72
219.75	1957.86
219.97	1890.28
220.19	1988.58
220.41	1972.19
220.63	2086.88
220.85	1908.71
221.06	1916.90
221.28	1998.82
221.50	2041.82
221.72	1939.43
221.94	1972.19
222.16	1953.76
222.38	2029.54
222.60	1933.28
222.82	1925.09
223.03	1972.19
223.25	1834.98
223.47	1908.71
223.69	2117.60
223.91	2023.39
224.13	2019.30
224.35	1884.13
224.57	1964.00
224.78	2045.92
225.00	1814.50
225.22	1925.09
225.44	2019.30
225.66	2064.35
225.88	1992.67
226.10	1976.29
226.32	1918.95
226.53	2142.18
226.75	1910.75
226.97	1929.19
227.19	1943.52
227.41	1959.91
227.63	1898.47
227.85	1781.73
228.06	1974.24
228.28	2035.68
228.50	2029.54
228.72	1851.36
228.94	1982.43
229.16	1902.56
229.37	1912.80
229.59	1865.70
229.81	1994.72
230.03	1888.23
230.25	1875.94
230.47	1839.08
230.69	1912.80
230.90	2004.96
231.12	1931.23
231.34	1990.63
231.56	2031.58
231.78	1843.17
232.00	1968.10
232.21	1914.85
232.43	1910.75
232.65	1775.59
232.87	1974.24
233.09	1877.99
233.30	1861.60
233.52	2041.82
233.74	2021.35
233.96	1941.47
234.18	1941.47
234.40	1931.23
234.61	2125.79
234.83	1798.12
235.05	1941.47
235.27	2172.89
235.49	2074.59
235.70	1935.33
235.92	1959.91
236.14	1961.95
236.36	2181.09
236.58	1830.88
236.79	1988.58
237.01	1916.90
237.23	1964.00
237.45	2066.40
237.67	1984.48
237.88	1964.00
238.10	2127.84
238.32	1871.84
238.54	1935.33
238.76	1906.66
238.97	1861.60
239.19	1812.45
239.41	2002.91
239.63	2056.16
239.85	1884.13
240.06	1947.62
240.28	1886.18
240.50	2011.11
240.72	1964.00
240.93	1894.37
241.15	1949.67
241.37	1912.80
241.59	2062.30
241.81	1955.81
242.02	1896.42
242.24	1933.28
242.46	2023.39
242.68	1906.66
242.89	2013.15
243.11	2076.64
243.33	1982.43
243.55	1890.28
243.76	2035.68
243.98	1884.13
244.20	1871.84
244.42	1957.86
244.64	1925.09
244.85	1892.32
245.07	1918.95
245.29	1949.67
245.51	1935.33
245.72	2021.35
245.94	2015.20
246.16	1957.86
246.38	1957.86
246.59	1949.67
246.81	1830.88
247.03	1941.47
247.24	1841.12
247.46	1832.93
247.68	2031.58
247.90	1943.52
248.11	1908.71
248.33	2004.96
248.55	1937.38
248.77	1945.57
248.98	2015.20
249.20	2136.03
249.42	1982.43
249.64	1964.00
249.85	1923.04
250.07	1859.56
250.29	2004.96
250.50	1976.29
250.72	1767.40
250.94	2009.06
251.16	2103.26
251.37	1984.48
251.59	1970.15
251.81	1968.10
252.02	2043.87
252.24	1927.14
252.46	2045.92
252.68	1947.62
252.89	1867.75
253.11	1804.26
253.33	2052.06
253.54	2080.74
253.76	1859.56
253.98	1894.37
254.20	1873.89
254.41	1857.51
254.63	1884.13
254.85	1832.93
255.06	1875.94
255.28	2068.45
255.50	1955.81
255.71	1931.23
255.93	1826.79
256.15	2000.87
256.36	2025.44
256.58	1834.98
256.80	2043.87
257.02	1910.75
257.23	2035.68
257.45	1980.39
257.67	1953.76
257.88	1933.28
258.10	2041.82
258.32	1966.05
258.53	1939.43
258.75	2078.69
258.97	1900.52
259.18	2000.87
259.40	1941.47
259.62	2004.96
259.83	2076.64
260.05	1990.63
260.27	2250.72
260.48	2041.82
260.70	1853.41
260.92	1933.28
261.13	1941.47
261.35	1953.76
261.57	2054.11
261.78	1818.60
262.00	1949.67
262.22	1990.63
262.43	1918.95
262.65	1945.57
262.86	1943.52
263.08	2154.46
263.30	2070.50
263.51	1806.31
263.73	1986.53
263.95	2074.59
264.16	1857.51
264.38	1816.55
264.60	1910.75
264.81	1935.33
265.03	2080.74
265.25	1955.81
265.46	1970.15
265.68	2078.69
265.89	2052.06
266.11	1738.73
266.33	1980.39
266.54	2084.83
266.76	1990.63
266.98	1959.91
267.19	2019.30
267.41	1978.34
267.62	1951.71
267.84	1845.22
268.06	2033.63
268.27	1935.33
268.49	1966.05
268.70	1982.43
268.92	1886.18
269.14	1908.71
269.35	1798.12
269.57	1906.66
269.79	1949.67
270.00	1925.09
270.22	2062.30
270.43	1826.79
270.65	1748.97
270.87	1941.47
271.08	2023.39
271.30	2045.92
271.51	1892.32
271.73	1931.23
271.95	2037.73
272.16	1927.14
272.38	2025.44
272.59	1931.23
272.81	2013.15
273.02	1945.57
273.24	1966.05
273.46	2054.11
273.67	1900.52
273.89	1906.66
274.10	1957.86
274.32	2031.58
274.54	1925.09
274.75	1996.77
274.97	1966.05
275.18	1996.77
275.40	2056.16
275.61	1888.23
275.83	1931.23
276.05	1867.75
276.26	1953.76
276.48	1982.43
276.69	1949.67
276.91	1918.95
277.12	2121.70
277.34	1990.63
277.55	1953.76
277.77	1918.95
277.99	1947.62
278.20	1871.84
278.42	1886.18
278.63	1882.08
278.85	1812.45
279.06	1894.37
279.28	1988.58
279.49	1972.19
279.71	1984.48
279.93	2023.39
280.14	1884.13
280.36	1923.04
280.57	1998.82
280.79	2021.35
281.00	1898.47
281.22	1939.43
281.43	1953.76
281.65	1757.16
281.86	1904.61
282.08	1957.86
282.29	2144.22
282.51	1849.32
282.73	1802.21
282.94	1875.94
283.16	2004.96
283.37	2062.30
283.59	1884.13
283.80	1986.53
284.02	2011.11
284.23	1998.82
284.45	1908.71
284.66	1830.88
284.88	1947.62
285.09	1947.62
285.31	2056.16
285.52	2025.44
285.74	1814.50
285.95	2031.58
286.17	1964.00
286.38	2058.21
286.60	1902.56
286.81	1945.57
287.03	1935.33
287.24	1923.04
287.46	1953.76
287.67	1898.47
287.89	2099.17
288.10	1947.62
288.32	2027.49
288.53	2037.73
288.75	1953.76
288.96	2093.02
289.18	1902.56
289.39	1912.80
289.61	2021.35
289.82	2209.76
290.04	2076.64
290.25	1871.84
290.47	1861.60
290.68	1947.62
290.90	2035.68
291.11	1890.28
291.33	2050.02
291.54	1820.64
291.76	1830.88
291.97	1943.52
292.18	2019.30
292.40	1937.38
292.61	1853.41
292.83	2117.60
293.04	1966.05
293.26	1955.81
293.47	1968.10
293.69	1814.50
293.90	1832.93
294.12	1998.82
294.33	1964.00
294.55	2009.06
294.76	2027.49
294.97	2035.68
295.19	2060.26
295.40	1914.85
295.62	1937.38
295.83	2084.83
296.05	1898.47
296.26	2033.63
296.48	1865.70
296.69	2017.25
296.90	1937.38
297.12	2011.11
297.33	2060.26
297.55	1974.24
297.76	2039.78
297.98	1959.91
298.19	1943.52
298.41	1974.24
298.62	1857.51
298.83	2009.06
299.05	1984.48
299.26	1996.77
299.48	1886.18
299.69	2000.87
299.90	1933.28
300.12	1865.70
300.33	1961.95
300.55	1970.15
300.76	1937.38
300.98	1867.75
301.19	1982.43
301.40	2000.87
301.62	1894.37
301.83	2017.25
302.05	1931.23
302.26	1978.34
302.47	2031.58
302.69	1894.37
302.90	1935.33
303.12	1853.41
303.33	2007.01
303.54	2086.88
303.76	1927.14
303.97	2009.06
304.19	2043.87
304.40	1873.89
304.61	1996.77
304.83	2105.31
305.04	2007.01
305.26	1978.34
305.47	1894.37
305.68	1898.47
305.90	1867.75
306.11	1996.77
306.33	1939.43
306.54	1941.47
306.75	1857.51
306.97	1843.17
307.18	1837.03
307.39	1912.80
307.61	2031.58
307.82	1982.43
308.04	2021.35
308.25	1859.56
308.46	1982.43
308.68	1966.05
308.89	1998.82
309.10	2000.87
309.32	1974.24
309.53	1910.75
309.74	2002.91
309.96	1972.19
310.17	2056.16
310.39	1945.57
310.60	2035.68
310.81	1966.05
311.03	1834.98
311.24	2000.87
311.45	2000.87
311.67	2121.70
311.88	2011.11
312.09	1939.43
312.31	1869.80
312.52	1984.48
312.73	1933.28
312.95	1849.32
313.16	1984.48
313.37	1994.72
313.59	1974.24
313.80	1966.05
314.01	2029.54
314.23	1970.15
314.44	1814.50
314.65	1933.28
314.87	1900.52
315.08	1908.71
315.29	1929.19
315.51	1873.89
315.72	1888.23
315.93	2025.44
316.15	2019.30
316.36	1873.89
316.57	1894.37
316.79	2002.91
317.00	1968.10
317.21	2047.97
317.43	1863.65
317.64	1957.86
317.85	1845.22
318.07	1968.10
318.28	2007.01
318.49	2127.84
318.70	2179.04
318.92	2133.98
319.13	2217.95
319.34	2189.28
319.56	2080.74
319.77	2205.66
319.98	2088.93
320.20	2125.79
320.41	2099.17
320.62	1955.81
320.83	1976.29
321.05	2129.89
321.26	1986.53
321.47	1933.28
321.69	2025.44
321.90	1945.57
322.11	1947.62
322.32	2027.49
322.54	2043.87
322.75	1935.33
322.96	2201.57
323.18	1939.43
323.39	1861.60
323.60	1908.71
323.81	2009.06
324.03	1861.60
324.24	1951.71
324.45	1890.28
324.66	1880.04
324.88	2017.25
325.09	2037.73
325.30	1980.39
325.52	2072.54
325.73	1947.62
325.94	1951.71
326.15	1822.69
326.37	1898.47
326.58	2031.58
326.79	2076.64
327.00	1931.23
327.22	1929.19
327.43	2019.30
327.64	1855.46
327.85	1968.10
328.07	1955.81
328.28	2166.75
328.49	1904.61
328.70	1984.48
328.92	1980.39
329.13	1914.85
329.34	2009.06
329.55	2025.44
329.76	2021.35
329.98	1890.28
330.19	2078.69
330.40	1947.62
330.61	1910.75
330.83	2011.11
331.04	1974.24
331.25	1929.19
331.46	1957.86
331.68	1925.09
331.89	2019.30
332.10	1931.23
332.31	1830.88
332.52	1964.00
332.74	2045.92
332.95	1906.66
333.16	1918.95
333.37	2054.11
333.58	1912.80
333.80	1986.53
334.01	1806.31
334.22	1927.14
334.43	1857.51
334.64	1961.95
334.86	1884.13
335.07	1972.19
335.28	2095.07
335.49	1867.75
335.70	1961.95
335.92	2056.16
336.13	2074.59
336.34	2004.96
336.55	1968.10
336.76	1955.81
336.98	1863.65
337.19	1953.76
337.40	2082.78
337.61	2115.55
337.82	1931.23
338.04	1982.43
338.25	1830.88
338.46	1994.72
338.67	1941.47
338.88	1865.70
339.09	1884.13
339.31	1941.47
339.52	1896.42
339.73	1877.99
339.94	2025.44
340.15	1990.63
340.36	1935.33
340.58	1980.39
340.79	1970.15
341.00	1976.29
341.21	1925.09
341.42	2078.69
341.63	1906.66
341.85	2011.11
342.06	1953.76
342.27	1996.77
342.48	1947.62
342.69	1898.47
342.90	2031.58
343.12	2021.35
343.33	1964.00
343.54	2054.11
343.75	2052.06
343.96	1896.42
344.17	1900.52
344.38	1937.38
344.60	1920.99
344.81	1892.32
345.02	1920.99
345.23	2050.02
345.44	2209.76
345.65	2023.39
345.86	1949.67
346.07	1990.63
346.29	1892.32
346.50	2015.20
346.71	2033.63
346.92	2039.78
347.13	2070.50
347.34	1943.52
347.55	1931.23
347.76	1994.72
347.98	1855.46
348.19	1880.04
348.40	2031.58
348.61	1925.09
348.82	2056.16
349.03	2054.11
349.24	1933.28
349.45	2068.45
349.66	1857.51
349.88	1923.04
350.09	1933.28
350.30	2068.45
350.51	1959.91
350.72	1904.61
350.93	1916.90
351.14	1959.91
351.35	2009.06
351.56	2019.30
351.77	1984.48
351.99	2027.49
352.20	2045.92
352.41	2035.68
352.62	1775.59
352.83	2023.39
353.04	1984.48
353.25	1931.23
353.46	1990.63
353.67	2045.92
353.88	1826.79
354.09	2031.58
354.30	1988.58
354.52	2050.02
354.73	1941.47
354.94	1941.47
355.15	1955.81
355.36	2101.22
355.57	1929.19
355.78	2021.35
355.99	1964.00
356.20	1939.43
356.41	2050.02
356.62	1986.53
356.83	1955.81
357.04	2011.11
357.25	1828.84
357.46	1896.42
357.68	1853.41
357.89	1890.28
358.10	1947.62
358.31	1892.32
358.52	1953.76
358.73	1873.89
358.94	1908.71
359.15	1902.56
359.36	1998.82
359.57	1988.58
359.78	1955.81
359.99	2023.39
360.20	1927.14
360.41	1945.57
360.62	2017.25
360.83	1945.57
361.04	1970.15
361.25	1959.91
361.46	2064.35
361.67	2011.11
361.88	1994.72
362.09	1970.15
362.30	2013.15
362.51	1906.66
362.72	1945.57
362.93	2064.35
363.14	2093.02
363.35	1949.67
363.56	1877.99
363.78	2041.82
363.99	1957.86
364.20	1783.78
364.41	1976.29
364.62	2097.12
364.83	1906.66
365.04	1994.72
365.25	1916.90
365.46	2090.98
365.67	1910.75
365.88	1890.28
366.09	1959.91
366.30	1966.05
366.51	1892.32
366.72	1920.99
366.93	1923.04
367.14	1955.81
367.35	2082.78
367.56	1923.04
367.77	2027.49
367.98	1986.53
368.18	2047.97
368.39	1990.63
368.60	1810.40
368.81	1947.62
369.02	2037.73
369.23	1964.00
369.44	1880.04
369.65	1908.71
369.86	2095.07
370.07	1978.34
370.28	1898.47
370.49	1951.71
370.70	2031.58
370.91	1894.37
371.12	1783.78
371.33	2039.78
371.54	1857.51
371.75	2023.39
371.96	1851.36
372.17	1949.67
372.38	1939.43
372.59	1957.86
372.80	1925.09
373.01	1937.38
373.22	1966.05
373.43	1927.14
373.64	1865.70
373.85	2109.41
374.06	2078.69
374.26	2088.93
374.47	2002.91
374.68	2113.50
374.89	1957.86
375.10	1957.86
375.31	2023.39
375.52	1959.91
375.73	1988.58
375.94	1906.66
376.15	2099.17
376.36	1939.43
376.57	1896.42
376.78	1943.52
376.99	1966.05
377.20	1984.48
377.40	1923.04
377.61	1992.67
377.82	1783.78
378.03	2052.06
378.24	1964.00
378.45	2015.20
378.66	1910.75
378.87	1851.36
379.08	1847.27
379.29	1988.58
379.50	2088.93
379.71	1892.32
379.91	2066.40
380.12	2013.15
380.33	1978.34
380.54	1984.48
380.75	1923.04
380.96	1994.72
381.17	2078.69
381.38	1974.24
381.59	1941.47
381.80	1947.62
382.00	2099.17
382.21	2019.30
382.42	2150.37
382.63	2160.61
382.84	2103.26
383.05	2095.07
383.26	2119.65
383.47	1968.10
383.68	2056.16
383.88	2029.54
384.09	2052.06
384.30	2052.06
384.51	2031.58
384.72	1970.15
384.93	1904.61
385.14	1949.67
385.35	1957.86
385.55	1849.32
385.76	2084.83
385.97	1910.75
386.18	1812.45
386.39	1898.47
386.60	1972.19
386.81	1845.22
387.02	1937.38
387.22	1814.50
387.43	2072.54
387.64	2103.26
387.85	2119.65
388.06	2291.68
388.27	4022.21
388.48	8390.53
388.68	11968.33
388.89	14411.56
389.10	15359.77
389.31	14186.28
389.52	11114.33
389.73	9619.31
389.93	8587.13
390.14	7911.30
390.35	7079.83
390.56	6324.13
390.77	5279.66
390.98	4071.36
391.18	3172.30
391.39	2572.25
391.60	2232.29
391.81	2056.16
392.02	2021.35
392.23	2213.85
392.43	2027.49
392.64	2045.92
392.85	2035.68
393.06	2080.74
393.27	2019.30
393.47	1890.28
393.68	1992.67
393.89	1918.95
394.10	2002.91
394.31	1964.00
394.52	1882.08
394.72	1918.95
394.93	2050.02
395.14	1906.66
395.35	2025.44
395.56	1966.05
395.76	2011.11
395.97	2011.11
396.18	2088.93
396.39	2115.55
396.60	2387.93
396.80	2209.76
397.01	2074.59
397.22	2240.48
397.43	2109.41
397.64	1978.34
397.84	2023.39
398.05	2211.81
398.26	2000.87
398.47	2107.36
398.67	2004.96
398.88	1947.62
399.09	1984.48
399.30	1974.24
399.51	2011.11
399.71	1894.37
399.92	1953.76
400.13	1996.77
400.34	2017.25
400.54	1992.67
400.75	2084.83
400.96	2029.54
401.17	2029.54
401.37	2019.30
401.58	1912.80
401.79	1988.58
402.00	2111.46
402.21	2281.44
402.41	2320.35
402.62	2355.16
402.83	2453.47
403.04	2381.79
403.24	2363.36
403.45	2109.41
403.66	2226.14
403.87	2211.81
404.07	2254.81
404.28	2203.61
404.49	2129.89
404.70	1996.77
404.90	2113.50
405.11	1990.63
405.32	2017.25
405.52	1906.66
405.73	1902.56
405.94	1900.52
406.15	2043.87
406.35	2033.63
406.56	1988.58
406.77	1976.29
406.98	2058.21
407.18	1845.22
407.39	2066.40
407.60	1896.42
407.80	1974.24
408.01	1916.90
408.22	2062.30
408.43	1980.39
408.63	1978.34
408.84	2029.54
409.05	2009.06
409.25	1980.39
409.46	1882.08
409.67	1902.56
409.88	1888.23
410.08	1980.39
410.29	1984.48
410.50	1964.00
410.70	1931.23
410.91	1890.28
411.12	1998.82
411.32	2045.92
411.53	1947.62
411.74	2060.26
411.95	2021.35
412.15	2058.21
412.36	2025.44
412.57	2164.70
412.77	2078.69
412.98	2031.58
413.19	1906.66
413.39	2107.36
413.60	1992.67
413.81	2080.74
414.01	1966.05
414.22	2033.63
414.43	2084.83
414.63	1990.63
414.84	2082.78
415.05	1955.81
415.25	1890.28
415.46	2045.92
415.67	1982.43
415.87	2021.35
416.08	1998.82
416.29	2033.63
416.49	1959.91
416.70	1908.71
416.91	1961.95
417.11	1939.43
417.32	2064.35
417.53	2013.15
417.73	1978.34
417.94	1968.10
418.15	1990.63
418.35	1998.82
418.56	1943.52
418.77	2129.89
418.97	1953.76
419.18	1898.47
419.38	1810.40
419.59	1945.57
419.80	2031.58
420.00	1990.63
420.21	2002.91
420.42	2002.91
420.62	1939.43
420.83	1984.48
421.04	1961.95
421.24	1914.85
421.45	1988.58
421.65	2013.15
421.86	1904.61
422.07	2050.02
422.27	1939.43
422.48	1996.77
422.69	1898.47
422.89	1953.76
423.10	1947.62
423.30	1841.12
423.51	1982.43
423.72	2009.06
423.92	2035.68
424.13	1783.78
424.33	1945.57
424.54	1996.77
424.75	2072.54
424.95	2076.64
425.16	1955.81
425.36	1914.85
425.57	2029.54
425.78	2029.54
425.98	2074.59
426.19	1912.80
426.39	1888.23
426.60	1990.63
426.81	2050.02
427.01	1941.47
427.22	1968.10
427.42	1779.68
427.63	1937.38
427.83	1970.15
428.04	2084.83
428.25	2074.59
428.45	1998.82
428.66	2027.49
428.86	1957.86
429.07	2007.01
429.28	2011.11
429.48	1923.04
429.69	1898.47
429.89	2037.73
430.10	1877.99
430.30	1943.52
430.51	2027.49
430.71	1964.00
430.92	1908.71
431.13	1976.29
431.33	1937.38
431.54	2000.87
431.74	2113.50
431.95	2113.50
432.15	1818.60
432.36	1873.89
432.56	1978.34
432.77	2054.11
432.98	2000.87
433.18	2013.15
433.39	1908.71
433.59	1914.85
433.80	2093.02
434.00	2119.65
434.21	1902.56
434.41	1966.05
434.62	2199.52
434.82	1841.12
435.03	1894.37
435.23	1976.29
435.44	1863.65
435.64	1929.19
435.85	1968.10
436.06	1992.67
436.26	2070.50
436.47	2013.15
436.67	1966.05
436.88	1980.39
437.08	2035.68
437.29	2105.31
437.49	2021.35
437.70	2068.45
437.90	1959.91
438.11	2111.46
438.31	2054.11
438.52	2162.66
438.72	2090.98
438.93	2306.01
439.13	2117.60
439.34	2152.42
439.54	1988.58
439.75	2027.49
439.95	2062.30
440.16	1898.47
440.36	1943.52
440.57	2056.16
440.77	1970.15
440.98	2047.97
441.18	2076.64
441.39	1966.05
441.59	1902.56
441.80	2068.45
442.00	1988.58
442.21	2115.55
442.41	1906.66
442.62	2050.02
442.82	1935.33
443.02	1972.19
443.23	1988.58
443.43	1945.57
443.64	2099.17
443.84	1974.24
444.05	2084.83
444.25	2025.44
444.46	1959.91
444.66	1964.00
444.87	2158.56
445.07	1908.71
445.28	1978.34
445.48	2064.35
445.69	2009.06
445.89	2127.84
446.09	1970.15
446.30	2220.00
446.50	2676.70
446.71	4196.29
446.91	5453.74
447.12	6258.59
447.32	6481.82
447.53	5908.39
447.73	4788.15
447.93	4353.98
448.14	3985.35
448.34	3805.13
448.55	3418.06
448.75	3280.85
448.96	3233.74
449.16	2873.30
449.36	2648.02
449.57	2422.75
449.77	2187.23
449.98	1976.29
450.18	2037.73
450.39	2066.40
450.59	2047.97
450.79	1974.24
451.00	1982.43
451.20	2088.93
451.41	2086.88
451.61	1992.67
451.81	1974.24
452.02	1906.66
452.22	1959.91
452.43	2013.15
452.63	1974.24
452.84	1929.19
453.04	1945.57
453.24	2025.44
453.45	1927.14
453.65	2015.20
453.86	2056.16
454.06	2056.16
454.26	1966.05
454.47	1890.28
454.67	2078.69
454.87	2000.87
455.08	1996.77
455.28	2074.59
455.49	2039.78
455.69	1947.62
455.89	2107.36
456.10	2093.02
456.30	1933.28
456.51	1998.82
456.71	1992.67
456.91	2095.07
457.12	1931.23
457.32	1959.91
457.52	1855.46
457.73	2088.93
457.93	2070.50
458.14	1966.05
458.34	1816.55
458.54	1900.52
458.75	1855.46
458.95	2060.26
459.15	1974.24
459.36	2072.54
459.56	1972.19
459.76	2191.33
459.97	1970.15
460.17	1978.34
460.37	2017.25
460.58	1978.34
460.78	2035.68
460.99	1945.57
461.19	1894.37
461.39	1953.76
461.60	1923.04
461.80	1976.29
462.00	1927.14
462.21	1972.19
462.41	1927.14
462.61	1875.94
462.82	1824.74
463.02	1980.39
463.22	1898.47
463.43	2076.64
463.63	2082.78
463.83	2070.50
464.04	2000.87
464.24	1978.34
464.44	1937.38
464.64	1935.33
464.85	2021.35
465.05	2107.36
465.25	1984.48
465.46	1961.95
465.66	2054.11
465.86	1939.43
466.07	1953.76
466.27	1925.09
466.47	1939.43
466.68	1804.26
466.88	2101.22
467.08	1992.67
467.29	2066.40
467.49	2039.78
467.69	1916.90
467.89	1908.71
468.10	1949.67
468.30	2000.87
468.50	2056.16
468.71	2039.78
468.91	1857.51
469.11	2099.17
469.31	2000.87
469.52	1851.36
469.72	2035.68
469.92	2125.79
470.13	1980.39
470.33	1986.53
470.53	2111.46
470.73	2422.75
470.94	2795.48
471.14	2928.60
471.34	3346.38
471.54	3243.98
471.75	2904.02
471.95	2541.53
472.15	2525.15
472.36	2551.77
472.56	2508.76
472.76	2437.08
472.96	2320.35
473.17	2211.81
473.37	2207.71
473.57	2015.20
473.77	2050.02
473.98	1990.63
474.18	1931.23
474.38	2226.14
474.58	1972.19
474.79	1951.71
474.99	2031.58
475.19	2043.87
475.39	1941.47
475.60	1988.58
475.80	2033.63
476.00	1939.43
476.20	1945.57
476.41	1968.10
476.61	2029.54
476.81	2002.91
477.01	1916.90
477.21	2172.89
477.42	2054.11
477.62	1902.56
477.82	2072.54
478.02	1931.23
478.23	1970.15
478.43	1916.90
478.63	1877.99
478.83	2000.87
479.03	1966.05
479.24	2093.02
479.44	2099.17
479.64	1949.67
479.84	1812.45
480.04	1939.43
480.25	2031.58
480.45	1867.75
480.65	1974.24
480.85	2183.13
481.06	1941.47
481.26	1978.34
481.46	1957.86
481.66	2011.11
481.86	1896.42
482.06	2043.87
482.27	1992.67
482.47	2068.45
482.67	1923.04
482.87	1916.90
483.07	2033.63
483.28	1955.81
483.48	1984.48
483.68	1900.52
483.88	1847.27
484.08	1824.74
484.29	1865.70
484.49	1998.82
484.69	1890.28
484.89	2115.55
485.09	2047.97
485.29	2035.68
485.50	1970.15
485.70	1875.94
485.90	2123.74
486.10	1986.53
486.30	2019.30
486.50	2064.35
486.71	1992.67
486.91	1955.81
487.11	2056.16
487.31	1867.75
487.51	2047.97
487.71	1855.46
487.91	1968.10
488.12	1896.42
488.32	1804.26
488.52	1927.14
488.72	1904.61
488.92	1923.04
489.12	2011.11
489.32	2086.88
489.53	1961.95
489.73	1869.80
489.93	2140.13
490.13	1929.19
490.33	1886.18
490.53	2000.87
490.73	1998.82
490.94	1884.13
491.14	2047.97
491.34	2084.83
491.54	2303.96
491.74	3037.14
491.94	3555.27
492.14	3805.13
492.34	3880.90
492.54	3579.85
492.75	3039.19
492.95	2928.60
493.15	2664.41
493.35	2596.82
493.55	2551.77
493.75	2416.60
493.95	2439.13
494.15	2340.83
494.35	2136.03
494.56	2109.41
494.76	2027.49
494.96	2101.22
495.16	1986.53
495.36	2015.20
495.56	1984.48
495.76	1980.39
495.96	1918.95
496.16	1918.95
496.36	2138.08
496.56	1964.00
496.77	2015.20
496.97	2011.11
497.17	2062.30
497.37	1886.18
497.57	2101.22
497.77	1951.71
497.97	1923.04
498.17	1931.23
498.37	1931.23
498.57	2015.20
498.77	1935.33
498.97	2023.39
499.17	2125.79
499.38	1943.52
499.58	2080.74
499.78	2002.91
499.98	2072.54
500.18	1906.66
500.38	2029.54
500.58	2105.31
500.78	2590.68
500.98	4796.34
501.18	7190.42
501.38	8687.48
501.58	9729.90
501.78	9559.92
501.98	7608.20
502.18	6197.15
502.38	5437.36
502.58	5011.38
502.78	4442.04
502.98	4243.39
503.18	4097.99
503.38	3776.45
503.59	3313.61
503.79	3125.20
503.99	2871.25
504.19	2654.17
504.39	2631.64
504.59	2629.59
504.79	2574.30
504.99	2605.02
505.19	2351.07
505.39	2330.59
505.59	2267.10
505.79	2263.01
505.99	2185.18
506.19	1998.82
506.39	2207.71
506.59	2027.49
506.79	2074.59
506.99	2154.46
507.19	2058.21
507.39	2062.30
507.59	1927.14
507.79	1910.75
507.99	1871.84
508.19	2000.87
508.39	1990.63
508.59	1953.76
508.79	2090.98
508.99	2140.13
509.19	1966.05
509.39	1974.24
509.59	1978.34
509.79	1925.09
509.99	1996.77
510.19	1966.05
510.39	2078.69
510.59	1884.13
510.79	1955.81
510.99	1888.23
511.19	1937.38
511.39	2109.41
511.59	2105.31
511.79	2066.40
511.99	1978.34
512.19	2174.94
512.38	2056.16
512.58	1935.33
512.78	1996.77
512.98	2009.06
513.18	2056.16
513.38	1814.50
513.58	2045.92
513.78	2025.44
513.98	2090.98
514.18	1918.95
514.38	1947.62
514.58	1972.19
514.78	1906.66
514.98	1994.72
515.18	1927.14
515.38	1900.52
515.58	2125.79
515.78	1929.19
515.98	2000.87
516.18	2023.39
516.38	1951.71
516.57	1945.57
516.77	1931.23
516.97	2086.88
517.17	1886.18
517.37	1849.32
517.57	2054.11
517.77	1996.77
517.97	1898.47
518.17	2041.82
518.37	1957.86
518.57	1972.19
518.77	2019.30
518.97	1964.00
519.16	2035.68
519.36	2086.88
519.56	1945.57
519.76	1968.10
519.96	2002.91
520.16	2123.74
520.36	1890.28
520.56	2027.49
520.76	1920.99
520.96	1951.71
521.16	2058.21
521.35	1980.39
521.55	2115.55
521.75	1968.10
521.95	1990.63
522.15	1988.58
522.35	1875.94
522.55	1900.52
522.75	2047.97
522.95	1933.28
523.14	1964.00
523.34	2013.15
523.54	1996.77
523.74	2019.30
523.94	2025.44
524.14	1871.84
524.34	1998.82
524.54	2123.74
524.73	1861.60
524.93	1902.56
525.13	2029.54
525.33	1974.24
525.53	2179.04
525.73	2074.59
525.93	2002.91
526.13	1931.23
526.32	1933.28
526.52	2105.31
526.72	2007.01
526.92	1920.99
527.12	2000.87
527.32	1900.52
527.52	1988.58
527.71	2060.26
527.91	1980.39
528.11	1978.34
528.31	2011.11
528.51	1861.60
528.71	1955.81
528.90	1996.77
529.10	2070.50
529.30	2035.68
529.50	1853.41
529.70	1939.43
529.90	1992.67
530.09	1984.48
530.29	1904.61
530.49	1880.04
530.69	2234.33
530.89	2095.07
531.09	2052.06
531.28	1972.19
531.48	2043.87
531.68	1968.10
531.88	2064.35
532.08	2129.89
532.28	2009.06
532.47	2015.20
532.67	2076.64
532.87	2070.50
533.07	1904.61
533.27	2064.35
533.46	1951.71
533.66	2080.74
533.86	1982.43
534.06	2039.78
534.26	1972.19
534.45	2011.11
534.65	2058.21
534.85	2035.68
535.05	1949.67
535.25	2027.49
535.44	1920.99
535.64	2068.45
535.84	2011.11
536.04	1998.82
536.24	1935.33
536.43	1974.24
536.63	2007.01
536.83	1959.91
537.03	2021.35
537.22	1865.70
537.42	1851.36
537.62	2015.20
537.82	1931.23
538.02	2164.70
538.21	2103.26
538.41	2260.96
538.61	1994.72
538.81	1914.85
539.00	2062.30
539.20	1923.04
539.40	2037.73
539.60	2043.87
539.79	2019.30
539.99	1996.77
540.19	1902.56
540.39	1964.00
540.58	1998.82
540.78	2068.45
540.98	1937.38
541.18	2052.06
541.37	1959.91
541.57	2035.68
541.77	1966.05
541.97	1943.52
542.16	1935.33
542.36	1955.81
542.56	1959.91
542.76	2015.20
542.95	2031.58
543.15	2011.11
543.35	2002.91
543.54	1877.99
543.74	1955.81
543.94	2127.84
544.14	1964.00
544.33	2041.82
544.53	1953.76
544.73	1931.23
544.93	1914.85
545.12	1959.91
545.32	2035.68
545.52	1910.75
545.71	1890.28
545.91	2039.78
546.11	1972.19
546.30	1871.84
546.50	2004.96
546.70	2015.20
546.90	1990.63
547.09	1931.23
547.29	1968.10
547.49	2025.44
547.68	1953.76
547.88	1902.56
548.08	2072.54
548.27	2424.80
548.47	1964.00
548.67	2004.96
548.87	1970.15
549.06	1933.28
549.26	2007.01
549.46	2000.87
549.65	1929.19
549.85	1966.05
550.05	2011.11
550.24	1908.71
550.44	2027.49
550.64	1964.00
550.83	1994.72
551.03	2090.98
551.23	2093.02
551.42	2043.87
551.62	2027.49
551.82	2029.54
552.01	1978.34
552.21	2070.50
552.41	1980.39
552.60	2111.46
552.80	1961.95
553.00	1974.24
553.19	2025.44
553.39	2080.74
553.59	1939.43
553.78	2019.30
553.98	2013.15
554.17	1894.37
554.37	1972.19
554.57	1945.57
554.76	1906.66
554.96	1912.80
555.16	2047.97
555.35	2076.64
555.55	1972.19
555.75	1988.58
555.94	2074.59
556.14	1865.70
556.33	1972.19
556.53	2035.68
556.73	1955.81
556.92	2031.58
557.12	2021.35
557.32	2152.42
557.51	2127.84
557.71	2045.92
557.90	2152.42
558.10	2138.08
558.30	1951.71
558.49	1957.86
558.69	1974.24
558.88	1998.82
559.08	2093.02
559.28	1951.71
559.47	2047.97
559.67	1994.72
559.86	2072.54
560.06	2017.25
560.26	1941.47
560.45	2007.01
560.65	2043.87
560.84	2150.37
561.04	2000.87
561.24	1953.76
561.43	1902.56
561.63	2095.07
561.82	1970.15
562.02	2019.30
562.22	1992.67
562.41	1818.60
562.61	1920.99
562.80	1871.84
563.00	2164.70
563.19	2043.87
563.39	2027.49
563.59	2050.02
563.78	1884.13
563.98	1877.99
564.17	1859.56
564.37	1865.70
564.56	1931.23
564.76	1925.09
564.96	2082.78
565.15	2002.91
565.35	2101.22
565.54	1978.34
565.74	2027.49
565.93	2007.01
566.13	1947.62
566.32	1951.71
566.52	2097.12
566.71	2023.39
566.91	2090.98
567.11	1976.29
567.30	1896.42
567.50	2033.63
567.69	1986.53
567.89	2013.15
568.08	1869.80
568.28	1964.00
568.47	1908.71
568.67	2066.40
568.86	1935.33
569.06	2129.89
569.25	1937.38
569.45	1916.90
569.64	1925.09
569.84	1949.67
570.04	1898.47
570.23	1990.63
570.43	1957.86
570.62	2007.01
570.82	2136.03
571.01	1978.34
571.21	1916.90
571.40	1951.71
571.60	2117.60
571.79	1990.63
571.99	1988.58
572.18	1976.29
572.38	2017.25
572.57	1943.52
572.77	2002.91
572.96	2148.32
573.16	1974.24
573.35	2027.49
573.55	2058.21
573.74	2068.45
573.94	1964.00
574.13	2002.91
574.33	2088.93
574.52	2103.26
574.71	2035.68
574.91	2004.96
575.10	1880.04
575.30	1890.28
575.49	1972.19
575.69	1953.76
575.88	2029.54
576.08	1953.76
576.27	2215.90
576.47	2095.07
576.66	2193.37
576.86	2129.89
577.05	2074.59
577.25	2088.93
577.44	2197.47
577.64	1982.43
577.83	2015.20
578.02	1953.76
578.22	2062.30
578.41	2125.79
578.61	2052.06
578.80	1931.23
579.00	2043.87
579.19	2009.06
579.39	2058.21
579.58	2039.78
579.77	2045.92
579.97	2088.93
580.16	2127.84
580.36	2056.16
580.55	2201.57
580.75	2070.50
580.94	2070.50
581.13	2162.66
581.33	2136.03
581.52	2027.49
581.72	2222.05
581.91	2197.47
582.11	2033.63
582.30	2105.31
582.49	2052.06
582.69	2127.84
582.88	2050.02
583.08	2090.98
583.27	2121.70
583.47	2056.16
583.66	1902.56
583.85	1941.47
584.05	1945.57
584.24	2113.50
584.44	2062.30
584.63	2125.79
584.82	2097.12
585.02	2217.95
585.21	2148.32
585.41	2215.90
585.60	2181.09
585.79	2232.29
585.99	2215.90
586.18	2203.61
586.37	2555.86
586.57	3921.86
586.76	11939.66
586.96	30912.04
587.15	45137.23
587.34	55219.38
587.54	60963.93
587.73	57367.70
587.93	40758.67
588.12	30555.69
588.31	24250.00
588.51	20917.95
588.70	19193.56
588.89	17538.80
589.09	15398.68
589.28	13416.24
589.47	11097.94
589.67	8943.48
589.86	6791.06
590.06	4857.78
590.25	3960.77
590.44	3053.52
590.64	2617.30
590.83	2389.98
591.02	2226.14
591.22	2172.89
591.41	2150.37
591.60	1988.58
591.80	2211.81
591.99	1996.77
592.18	2043.87
592.38	2017.25
592.57	2025.44
592.76	2099.17
592.96	2011.11
593.15	2009.06
593.34	2035.68
593.54	2019.30
593.73	2004.96
593.92	2111.46
594.12	2093.02
594.31	2045.92
594.50	2228.19
594.70	2080.74
594.89	2193.37
595.08	1968.10
595.28	2115.55
595.47	2267.10
595.66	2086.88
595.86	1931.23
596.05	2000.87
596.24	1966.05
596.43	2162.66
596.63	2088.93
596.82	2029.54
597.01	2107.36
597.21	2136.03
597.40	2076.64
597.59	1955.81
597.79	1998.82
597.98	2004.96
598.17	2041.82
598.36	2060.26
598.56	2076.64
598.75	1966.05
598.94	1972.19
599.14	2019.30
599.33	1978.34
599.52	2074.59
599.71	1998.82
599.91	2043.87
600.10	2054.11
600.29	2066.40
600.48	2009.06
600.68	2015.20
600.87	1931.23
601.06	1914.85
601.26	1953.76
601.45	2031.58
601.64	1976.29
601.83	2115.55
602.03	1966.05
602.22	1935.33
602.41	1976.29
602.60	2168.80
602.80	2086.88
602.99	2074.59
603.18	1998.82
603.37	2027.49
603.57	2009.06
603.76	2066.40
603.95	2062.30
604.14	2013.15
604.34	2004.96
604.53	2031.58
604.72	1966.05
604.91	2043.87
605.10	2086.88
605.30	1906.66
605.49	2183.13
605.68	2027.49
605.87	1974.24
606.07	1947.62
606.26	2009.06
606.45	2011.11
606.64	2066.40
606.84	1867.75
607.03	2064.35
607.22	2086.88
607.41	1968.10
607.60	2039.78
607.80	2035.68
607.99	2078.69
608.18	1992.67
608.37	1976.29
608.56	1986.53
608.76	2068.45
608.95	2168.80
609.14	2019.30
609.33	2068.45
609.52	2187.23
609.72	2101.22
609.91	2113.50
610.10	2170.85
610.29	2176.99
610.48	2047.97
610.68	2070.50
610.87	2039.78
611.06	2019.30
611.25	1937.38
611.44	2127.84
611.63	1978.34
611.83	2140.13
612.02	1914.85
612.21	2088.93
612.40	1877.99
612.59	1941.47
612.79	1945.57
612.98	1957.86
613.17	2033.63
613.36	1986.53
613.55	2140.13
613.74	2062.30
613.93	2205.66
614.13	2181.09
614.32	2320.35
614.51	2199.52
614.70	2097.12
614.89	2150.37
615.08	2080.74
615.28	2426.84
615.47	1914.85
615.66	2050.02
615.85	2093.02
616.04	2090.98
616.23	2113.50
616.42	2037.73
616.62	2105.31
616.81	2011.11
617.00	2013.15
617.19	2019.30
617.38	2009.06
617.57	2021.35
617.76	1996.77
617.95	2039.78
618.15	2072.54
618.34	2146.27
618.53	1894.37
618.72	2002.91
618.91	2142.18
619.10	2082.78
619.29	1968.10
619.48	1949.67
619.68	1957.86
619.87	2025.44
620.06	1873.89
620.25	2000.87
620.44	1980.39
620.63	2013.15
620.82	1996.77
621.01	2023.39
621.20	1953.76
621.39	2021.35
621.59	2054.11
621.78	1998.82
621.97	2002.91
622.16	2105.31
622.35	1966.05
622.54	2068.45
622.73	2076.64
622.92	1908.71
623.11	2009.06
623.30	1970.15
623.49	2076.64
623.68	1966.05
623.88	2160.61
624.07	1992.67
624.26	1951.71
624.45	1994.72
624.64	1968.10
624.83	1943.52
625.02	1920.99
625.21	2021.35
625.40	2021.35
625.59	2047.97
625.78	1941.47
625.97	2109.41
626.16	2138.08
626.35	2121.70
626.54	2011.11
626.74	2125.79
626.93	2002.91
627.12	2025.44
627.31	2076.64
627.50	2066.40
627.69	2031.58
627.88	1955.81
628.07	1980.39
628.26	1910.75
628.45	1955.81
628.64	1951.71
628.83	2013.15
629.02	1884.13
629.21	2031.58
629.40	1982.43
629.59	1976.29
629.78	2002.91
629.97	1955.81
630.16	1976.29
630.35	2039.78
630.54	2002.91
630.73	1908.71
630.92	1933.28
631.11	1877.99
631.30	1910.75
631.49	2080.74
631.68	1984.48
631.87	2054.11
632.06	1904.61
632.25	2234.33
632.44	1994.72
632.63	1974.24
632.82	2045.92
633.01	2103.26
633.20	2090.98
633.39	2111.46
633.58	1976.29
633.77	2035.68
633.96	2070.50
634.15	2080.74
634.34	2066.40
634.53	2072.54
634.72	1988.58
634.91	1953.76
635.10	2068.45
635.29	2025.44
635.48	2025.44
635.67	1906.66
635.86	1910.75
636.05	2043.87
636.24	2013.15
636.43	1988.58
636.62	2041.82
636.81	1791.97
637.00	1939.43
637.19	1976.29
637.38	1918.95
637.57	1978.34
637.76	2113.50
637.95	2133.98
638.14	2082.78
638.33	2125.79
638.52	2148.32
638.71	2029.54
638.89	1853.41
639.08	2142.18
639.27	2119.65
639.46	2160.61
639.65	2537.43
639.84	2670.55
640.03	2820.05
640.22	2697.17
640.41	2779.09
640.60	2314.20
640.79	2402.27
640.98	2127.84
641.17	2291.68
641.36	2201.57
641.55	2222.05
641.74	2000.87
641.92	2017.25
642.11	2078.69
642.30	1998.82
642.49	1992.67
642.68	1992.67
642.87	1998.82
643.06	2031.58
643.25	1925.09
643.44	1980.39
643.63	1914.85
643.82	2074.59
644.00	1933.28
644.19	2007.01
644.38	1877.99
644.57	1990.63
644.76	1978.34
644.95	1943.52
645.14	2033.63
645.33	1920.99
645.52	1951.71
645.71	1849.32
645.89	1900.52
646.08	1964.00
646.27	1927.14
646.46	2105.31
646.65	1886.18
646.84	1978.34
647.03	1964.00
647.22	2031.58
647.40	2011.11
647.59	1886.18
647.78	1859.56
647.97	1849.32
648.16	1937.38
648.35	2054.11
648.54	2023.39
648.73	1957.86
648.91	2054.11
649.10	1929.19
649.29	1953.76
649.48	2023.39
649.67	2023.39
649.86	1982.43
650.05	2039.78
650.23	2234.33
650.42	2074.59
650.61	2271.20
650.80	2222.05
650.99	2211.81
651.18	2189.28
651.36	2107.36
651.55	1966.05
651.74	2088.93
651.93	1916.90
652.12	1982.43
652.31	2043.87
652.49	1972.19
652.68	1957.86
652.87	2082.78
653.06	2015.20
653.25	2125.79
653.44	2033.63
653.62	2166.75
653.81	1945.57
654.00	1974.24
654.19	2084.83
654.38	2199.52
654.56	2017.25
654.75	1961.95
654.94	1945.57
655.13	1959.91
655.32	2025.44
655.51	2033.63
655.69	1900.52
655.88	2080.74
656.07	1910.75
656.26	1943.52
656.45	1816.55
656.63	1994.72
656.82	2025.44
657.01	2058.21
657.20	1912.80
657.38	2123.74
657.57	2007.01
657.76	1869.80
657.95	2025.44
658.14	1918.95
658.32	1941.47
658.51	1902.56
658.70	2002.91
658.89	1949.67
659.08	1931.23
659.26	2093.02
659.45	1935.33
659.64	1974.24
659.83	1976.29
660.01	2299.87
660.20	2054.11
660.39	2086.88
660.58	1808.36
660.76	2017.25
660.95	1886.18
661.14	2002.91
661.33	1925.09
661.51	1986.53
661.70	1976.29
661.89	2017.25
662.08	1888.23
662.26	1906.66
662.45	1988.58
662.64	2050.02
662.83	2037.73
663.01	1890.28
663.20	1900.52
663.39	1998.82
663.58	1943.52
663.76	1996.77
663.95	2062.30
664.14	1961.95
664.32	1933.28
664.51	2013.15
664.70	1871.84
664.89	1968.10
665.07	1867.75
665.26	2095.07
665.45	1914.85
665.64	2004.96
665.82	1914.85
666.01	2099.17
666.20	1970.15
666.38	2156.51
666.57	2174.94
666.76	2787.29
666.95	6721.43
667.13	15042.33
667.32	21116.61
667.51	24891.01
667.69	27344.48
667.88	26244.72
668.07	18517.73
668.25	14679.84
668.44	11872.07
668.63	10053.48
668.81	8849.27
669.00	7763.85
669.19	7008.15
669.38	6201.25
669.56	5207.98
669.75	4452.28
669.94	3717.06
670.12	3037.14
670.31	2693.08
670.50	2437.08
670.68	2271.20
670.87	2138.08
671.06	2093.02
671.24	2097.12
671.43	2164.70
671.62	2068.45
671.80	2043.87
671.99	2088.93
672.18	2050.02
672.36	2017.25
672.55	2017.25
672.74	1957.86
672.92	1978.34
673.11	2047.97
673.29	1918.95
673.48	2058.21
673.67	1920.99
673.85	2080.74
674.04	1992.67
674.23	1949.67
674.41	2074.59
674.60	1877.99
674.79	1945.57
674.97	1949.67
675.16	2009.06
675.34	2080.74
675.53	1984.48
675.72	2025.44
675.90	2107.36
676.09	1937.38
676.28	2023.39
676.46	1875.94
676.65	1920.99
676.83	1896.42
677.02	1998.82
677.21	2029.54
677.39	1947.62
677.58	1945.57
677.77	1898.47
677.95	1882.08
678.14	1988.58
678.32	1933.28
678.51	1894.37
678.70	2123.74
678.88	1910.75
679.07	1986.53
679.25	1859.56
679.44	1955.81
679.63	1873.89
679.81	1882.08
680.00	2064.35
680.18	2007.01
680.37	2082.78
680.55	1933.28
680.74	1791.97
680.93	1855.46
681.11	1920.99
681.30	1904.61
681.48	2017.25
681.67	1900.52
681.85	1920.99
682.04	1943.52
682.23	2154.46
682.41	1912.80
682.60	1884.13
682.78	2068.45
682.97	1853.41
683.15	1931.23
683.34	1898.47
683.53	2064.35
683.71	1914.85
683.90	2060.26
684.08	2105.31
684.27	1990.63
684.45	2000.87
684.64	2093.02
684.82	2007.01
685.01	1990.63
685.19	1947.62
685.38	2117.60
685.57	1939.43
685.75	1953.76
685.94	1945.57
686.12	1959.91
686.31	1898.47
686.49	2111.46
686.68	1855.46
686.86	1984.48
687.05	1935.33
687.23	2129.89
687.42	1945.57
687.60	1837.03
687.79	1972.19
687.97	2084.83
688.16	2068.45
688.34	2090.98
688.53	1853.41
688.71	1996.77
688.90	2111.46
689.08	1923.04
689.27	1851.36
689.45	2041.82
689.64	1988.58
689.82	2068.45
690.01	1990.63
690.19	1941.47
690.38	2023.39
690.56	2062.30
690.75	1929.19
690.93	1908.71
691.12	1953.76
691.30	1947.62
691.49	1890.28
691.67	1984.48
691.86	2113.50
692.04	1970.15
692.23	1970.15
692.41	1994.72
692.60	2166.75
692.78	2029.54
692.97	2035.68
693.15	2041.82
693.34	2117.60
693.52	2090.98
693.71	1961.95
693.89	1935.33
694.08	1877.99
694.26	2015.20
694.44	2066.40
694.63	2086.88
694.81	1925.09
695.00	1925.09
695.18	2115.55
695.37	2181.09
695.55	1929.19
695.74	1961.95
695.92	1839.08
696.10	2093.02
696.29	1810.40
696.47	1939.43
696.66	1855.46
696.84	1873.89
697.03	1918.95
697.21	2060.26
697.40	2766.81
697.58	2082.78
697.76	1957.86
697.95	1890.28
698.13	1910.75
698.32	1935.33
698.50	1996.77
698.68	2011.11
698.87	1980.39
699.05	1986.53
699.24	1996.77
699.42	1918.95
699.61	1933.28
699.79	2009.06
699.97	1925.09
700.16	1845.22
700.34	1859.56
700.53	1968.10
700.71	2064.35
700.89	2033.63
701.08	1935.33
701.26	1927.14
701.45	2443.23
701.63	1896.42
701.81	1847.27
702.00	1916.90
702.18	1968.10
702.37	2009.06
702.55	2113.50
702.73	2228.19
702.92	2125.79
703.10	2303.96
703.28	2287.58
703.47	2095.07
703.65	2209.76
703.84	2121.70
704.02	2007.01
704.20	2234.33
704.39	2004.96
704.57	1986.53
704.75	2009.06
704.94	2093.02
705.12	2074.59
705.30	2179.04
705.49	3659.72
705.67	8937.34
705.86	18362.09
706.04	22820.52
706.22	26793.58
706.41	28483.15
706.59	25298.56
706.77	17960.69
706.96	14599.97
707.14	12580.67
707.32	10960.73
707.51	9602.93
707.69	8040.33
707.87	6606.75
708.06	5185.46
708.24	4149.18
708.42	3151.82
708.61	2834.39
708.79	2369.50
708.97	2226.14
709.16	2183.13
709.34	2041.82
709.52	1941.47
709.71	1980.39
709.89	2086.88
710.07	1947.62
710.26	1961.95
710.44	1998.82
710.62	2043.87
710.80	2002.91
710.99	1951.71
711.17	2017.25
711.35	1914.85
711.54	1923.04
711.72	2095.07
711.90	2007.01
712.09	2015.20
712.27	1908.71
712.45	2021.35
712.63	1937.38
712.82	1931.23
713.00	1941.47
713.18	2109.41
713.37	2033.63
713.55	1945.57
713.73	2002.91
713.91	1949.67
714.10	1933.28
714.28	1945.57
714.46	1994.72
714.65	1906.66
714.83	1953.76
715.01	1931.23
715.19	1959.91
715.38	1906.66
715.56	2039.78
715.74	1884.13
715.92	1949.67
716.11	2060.26
716.29	1880.04
716.47	1898.47
716.65	1978.34
716.84	1894.37
717.02	2058.21
717.20	1900.52
717.38	1939.43
717.57	1982.43
717.75	2033.63
717.93	1900.52
718.11	1931.23
718.30	1882.08
718.48	2060.26
718.66	2062.30
718.84	2000.87
719.03	1937.38
719.21	1832.93
719.39	2099.17
719.57	1974.24
719.75	2011.11
719.94	1882.08
720.12	1970.15
720.30	1996.77
720.48	2015.20
720.67	1937.38
720.85	1834.98
721.03	1908.71
721.21	1900.52
721.39	2084.83
721.58	2082.78
721.76	1861.60
721.94	1982.43
722.12	2002.91
722.30	2068.45
722.49	1832.93
722.67	1968.10
722.85	1964.00
723.03	1871.84
723.21	1892.32
723.40	2037.73
723.58	2072.54
723.76	2052.06
723.94	2115.55
724.12	2013.15
724.30	2222.05
724.49	2064.35
724.67	1949.67
724.85	2033.63
725.03	1953.76
725.21	2058.21
725.40	2082.78
725.58	1941.47
725.76	2109.41
725.94	1986.53
726.12	1955.81
726.30	1968.10
726.49	1984.48
726.67	1986.53
726.85	1990.63
727.03	2129.89
727.21	3098.58
727.39	4689.85
727.57	5973.92
727.76	6657.95
727.94	7192.47
728.12	7102.36
728.30	5697.45
728.48	4683.70
728.66	4284.35
728.84	3846.09
729.03	3348.43
729.21	3014.61
729.39	2510.81
729.57	2338.78
729.75	2183.13
729.93	2105.31
730.11	2041.82
730.30	2013.15
730.48	1929.19
730.66	2054.11
730.84	2033.63
731.02	2047.97
731.20	1867.75
731.38	1966.05
731.56	1828.84
731.74	2007.01
731.93	2045.92
732.11	1892.32
732.29	1869.80
732.47	2021.35
732.65	2000.87
732.83	2103.26
733.01	2060.26
733.19	1961.95
733.37	1996.77
733.56	1927.14
733.74	2017.25
733.92	1978.34
734.10	1964.00
734.28	1984.48
734.46	1814.50
734.64	1959.91
734.82	1968.10
735.00	1873.89
735.18	1931.23
735.36	1943.52
735.54	1929.19
735.73	2009.06
735.91	2037.73
736.09	1992.67
736.27	1961.95
736.45	1943.52
736.63	1834.98
736.81	1904.61
736.99	2047.97
737.17	2070.50
737.35	1947.62
737.53	1974.24
737.71	1976.29
737.89	2031.58
738.07	1953.76
738.25	1867.75
738.43	1855.46
738.61	2000.87
738.80	1875.94
738.98	1875.94
739.16	1935.33
739.34	1908.71
739.52	2086.88
739.70	1959.91
739.88	1996.77
740.06	2025.44
740.24	1849.32
740.42	2017.25
740.60	1824.74
740.78	1908.71
740.96	1845.22
741.14	1947.62
741.32	1980.39
741.50	1972.19
741.68	2090.98
741.86	2015.20
742.04	1908.71
742.22	1898.47
742.40	2025.44
742.58	2004.96
742.76	2025.44
742.94	2009.06
743.12	1837.03
743.30	2027.49
743.48	1978.34
743.66	1925.09
743.84	2033.63
744.02	2029.54
744.20	1978.34
744.38	1857.51
744.56	1898.47
744.74	2109.41
744.92	2023.39
745.10	2039.78
745.28	2056.16
745.46	2131.94
745.64	1933.28
745.82	1961.95
746.00	1964.00
746.18	1955.81
746.36	1902.56
746.54	1931.23
746.72	1949.67
746.90	1898.47
747.08	2045.92
747.26	1925.09
747.44	1980.39
747.62	2068.45
747.80	1953.76
747.98	2076.64
748.15	1896.42
748.33	2121.70
748.51	1943.52
748.69	2023.39
748.87	1970.15
749.05	2009.06
749.23	1955.81
749.41	2076.64
749.59	1961.95
749.77	1953.76
749.95	1972.19
750.13	1916.90
750.31	2062.30
750.49	1970.15
750.67	2017.25
750.85	2031.58
751.03	2009.06
751.20	2138.08
751.38	1927.14
751.56	1890.28
751.74	1988.58
751.92	1931.23
752.10	1853.41
752.28	2021.35
752.46	1986.53
752.64	1861.60
752.82	1880.04
753.00	2035.68
753.18	2009.06
753.35	1910.75
753.53	1945.57
753.71	1972.19
753.89	1996.77
754.07	1914.85
754.25	1935.33
754.43	1931.23
754.61	1927.14
754.79	1961.95
754.97	1871.84
755.14	2090.98
755.32	1857.51
755.50	2007.01
755.68	2013.15
755.86	1900.52
756.04	1869.80
756.22	1890.28
756.40	2017.25
756.57	2037.73
756.75	1933.28
756.93	2050.02
757.11	2047.97
757.29	1927.14
757.47	1957.86
757.65	1837.03
757.82	1834.98
758.00	1875.94
758.18	1894.37
758.36	1896.42
758.54	1994.72
758.72	1822.69
758.90	2031.58
759.07	1964.00
759.25	1937.38
759.43	2058.21
759.61	1830.88
759.79	2549.72
759.97	2029.54
760.15	1945.57
760.32	1961.95
760.50	1845.22
760.68	2113.50
760.86	1808.36
761.04	2000.87
761.22	1970.15
761.39	1931.23
761.57	1941.47
761.75	1961.95
761.93	1980.39
762.11	1976.29
762.28	1951.71
762.46	1964.00
762.64	2035.68
762.82	1880.04
763.00	1923.04
763.18	2029.54
763.35	1865.70
763.53	1955.81
763.71	1990.63
763.89	1964.00
764.07	1980.39
764.24	2047.97
764.42	2082.78
764.60	1927.14
764.78	1961.95
764.96	2052.06
765.13	2039.78
765.31	1888.23
765.49	1998.82
765.67	1849.32
765.84	1935.33
766.02	1884.13
766.20	1822.69
766.38	1943.52
766.56	1957.86
766.73	2017.25
766.91	1935.33
767.09	1920.99
767.27	2023.39
767.44	1824.74
767.62	1955.81
767.80	1906.66
767.98	1918.95
768.15	1918.95
768.33	1955.81
768.51	2052.06
768.69	2002.91
768.87	1998.82
769.04	1908.71
769.22	2150.37
769.40	2109.41
769.58	2111.46
769.75	2033.63
769.93	2002.91
770.11	1935.33
770.28	1959.91
770.46	2023.39
770.64	1929.19
770.82	1916.90
770.99	1970.15
771.17	1959.91
771.35	1902.56
771.53	1894.37
771.70	1966.05
771.88	1988.58
772.06	1990.63
772.23	1943.52
772.41	1990.63
772.59	1959.91
772.77	1865.70
772.94	1970.15
773.12	1882.08
773.30	1916.90
773.47	1984.48
773.65	1826.79
773.83	2015.20
774.01	1904.61
774.18	1849.32
774.36	1986.53
774.54	1929.19
774.71	1929.19
774.89	1869.80
775.07	1863.65
775.24	1888.23
775.42	2015.20
775.60	2078.69
775.78	1902.56
775.95	1896.42
776.13	1880.04
776.31	1845.22
776.48	1943.52
776.66	2084.83
776.84	1892.32
777.01	1916.90
777.19	1910.75
777.37	1877.99
777.54	1998.82
777.72	2119.65
777.90	2021.35
778.07	1951.71
778.25	2207.71
778.43	2039.78
778.60	1857.51
778.78	1867.75
778.96	2037.73
779.13	1861.60
779.31	2037.73
779.49	1888.23
779.66	1980.39
779.84	1896.42
780.01	1968.10
780.19	1894.37
780.37	1970.15
780.54	2019.30
780.72	1910.75
780.90	1863.65
781.07	1931.23
781.25	1925.09
781.43	2000.87
781.60	1935.33
781.78	2058.21
781.95	1976.29
782.13	1896.42
782.31	1947.62
782.48	1736.68
782.66	1941.47
782.83	2088.93
783.01	1892.32
783.19	2025.44
783.36	2002.91
783.54	1882.08
783.72	2011.11
783.89	1882.08
784.07	2007.01
784.24	1984.48
784.42	2033.63
784.60	1882.08
784.77	1992.67
784.95	1804.26
785.12	1906.66
785.30	2007.01
785.47	1978.34
785.65	1884.13
785.83	1882.08
786.00	1931.23
786.18	1982.43
786.35	1832.93
786.53	1906.66
786.71	2039.78
786.88	1941.47
787.06	1992.67
787.23	1968.10
787.41	1873.89
787.58	1857.51
787.76	1877.99
787.94	1982.43
788.11	2017.25
788.29	1929.19
788.46	1964.00
788.64	1875.94
788.81	1972.19
788.99	1966.05
789.16	1781.73
789.34	1882.08
789.52	1882.08
789.69	1992.67
789.87	1843.17
790.04	1867.75
790.22	1908.71
790.39	2101.22
790.57	1871.84
790.74	1994.72
790.92	1961.95
791.09	1822.69
791.27	1906.66
791.44	2015.20
791.62	1929.19
791.79	1951.71
791.97	1984.48
792.15	2242.53
792.32	2019.30
792.50	1961.95
792.67	2140.13
792.85	2015.20
793.02	1927.14
793.20	1927.14
793.37	1849.32
793.55	1984.48
793.72	1855.46
793.90	1998.82
794.07	1929.19
794.25	1964.00
794.42	1935.33
794.60	1947.62
794.77	2007.01
794.95	2023.39
795.12	1947.62
795.30	1951.71
795.47	1847.27
795.65	2115.55
795.82	2035.68
796.00	1884.13
796.17	1939.43
796.34	1851.36
796.52	2031.58
796.69	2033.63
796.87	2002.91
797.04	2078.69
797.22	2090.98
797.39	2025.44
797.57	2004.96
797.74	1931.23
797.92	1964.00
798.09	1910.75
798.27	2099.17
798.44	1970.15
798.62	1908.71
798.79	1925.09
798.96	2035.68
799.14	1892.32
799.31	2144.22
799.49	1925.09
799.66	1898.47
799.84	1984.48
800.01	1861.60
800.19	1910.75
800.36	1896.42
800.53	1978.34
800.71	1951.71
800.88	2088.93
801.06	1894.37
801.23	1939.43
801.41	1920.99
801.58	1863.65
801.75	1906.66
801.93	2004.96
802.10	2029.54
802.28	1898.47
802.45	1923.04
802.63	2025.44
802.80	2095.07
802.97	1904.61
803.15	1941.47
803.32	1925.09
803.50	1925.09
803.67	1976.29
803.84	2013.15
804.02	1990.63
804.19	1916.90
804.37	1855.46
804.54	1914.85
804.71	2082.78
804.89	1886.18
805.06	1892.32
805.24	1880.04
805.41	1931.23
805.58	1863.65
805.76	2142.18
805.93	1914.85
806.10	2078.69
806.28	1939.43
806.45	1953.76
806.63	2009.06
806.80	1964.00
806.97	1959.91
807.15	2021.35
807.32	1888.23
807.49	2007.01
807.67	1904.61
807.84	1990.63
808.01	1884.13
808.19	2080.74
808.36	2105.31
808.54	1949.67
808.71	1902.56
808.88	1978.34
809.06	2056.16
809.23	2033.63
809.40	1855.46
809.58	2002.91
809.75	1927.14
809.92	1970.15
810.10	2205.66
810.27	2027.49
810.44	2019.30
810.62	1953.76
810.79	2029.54
810.96	1857.51
811.14	1890.28
811.31	2015.20
811.48	1980.39
811.66	1912.80
811.83	2103.26
812.00	1988.58
812.18	2054.11
812.35	2074.59
812.52	1974.24
812.69	1947.62
812.87	1933.28
813.04	1927.14
813.21	1927.14
813.39	1886.18
813.56	1869.80
813.73	1959.91
813.91	1896.42
814.08	1978.34
814.25	2011.11
814.42	1877.99
814.60	1927.14
814.77	1918.95
814.94	1925.09
815.12	1951.71
815.29	2015.20
815.46	1830.88
815.63	1980.39
815.81	1964.00
815.98	1953.76
816.15	1992.67
816.33	1980.39
816.50	1927.14
816.67	1933.28
816.84	1900.52
817.02	1841.12
817.19	1947.62
817.36	1982.43
817.53	1974.24
817.71	1808.36
817.88	1923.04
818.05	1976.29
818.22	1847.27
818.40	2095.07
818.57	1937.38
818.74	2035.68
818.91	1949.67
819.09	1947.62
819.26	2070.50
819.43	1959.91
819.60	1851.36
819.78	2023.39
819.95	2043.87
820.12	1857.51
820.29	2064.35
820.47	1972.19
820.64	1890.28
820.81	1867.75
820.98	1830.88
821.15	1929.19
821.33	2009.06
821.50	1873.89
821.67	1959.91
821.84	1914.85
822.02	1990.63
822.19	1974.24
822.36	1935.33
822.53	1908.71
822.70	1849.32
822.88	1929.19
823.05	2033.63
823.22	1945.57
823.39	2019.30
823.56	1964.00
823.74	2095.07
823.91	1871.84
824.08	1857.51
824.25	1890.28
824.42	2039.78
824.60	1837.03
824.77	2000.87
824.94	1961.95
825.11	2009.06
825.28	1937.38
825.45	1945.57
825.63	2041.82
825.80	1882.08
825.97	1964.00
826.14	1943.52
826.31	1886.18
826.48	2095.07
826.66	1947.62
826.83	1923.04
827.00	1896.42
827.17	1828.84
827.34	1902.56
827.51	1896.42
827.69	1964.00
827.86	1914.85
828.03	1927.14
828.20	2033.63
828.37	1957.86
828.54	2004.96
828.71	1916.90
828.89	2017.25
829.06	2045.92
829.23	2093.02
829.40	1976.29
829.57	1978.34
829.74	1972.19
829.91	1929.19
830.09	1904.61
830.26	2013.15
830.43	2080.74
830.60	1943.52
830.77	2078.69
830.94	1988.58
831.11	1970.15
831.28	1984.48
831.46	2033.63
831.63	1923.04
831.80	1976.29
831.97	2023.39
832.14	1920.99
832.31	2037.73
832.48	1949.67
832.65	2041.82
832.82	1941.47
832.99	1970.15
833.17	1957.86
833.34	1998.82
833.51	1955.81
833.68	1773.54
833.85	1988.58
834.02	1789.92
834.19	1859.56
834.36	1882.08
834.53	1976.29
834.70	2019.30
834.87	2033.63
835.04	1957.86
835.22	1902.56
835.39	1916.90
835.56	1896.42
835.73	1853.41
835.90	2009.06
836.07	1984.48
836.24	2031.58
836.41	1845.22
836.58	1900.52
836.75	2062.30
836.92	2023.39
837.09	1992.67
837.26	1982.43
837.43	2023.39
837.60	1959.91
837.77	1900.52
837.94	2031.58
838.12	2027.49
838.29	1966.05
838.46	1804.26
838.63	1834.98
838.80	2023.39
838.97	1951.71
839.14	1972.19
839.31	1964.00
839.48	2037.73
839.65	1920.99
839.82	2017.25
839.99	1918.95
840.16	1957.86
840.33	1900.52
840.50	1892.32
840.67	1857.51
840.84	1863.65
841.01	2000.87
841.18	1923.04
841.35	1906.66
841.52	1996.77
841.69	2101.22
841.86	1896.42
842.03	1945.57
842.20	2015.20
842.37	2023.39
842.54	1974.24
842.71	1992.67
842.88	1857.51
843.05	2011.11
843.22	1925.09
843.39	1986.53
843.56	1978.34
843.73	1949.67
843.90	1996.77
844.07	1935.33
844.24	2019.30
844.41	1980.39
844.58	1890.28
844.75	1941.47
844.92	2011.11
845.09	1892.32
845.26	1955.81
845.43	2007.01
845.60	1927.14
845.77	1959.91
845.94	1929.19
846.10	2033.63
846.27	1906.66
846.44	1906.66
846.61	1904.61
846.78	2031.58
846.95	2045.92
847.12	1908.71
847.29	1939.43
847.46	1890.28
847.63	1988.58
847.80	1904.61
847.97	1882.08
848.14	2119.65
848.31	1976.29
848.48	1857.51
848.65	1945.57
848.82	1918.95
848.98	2088.93
849.15	1994.72
849.32	2025.44
849.49	1986.53
849.66	1867.75
849.83	1968.10
850.00	1818.60
850.17	2045.92
850.34	1894.37
850.51	1834.98
850.68	1933.28
850.85	2050.02
851.01	1984.48
851.18	1951.71
851.35	1959.91
851.52	2050.02
851.69	1980.39
851.86	1875.94
852.03	1941.47
852.20	1998.82
852.37	1943.52
852.53	1869.80
852.70	1951.71
852.87	1923.04
853.04	1984.48
853.21	1855.46
853.38	2004.96
853.55	2072.54
853.72	2066.40
853.89	1898.47
854.05	1898.47
854.22	1947.62
854.39	1902.56
854.56	2007.01
854.73	2090.98
854.90	1908.71
855.07	1978.34
855.23	1904.61
855.40	1904.61
855.57	1908.71
855.74	1830.88
855.91	2172.89
856.08	1869.80
856.25	1900.52
856.41	1923.04
856.58	1976.29
856.75	1929.19
856.92	1855.46
857.09	2021.35
857.26	1851.36
857.42	1959.91
857.59	1955.81
857.76	1888.23
857.93	1941.47
858.10	1947.62
858.27	1972.19
858.43	2009.06
858.60	1824.74
858.77	1898.47
858.94	1894.37
859.11	2025.44
859.27	1912.80
859.44	1914.85
859.61	2060.26
859.78	2025.44
859.95	1992.67
860.12	1826.79
860.28	2117.60
860.45	2152.42
860.62	1918.95
860.79	1925.09
860.95	2023.39
861.12	1923.04
861.29	1861.60
861.46	1923.04
861.63	1910.75
861.79	1929.19
861.96	1834.98
862.13	1869.80
862.30	2070.50
862.47	1869.80
862.63	1779.68
862.80	2013.15
862.97	2009.06
863.14	1998.82
863.30	1916.90
863.47	1920.99
863.64	2041.82
863.81	1927.14
863.97	1925.09
864.14	1916.90
864.31	1875.94
864.48	1927.14
864.65	1957.86
864.81	2093.02
864.98	1918.95
865.15	2031.58
865.32	1972.19
865.48	2027.49
865.65	2117.60
865.82	1908.71
865.98	1972.19
866.15	1955.81
866.32	1939.43
866.49	1982.43
866.65	2023.39
866.82	1933.28
866.99	1964.00
867.16	1939.43
867.32	1839.08
867.49	1914.85
867.66	1931.23
867.83	1927.14
867.99	1882.08
868.16	1959.91
868.33	1935.33
868.49	1949.67
868.66	1904.61
868.83	1982.43
868.99	2007.01
869.16	1910.75
869.33	1988.58
869.50	2074.59
869.66	1964.00
869.83	1980.39
870.00	1855.46
870.16	1955.81
870.33	1910.75
870.50	2033.63
870.66	1947.62
870.83	2058.21
871.00	1918.95
871.17	1986.53
871.33	1908.71
871.50	1996.77
871.67	1966.05
871.83	1855.46
872.00	2109.41
872.17	1923.04
872.33	2111.46
872.50	2050.02
872.67	1894.37
872.83	1855.46
873.00	1980.39
873.17	1902.56
873.33	2011.11
873.50	1939.43
873.67	1898.47
873.83	1923.04
874.00	1920.99
874.16	2017.25
874.33	1947.62
874.50	1935.33
874.66	1896.42
874.83	1937.38
875.00	2002.91
875.16	1968.10
875.33	2043.87
875.50	1771.49
875.66	1972.19
875.83	1937.38
875.99	2019.30
876.16	1945.57
876.33	1867.75
876.49	2017.25
876.66	2037.73
876.83	1925.09
876.99	1814.50
877.16	1959.91
877.32	1896.42
877.49	1943.52
877.66	1955.81
877.82	2095.07
877.99	1970.15
878.15	1990.63
878.32	1974.24
878.49	2050.02
878.65	1937.38
878.82	2095.07
878.98	1929.19
879.15	2009.06
879.32	2056.16
879.48	1955.81
879.65	1937.38
879.81	1949.67
879.98	1923.04
880.15	1853.41
880.31	2023.39
880.48	1839.08
880.64	1982.43
880.81	2013.15
880.97	1970.15
881.14	2037.73
881.31	1861.60
881.47	2117.60
881.64	1970.15
881.80	1877.99
881.97	2039.78
882.13	2027.49
882.30	1875.94
882.47	1855.46
882.63	1894.37
882.80	1923.04
882.96	1900.52
883.13	2101.22
883.29	1910.75
883.46	1925.09
883.62	2064.35
883.79	1970.15
883.95	1998.82
884.12	1906.66
884.29	2064.35
884.45	1984.48
884.62	2011.11
884.78	1843.17
884.95	2033.63
885.11	1961.95
885.28	1927.14
885.44	1900.52
885.61	2004.96
885.77	2136.03
885.94	1951.71
886.10	1904.61
886.27	1972.19
886.43	2115.55
886.60	2031.58
886.76	1945.57
886.93	1875.94
887.09	1980.39
887.26	1877.99
887.42	1933.28
887.59	1980.39
887.75	2068.45
887.92	2033.63
888.08	2004.96
888.25	2076.64
888.41	2068.45
888.58	1933.28
888.74	1910.75
888.91	1941.47
>>>>>End Processed Spectral Data<<<<<
