SpectraSuite Data File
++++++++++++++++++++++++++++++++++++
Date: Wed May 04 22:45:21 CEST 2016
User: root
Dark Spectrum Present: No
Reference Spectrum Present: No
Number of Sampled Component Spectra: 1
Spectrometers: USB4C02835
Integration Time (usec): 100000 (USB4C02835)
Spectra Averaged: 1 (USB4C02835)
Boxcar Smoothing: 0 (USB4C02835)
Correct for Electrical Dark: No (USB4C02835)
Strobe/Lamp Enabled: No (USB4C02835)
Correct for Detector Non-linearity: No (USB4C02835)
Correct for Stray Light: No (USB4C02835)
Number of Pixels in Processed Spectrum: 3648
>>>>>Begin Processed Spectral Data<<<<<
177.47	1621.99
177.69	1621.99
177.91	1621.99
178.13	1613.80
178.36	1656.81
178.58	1945.57
178.80	1939.43
179.02	1890.28
179.24	1886.18
179.46	1898.47
179.68	2013.15
179.90	1877.99
180.13	1916.90
180.35	1855.46
180.57	1933.28
180.79	2004.96
181.01	1947.62
181.23	1961.95
181.45	1941.47
181.67	2029.54
181.90	2007.01
182.12	1953.76
182.34	1849.32
182.56	1964.00
182.78	1943.52
183.00	1970.15
183.22	1996.77
183.44	1802.21
183.66	2179.04
183.89	2019.30
184.11	1912.80
184.33	2060.26
184.55	2080.74
184.77	1884.13
184.99	1990.63
185.21	1951.71
185.43	2236.38
185.65	1841.12
185.87	1916.90
186.10	2078.69
186.32	2140.13
186.54	1943.52
186.76	2004.96
186.98	2084.83
187.20	1984.48
187.42	1970.15
187.64	1841.12
187.86	1988.58
188.08	1976.29
188.30	1884.13
188.52	1914.85
188.75	2021.35
188.97	2004.96
189.19	1970.15
189.41	1959.91
189.63	1951.71
189.85	1939.43
190.07	1818.60
190.29	1865.70
190.51	1974.24
190.73	1894.37
190.95	2000.87
191.17	1890.28
191.39	1826.79
191.61	1941.47
191.84	1923.04
192.06	1931.23
192.28	1791.97
192.50	2115.55
192.72	1945.57
192.94	1908.71
193.16	2029.54
193.38	1996.77
193.60	1882.08
193.82	1941.47
194.04	2047.97
194.26	1961.95
194.48	1933.28
194.70	1894.37
194.92	1908.71
195.14	1966.05
195.36	1894.37
195.58	1914.85
195.80	1970.15
196.02	1943.52
196.24	1935.33
196.46	1933.28
196.69	1867.75
196.91	2074.59
197.13	1884.13
197.35	1953.76
197.57	2090.98
197.79	2009.06
198.01	1978.34
198.23	2031.58
198.45	1970.15
198.67	1863.65
198.89	1970.15
199.11	1986.53
199.33	1886.18
199.55	1837.03
199.77	1937.38
199.99	1980.39
200.21	1873.89
200.43	1980.39
200.65	1822.69
200.87	1804.26
201.09	1982.43
201.31	2021.35
201.53	1986.53
201.75	1902.56
201.97	1970.15
202.19	1966.05
202.41	1955.81
202.63	2093.02
202.85	1953.76
203.07	2043.87
203.29	1957.86
203.51	1918.95
203.73	1875.94
203.95	2066.40
204.17	1982.43
204.39	1931.23
204.61	1998.82
204.83	1894.37
205.05	1992.67
205.27	2013.15
205.49	2080.74
205.71	1931.23
205.93	1892.32
206.15	1822.69
206.37	2021.35
206.59	1884.13
206.81	1826.79
207.03	1830.88
207.25	1894.37
207.47	2023.39
207.69	1988.58
207.91	2105.31
208.13	2039.78
208.34	1916.90
208.56	1867.75
208.78	1949.67
209.00	1914.85
209.22	1955.81
209.44	1902.56
209.66	1912.80
209.88	1923.04
210.10	1968.10
210.32	1941.47
210.54	2009.06
210.76	1996.77
210.98	1976.29
211.20	1867.75
211.42	1947.62
211.64	1972.19
211.86	1996.77
212.08	2054.11
212.30	1886.18
212.52	1957.86
212.74	1964.00
212.96	1925.09
213.17	2027.49
213.39	2000.87
213.61	2146.27
213.83	1873.89
214.05	1929.19
214.27	2056.16
214.49	1896.42
214.71	1867.75
214.93	2004.96
215.15	1939.43
215.37	2029.54
215.59	1845.22
215.81	1947.62
216.03	2058.21
216.24	2009.06
216.46	1990.63
216.68	1925.09
216.90	1961.95
217.12	2023.39
217.34	1830.88
217.56	2045.92
217.78	2002.91
218.00	1904.61
218.22	1839.08
218.44	1964.00
218.66	1955.81
218.87	2015.20
219.09	1927.14
219.31	1945.57
219.53	1943.52
219.75	1884.13
219.97	1908.71
220.19	1970.15
220.41	1880.04
220.63	2000.87
220.85	1933.28
221.06	1822.69
221.28	2054.11
221.50	2023.39
221.72	1886.18
221.94	1974.24
222.16	1945.57
222.38	2002.91
222.60	1990.63
222.82	1931.23
223.03	2066.40
223.25	1900.52
223.47	1880.04
223.69	2099.17
223.91	1968.10
224.13	1961.95
224.35	1937.38
224.57	2029.54
224.78	2015.20
225.00	1845.22
225.22	1888.23
225.44	1943.52
225.66	1935.33
225.88	1914.85
226.10	1994.72
226.32	1910.75
226.53	2045.92
226.75	1925.09
226.97	1990.63
227.19	1935.33
227.41	1939.43
227.63	1914.85
227.85	1837.03
228.06	1890.28
228.28	1964.00
228.50	1984.48
228.72	1896.42
228.94	1927.14
229.16	1777.64
229.37	1841.12
229.59	1873.89
229.81	2039.78
230.03	1933.28
230.25	1847.27
230.47	1927.14
230.69	1857.51
230.90	2015.20
231.12	1982.43
231.34	1957.86
231.56	2004.96
231.78	1865.70
232.00	1976.29
232.21	2017.25
232.43	1904.61
232.65	1789.92
232.87	2000.87
233.09	1877.99
233.30	1955.81
233.52	2039.78
233.74	1861.60
233.96	1984.48
234.18	1941.47
234.40	1990.63
234.61	2107.36
234.83	1865.70
235.05	1925.09
235.27	2107.36
235.49	2047.97
235.70	1914.85
235.92	2013.15
236.14	2017.25
236.36	2113.50
236.58	1826.79
236.79	1966.05
237.01	2033.63
237.23	1916.90
237.45	2080.74
237.67	1937.38
237.88	1957.86
238.10	2095.07
238.32	1961.95
238.54	1916.90
238.76	1931.23
238.97	1896.42
239.19	1955.81
239.41	2035.68
239.63	1996.77
239.85	1984.48
240.06	1873.89
240.28	1902.56
240.50	2045.92
240.72	1875.94
240.93	1861.60
241.15	2000.87
241.37	2037.73
241.59	2041.82
241.81	1972.19
242.02	1968.10
242.24	1994.72
242.46	1972.19
242.68	1771.49
242.89	1957.86
243.11	2025.44
243.33	1931.23
243.55	1994.72
243.76	1929.19
243.98	1867.75
244.20	1959.91
244.42	1933.28
244.64	2019.30
244.85	1861.60
245.07	1916.90
245.29	1890.28
245.51	1863.65
245.72	1943.52
245.94	2103.26
246.16	1904.61
246.38	1910.75
246.59	1912.80
246.81	1920.99
247.03	1927.14
247.24	1781.73
247.46	1898.47
247.68	1945.57
247.90	1910.75
248.11	1947.62
248.33	2043.87
248.55	2064.35
248.77	1931.23
248.98	1998.82
249.20	2023.39
249.42	1978.34
249.64	1941.47
249.85	1918.95
250.07	1918.95
250.29	1984.48
250.50	1964.00
250.72	1830.88
250.94	1961.95
251.16	2101.22
251.37	2011.11
251.59	1918.95
251.81	1986.53
252.02	2035.68
252.24	1943.52
252.46	1945.57
252.68	1908.71
252.89	1902.56
253.11	1843.17
253.33	2058.21
253.54	2060.26
253.76	1834.98
253.98	1849.32
254.20	2000.87
254.41	1834.98
254.63	1925.09
254.85	1851.36
255.06	1947.62
255.28	1990.63
255.50	1957.86
255.71	1867.75
255.93	1880.04
256.15	1914.85
256.36	2013.15
256.58	1892.32
256.80	2064.35
257.02	1923.04
257.23	1959.91
257.45	1949.67
257.67	1988.58
257.88	1900.52
258.10	1931.23
258.32	1941.47
258.53	1943.52
258.75	2101.22
258.97	1970.15
259.18	1880.04
259.40	1927.14
259.62	2099.17
259.83	2045.92
260.05	1978.34
260.27	2283.49
260.48	1982.43
260.70	1957.86
260.92	1888.23
261.13	1916.90
261.35	1923.04
261.57	1904.61
261.78	1791.97
262.00	1886.18
262.22	2009.06
262.43	1927.14
262.65	1939.43
262.86	1976.29
263.08	2129.89
263.30	1984.48
263.51	1843.17
263.73	1898.47
263.95	2064.35
264.16	1939.43
264.38	1882.08
264.60	1898.47
264.81	1984.48
265.03	2000.87
265.25	2050.02
265.46	1920.99
265.68	2009.06
265.89	2060.26
266.11	1781.73
266.33	1906.66
266.54	2013.15
266.76	2007.01
266.98	2011.11
267.19	2035.68
267.41	2033.63
267.62	2011.11
267.84	1904.61
268.06	1966.05
268.27	1955.81
268.49	2074.59
268.70	1988.58
268.92	1882.08
269.14	1902.56
269.35	1865.70
269.57	1880.04
269.79	1959.91
270.00	1906.66
270.22	2084.83
270.43	1886.18
270.65	1867.75
270.87	1980.39
271.08	2039.78
271.30	2017.25
271.51	1943.52
271.73	1937.38
271.95	1996.77
272.16	1984.48
272.38	1933.28
272.59	1918.95
272.81	1972.19
273.02	1945.57
273.24	1961.95
273.46	2082.78
273.67	1908.71
273.89	1857.51
274.10	1857.51
274.32	2002.91
274.54	1978.34
274.75	1957.86
274.97	1955.81
275.18	2050.02
275.40	1953.76
275.61	1957.86
275.83	1935.33
276.05	1843.17
276.26	1943.52
276.48	2007.01
276.69	1982.43
276.91	1888.23
277.12	2033.63
277.34	2025.44
277.55	1974.24
277.77	1988.58
277.99	1961.95
278.20	1949.67
278.42	1867.75
278.63	1824.74
278.85	1912.80
279.06	1896.42
279.28	1996.77
279.49	1990.63
279.71	1986.53
279.93	1939.43
280.14	1902.56
280.36	1900.52
280.57	2070.50
280.79	2021.35
281.00	1851.36
281.22	1898.47
281.43	2123.74
281.65	1808.36
281.86	1880.04
282.08	1974.24
282.29	2131.94
282.51	1873.89
282.73	1882.08
282.94	1832.93
283.16	1994.72
283.37	2070.50
283.59	1949.67
283.80	1966.05
284.02	1970.15
284.23	1959.91
284.45	1861.60
284.66	1880.04
284.88	1861.60
285.09	1918.95
285.31	1984.48
285.52	1968.10
285.74	1877.99
285.95	1988.58
286.17	1916.90
286.38	2066.40
286.60	1925.09
286.81	1953.76
287.03	1974.24
287.24	1996.77
287.46	1951.71
287.67	1861.60
287.89	2025.44
288.10	1916.90
288.32	1918.95
288.53	2080.74
288.75	1941.47
288.96	1961.95
289.18	1910.75
289.39	1935.33
289.61	1994.72
289.82	2136.03
290.04	2086.88
290.25	1933.28
290.47	2021.35
290.68	1990.63
290.90	2015.20
291.11	1888.23
291.33	2000.87
291.54	1900.52
291.76	1880.04
291.97	1964.00
292.18	1920.99
292.40	1877.99
292.61	1984.48
292.83	2103.26
293.04	1902.56
293.26	1937.38
293.47	1970.15
293.69	1873.89
293.90	1867.75
294.12	2029.54
294.33	1951.71
294.55	1902.56
294.76	1976.29
294.97	2054.11
295.19	2191.33
295.40	1877.99
295.62	2004.96
295.83	2025.44
296.05	1841.12
296.26	2103.26
296.48	1875.94
296.69	1968.10
296.90	1951.71
297.12	1957.86
297.33	2033.63
297.55	1978.34
297.76	2002.91
297.98	2054.11
298.19	1976.29
298.41	1974.24
298.62	1851.36
298.83	2080.74
299.05	1929.19
299.26	1949.67
299.48	1927.14
299.69	1998.82
299.90	1931.23
300.12	1923.04
300.33	2045.92
300.55	1974.24
300.76	2029.54
300.98	1859.56
301.19	1990.63
301.40	1920.99
301.62	1957.86
301.83	1927.14
302.05	1972.19
302.26	1984.48
302.47	2025.44
302.69	1861.60
302.90	1978.34
303.12	1751.01
303.33	2045.92
303.54	2058.21
303.76	1871.84
303.97	2019.30
304.19	2037.73
304.40	1929.19
304.61	1966.05
304.83	2101.22
305.04	2072.54
305.26	1974.24
305.47	2025.44
305.68	2011.11
305.90	1902.56
306.11	1996.77
306.33	2027.49
306.54	1939.43
306.75	1900.52
306.97	1810.40
307.18	1929.19
307.39	1869.80
307.61	1980.39
307.82	1898.47
308.04	1970.15
308.25	1902.56
308.46	1947.62
308.68	1990.63
308.89	1986.53
309.10	2109.41
309.32	1988.58
309.53	1890.28
309.74	1998.82
309.96	1931.23
310.17	1976.29
310.39	1892.32
310.60	2019.30
310.81	1918.95
311.03	1918.95
311.24	2043.87
311.45	1935.33
311.67	2095.07
311.88	2037.73
312.09	1951.71
312.31	1888.23
312.52	1910.75
312.73	1939.43
312.95	1802.21
313.16	1896.42
313.37	1990.63
313.59	2017.25
313.80	2068.45
314.01	2011.11
314.23	1896.42
314.44	1957.86
314.65	1861.60
314.87	1847.27
315.08	1916.90
315.29	1900.52
315.51	1875.94
315.72	1830.88
315.93	2070.50
316.15	2039.78
316.36	1910.75
316.57	1941.47
316.79	1998.82
317.00	1955.81
317.21	2011.11
317.43	1871.84
317.64	1916.90
317.85	1937.38
318.07	1863.65
318.28	2017.25
318.49	2176.99
318.70	2193.37
318.92	2154.46
319.13	2150.37
319.34	2201.57
319.56	2054.11
319.77	2072.54
319.98	2099.17
320.20	2082.78
320.41	2078.69
320.62	2082.78
320.83	1980.39
321.05	2142.18
321.26	2007.01
321.47	1988.58
321.69	2068.45
321.90	1849.32
322.11	1910.75
322.32	1939.43
322.54	2084.83
322.75	1980.39
322.96	2203.61
323.18	1849.32
323.39	1859.56
323.60	1857.51
323.81	2041.82
324.03	1964.00
324.24	1849.32
324.45	1935.33
324.66	1968.10
324.88	2023.39
325.09	2047.97
325.30	1923.04
325.52	2035.68
325.73	1933.28
325.94	1964.00
326.15	1867.75
326.37	1886.18
326.58	1986.53
326.79	2117.60
327.00	1880.04
327.22	1974.24
327.43	1914.85
327.64	1931.23
327.85	1974.24
328.07	1945.57
328.28	2019.30
328.49	1855.46
328.70	1972.19
328.92	1929.19
329.13	1863.65
329.34	1978.34
329.55	2076.64
329.76	2019.30
329.98	1900.52
330.19	2084.83
330.40	1918.95
330.61	1888.23
330.83	2050.02
331.04	1906.66
331.25	1941.47
331.46	1945.57
331.68	1957.86
331.89	2035.68
332.10	1904.61
332.31	1894.37
332.52	1855.46
332.74	2072.54
332.95	1873.89
333.16	1980.39
333.37	2045.92
333.58	1875.94
333.80	2000.87
334.01	1804.26
334.22	1933.28
334.43	1869.80
334.64	1933.28
334.86	1857.51
335.07	1843.17
335.28	2045.92
335.49	1851.36
335.70	2045.92
335.92	2015.20
336.13	2101.22
336.34	1982.43
336.55	1929.19
336.76	1886.18
336.98	1775.59
337.19	1951.71
337.40	2107.36
337.61	2185.18
337.82	1945.57
338.04	2021.35
338.25	1908.71
338.46	1912.80
338.67	1877.99
338.88	1845.22
339.09	1853.41
339.31	1949.67
339.52	1820.64
339.73	1918.95
339.94	1894.37
340.15	2043.87
340.36	1906.66
340.58	1939.43
340.79	1918.95
341.00	2033.63
341.21	1941.47
341.42	2093.02
341.63	1931.23
341.85	2082.78
342.06	1941.47
342.27	1892.32
342.48	2054.11
342.69	1892.32
342.90	1992.67
343.12	2035.68
343.33	2019.30
343.54	2066.40
343.75	2123.74
343.96	1961.95
344.17	1863.65
344.38	1947.62
344.60	1927.14
344.81	1914.85
345.02	1900.52
345.23	1992.67
345.44	2125.79
345.65	2084.83
345.86	2047.97
346.07	1970.15
346.29	1929.19
346.50	2054.11
346.71	1953.76
346.92	2131.94
347.13	2156.51
347.34	1841.12
347.55	1865.70
347.76	2050.02
347.98	1867.75
348.19	1980.39
348.40	2064.35
348.61	1959.91
348.82	2115.55
349.03	2093.02
349.24	1927.14
349.45	2103.26
349.66	1783.78
349.88	1998.82
350.09	1894.37
350.30	2082.78
350.51	2023.39
350.72	1972.19
350.93	1966.05
351.14	1884.13
351.35	1990.63
351.56	1964.00
351.77	1933.28
351.99	2068.45
352.20	2117.60
352.41	2035.68
352.62	1865.70
352.83	1916.90
353.04	1949.67
353.25	1906.66
353.46	2039.78
353.67	2033.63
353.88	1779.68
354.09	1931.23
354.30	2037.73
354.52	1982.43
354.73	1970.15
354.94	1937.38
355.15	1888.23
355.36	2174.94
355.57	1845.22
355.78	2009.06
355.99	1851.36
356.20	2039.78
356.41	2045.92
356.62	1933.28
356.83	1968.10
357.04	2125.79
357.25	1794.02
357.46	1982.43
357.68	1843.17
357.89	1984.48
358.10	1920.99
358.31	1882.08
358.52	1947.62
358.73	1904.61
358.94	1896.42
359.15	1927.14
359.36	2039.78
359.57	1980.39
359.78	1931.23
359.99	2035.68
360.20	1927.14
360.41	1961.95
360.62	1966.05
360.83	2039.78
361.04	2004.96
361.25	1990.63
361.46	2035.68
361.67	2019.30
361.88	2062.30
362.09	1986.53
362.30	2002.91
362.51	1855.46
362.72	2004.96
362.93	2078.69
363.14	2050.02
363.35	2011.11
363.56	1898.47
363.78	1966.05
363.99	1974.24
364.20	1826.79
364.41	2076.64
364.62	2131.94
364.83	1927.14
365.04	1908.71
365.25	1986.53
365.46	2113.50
365.67	1931.23
365.88	1972.19
366.09	1959.91
366.30	1916.90
366.51	1943.52
366.72	1832.93
366.93	2011.11
367.14	1978.34
367.35	2039.78
367.56	1931.23
367.77	2084.83
367.98	1992.67
368.18	1976.29
368.39	1939.43
368.60	1810.40
368.81	1992.67
369.02	2007.01
369.23	1931.23
369.44	1880.04
369.65	1955.81
369.86	1986.53
370.07	1988.58
370.28	1929.19
370.49	2019.30
370.70	2021.35
370.91	1892.32
371.12	1873.89
371.33	1984.48
371.54	1959.91
371.75	2101.22
371.96	1802.21
372.17	1929.19
372.38	1941.47
372.59	2045.92
372.80	1918.95
373.01	1994.72
373.22	1966.05
373.43	1947.62
373.64	1863.65
373.85	2058.21
374.06	2019.30
374.26	1957.86
374.47	1994.72
374.68	2045.92
374.89	1918.95
375.10	1851.36
375.31	2017.25
375.52	1959.91
375.73	2033.63
375.94	1904.61
376.15	2013.15
376.36	1880.04
376.57	1894.37
376.78	1884.13
376.99	1933.28
377.20	2045.92
377.40	1890.28
377.61	2121.70
377.82	1877.99
378.03	2068.45
378.24	2035.68
378.45	1900.52
378.66	1986.53
378.87	1892.32
379.08	1869.80
379.29	1961.95
379.50	2072.54
379.71	1896.42
379.91	2017.25
380.12	1935.33
380.33	1996.77
380.54	1890.28
380.75	1943.52
380.96	1957.86
381.17	1994.72
381.38	2082.78
381.59	1974.24
381.80	2062.30
382.00	2080.74
382.21	2080.74
382.42	2086.88
382.63	2160.61
382.84	2125.79
383.05	2127.84
383.26	2029.54
383.47	2009.06
383.68	1970.15
383.88	2125.79
384.09	1980.39
384.30	2158.56
384.51	2037.73
384.72	1970.15
384.93	1904.61
385.14	2045.92
385.35	2045.92
385.55	1900.52
385.76	2050.02
385.97	1959.91
386.18	1837.03
386.39	1964.00
386.60	1951.71
386.81	1964.00
387.02	1859.56
387.22	1927.14
387.43	2052.06
387.64	2041.82
387.85	2144.22
388.06	2258.91
388.27	3962.82
388.48	8793.98
388.68	12040.01
388.89	14495.52
389.10	15611.67
389.31	14141.22
389.52	11218.77
389.73	9783.15
389.93	8753.02
390.14	8054.66
390.35	7356.30
390.56	6475.68
390.77	5287.86
390.98	3954.63
391.18	3151.82
391.39	2521.05
391.60	2207.71
391.81	2164.70
392.02	1988.58
392.23	2125.79
392.43	1976.29
392.64	2090.98
392.85	1941.47
393.06	2062.30
393.27	1918.95
393.47	1834.98
393.68	1927.14
393.89	1933.28
394.10	2043.87
394.31	1886.18
394.52	1961.95
394.72	1851.36
394.93	2033.63
395.14	1916.90
395.35	1906.66
395.56	1980.39
395.76	1929.19
395.97	2015.20
396.18	2082.78
396.39	2121.70
396.60	2420.70
396.80	2287.58
397.01	2117.60
397.22	2115.55
397.43	2164.70
397.64	2019.30
397.84	2086.88
398.05	2197.47
398.26	1947.62
398.47	2015.20
398.67	2043.87
398.88	2009.06
399.09	1953.76
399.30	1978.34
399.51	1970.15
399.71	1927.14
399.92	1974.24
400.13	2080.74
400.34	1941.47
400.54	1888.23
400.75	2058.21
400.96	1927.14
401.17	2111.46
401.37	2037.73
401.58	1929.19
401.79	2013.15
402.00	2131.94
402.21	2299.87
402.41	2344.92
402.62	2346.97
402.83	2389.98
403.04	2342.88
403.24	2461.66
403.45	2162.66
403.66	2316.25
403.87	2125.79
404.07	2226.14
404.28	2213.85
404.49	2281.44
404.70	2029.54
404.90	2031.58
405.11	1984.48
405.32	2021.35
405.52	1935.33
405.73	1970.15
405.94	1906.66
406.15	1939.43
406.35	2011.11
406.56	2023.39
406.77	2031.58
406.98	1927.14
407.18	1904.61
407.39	2047.97
407.60	1871.84
407.80	1957.86
408.01	1894.37
408.22	2025.44
408.43	1898.47
408.63	1998.82
408.84	2017.25
409.05	1998.82
409.25	1877.99
409.46	1935.33
409.67	1898.47
409.88	1849.32
410.08	2037.73
410.29	1935.33
410.50	2103.26
410.70	2041.82
410.91	1908.71
411.12	2000.87
411.32	1968.10
411.53	1935.33
411.74	2056.16
411.95	2076.64
412.15	2033.63
412.36	2088.93
412.57	2045.92
412.77	2080.74
412.98	2074.59
413.19	1925.09
413.39	2033.63
413.60	1939.43
413.81	2025.44
414.01	1918.95
414.22	2101.22
414.43	2004.96
414.63	1972.19
414.84	2078.69
415.05	2027.49
415.25	1906.66
415.46	1982.43
415.67	1992.67
415.87	1994.72
416.08	1955.81
416.29	1902.56
416.49	1986.53
416.70	2004.96
416.91	1916.90
417.11	1957.86
417.32	2127.84
417.53	2000.87
417.73	2023.39
417.94	2021.35
418.15	1939.43
418.35	1892.32
418.56	1992.67
418.77	2125.79
418.97	1908.71
419.18	1941.47
419.38	1857.51
419.59	2004.96
419.80	2009.06
420.00	1908.71
420.21	2013.15
420.42	2080.74
420.62	1996.77
420.83	1888.23
421.04	2002.91
421.24	1894.37
421.45	1974.24
421.65	1990.63
421.86	1916.90
422.07	2080.74
422.27	2025.44
422.48	2031.58
422.69	1818.60
422.89	1949.67
423.10	2000.87
423.30	1953.76
423.51	1970.15
423.72	2031.58
423.92	1943.52
424.13	1904.61
424.33	2004.96
424.54	1988.58
424.75	2000.87
424.95	2070.50
425.16	1943.52
425.36	1939.43
425.57	1918.95
425.78	1927.14
425.98	1994.72
426.19	2045.92
426.39	1882.08
426.60	1947.62
426.81	1943.52
427.01	1978.34
427.22	1910.75
427.42	1816.55
427.63	1869.80
427.83	1996.77
428.04	2021.35
428.25	2029.54
428.45	1980.39
428.66	2070.50
428.86	1896.42
429.07	1906.66
429.28	1972.19
429.48	1902.56
429.69	1888.23
429.89	2047.97
430.10	1992.67
430.30	2029.54
430.51	2068.45
430.71	1959.91
430.92	1890.28
431.13	1937.38
431.33	1996.77
431.54	1972.19
431.74	2105.31
431.95	2131.94
432.15	1888.23
432.36	1978.34
432.56	2029.54
432.77	2082.78
432.98	2021.35
433.18	2013.15
433.39	1970.15
433.59	1939.43
433.80	2105.31
434.00	2113.50
434.21	1902.56
434.41	1929.19
434.62	2136.03
434.82	1918.95
435.03	1927.14
435.23	1976.29
435.44	1794.02
435.64	1937.38
435.85	1968.10
436.06	2035.68
436.26	2066.40
436.47	1904.61
436.67	1886.18
436.88	1949.67
437.08	2062.30
437.29	2076.64
437.49	1910.75
437.70	2068.45
437.90	1988.58
438.11	2076.64
438.31	2045.92
438.52	2123.74
438.72	2176.99
438.93	2291.68
439.13	2097.12
439.34	2121.70
439.54	2002.91
439.75	2109.41
439.95	2009.06
440.16	1998.82
440.36	2050.02
440.57	2070.50
440.77	2002.91
440.98	2019.30
441.18	2056.16
441.39	1931.23
441.59	1918.95
441.80	2123.74
442.00	1951.71
442.21	2054.11
442.41	1966.05
442.62	1984.48
442.82	1941.47
443.02	1964.00
443.23	1957.86
443.43	1945.57
443.64	2136.03
443.84	1898.47
444.05	2068.45
444.25	1894.37
444.46	1925.09
444.66	1982.43
444.87	2125.79
445.07	1884.13
445.28	1929.19
445.48	2148.32
445.69	2002.91
445.89	2187.23
446.09	2004.96
446.30	2254.81
446.50	2605.02
446.71	4184.00
446.91	5337.01
447.12	6338.46
447.32	6510.49
447.53	5961.64
447.73	4868.02
447.93	4431.80
448.14	4048.83
448.34	3880.90
448.55	3430.35
448.75	3338.19
448.96	3209.17
449.16	2914.26
449.36	2643.93
449.57	2349.02
449.77	2140.13
449.98	1998.82
450.18	2113.50
450.39	2090.98
450.59	2027.49
450.79	2050.02
451.00	1923.04
451.20	2062.30
451.41	2027.49
451.61	1974.24
451.81	1972.19
452.02	1861.60
452.22	1939.43
452.43	1929.19
452.63	1888.23
452.84	2007.01
453.04	1894.37
453.24	2007.01
453.45	1902.56
453.65	1982.43
453.86	1996.77
454.06	2004.96
454.26	1933.28
454.47	1959.91
454.67	2097.12
454.87	1961.95
455.08	1957.86
455.28	2162.66
455.49	2017.25
455.69	1812.45
455.89	2090.98
456.10	2078.69
456.30	1935.33
456.51	2021.35
456.71	2013.15
456.91	1976.29
457.12	1986.53
457.32	2019.30
457.52	1890.28
457.73	2021.35
457.93	2050.02
458.14	1949.67
458.34	1970.15
458.54	1978.34
458.75	1920.99
458.95	1998.82
459.15	2109.41
459.36	2007.01
459.56	1996.77
459.76	2127.84
459.97	2027.49
460.17	2025.44
460.37	2000.87
460.58	1949.67
460.78	2074.59
460.99	1986.53
461.19	1998.82
461.39	1853.41
461.60	1964.00
461.80	1996.77
462.00	1920.99
462.21	1974.24
462.41	1937.38
462.61	1855.46
462.82	1794.02
463.02	2002.91
463.22	1961.95
463.43	1998.82
463.63	2050.02
463.83	2093.02
464.04	1961.95
464.24	2021.35
464.44	1976.29
464.64	1998.82
464.85	2004.96
465.05	2072.54
465.25	1925.09
465.46	1877.99
465.66	2035.68
465.86	2043.87
466.07	2023.39
466.27	2002.91
466.47	1894.37
466.68	1869.80
466.88	2099.17
467.08	1998.82
467.29	2076.64
467.49	2105.31
467.69	2027.49
467.89	1976.29
468.10	1914.85
468.30	1959.91
468.50	2070.50
468.71	2072.54
468.91	1869.80
469.11	2148.32
469.31	1990.63
469.52	1986.53
469.72	2136.03
469.92	2172.89
470.13	1970.15
470.33	2013.15
470.53	2113.50
470.73	2435.03
470.94	2818.00
471.14	3006.42
471.34	3381.20
471.54	3430.35
471.75	2949.08
471.95	2709.46
472.15	2555.86
472.36	2582.49
472.56	2521.05
472.76	2484.19
472.96	2330.59
473.17	2336.73
473.37	2168.80
473.57	2011.11
473.77	2166.75
473.98	2066.40
474.18	1882.08
474.38	2187.23
474.58	1908.71
474.79	1906.66
474.99	2138.08
475.19	2064.35
475.39	1890.28
475.60	2017.25
475.80	1986.53
476.00	1982.43
476.20	1906.66
476.41	1996.77
476.61	1988.58
476.81	2064.35
477.01	1931.23
477.21	2086.88
477.42	2070.50
477.62	1935.33
477.82	2056.16
478.02	1955.81
478.23	1966.05
478.43	1978.34
478.63	1857.51
478.83	2041.82
479.03	1900.52
479.24	2105.31
479.44	2121.70
479.64	1957.86
479.84	1826.79
480.04	1927.14
480.25	2080.74
480.45	1916.90
480.65	1916.90
480.85	2162.66
481.06	1970.15
481.26	2015.20
481.46	1970.15
481.66	1925.09
481.86	1933.28
482.06	2070.50
482.27	1933.28
482.47	1923.04
482.67	1980.39
482.87	1863.65
483.07	2009.06
483.28	1931.23
483.48	1955.81
483.68	1982.43
483.88	1886.18
484.08	1937.38
484.29	1892.32
484.49	1994.72
484.69	1920.99
484.89	2037.73
485.09	2093.02
485.29	2068.45
485.50	1920.99
485.70	1970.15
485.90	2095.07
486.10	2050.02
486.30	2080.74
486.50	2070.50
486.71	2035.68
486.91	2086.88
487.11	2070.50
487.31	1865.70
487.51	1992.67
487.71	1951.71
487.91	1970.15
488.12	1890.28
488.32	1814.50
488.52	1888.23
488.72	1828.84
488.92	2021.35
489.12	2068.45
489.32	2007.01
489.53	1998.82
489.73	1808.36
489.93	2111.46
490.13	1869.80
490.33	1853.41
490.53	2004.96
490.73	2066.40
490.94	1873.89
491.14	1990.63
491.34	2115.55
491.54	2316.25
491.74	2975.70
491.94	3432.40
492.14	3889.09
492.34	3911.62
492.54	3598.28
492.75	3012.56
492.95	2922.45
493.15	2766.81
493.35	2627.54
493.55	2674.65
493.75	2424.80
493.95	2441.18
494.15	2328.54
494.35	2197.47
494.56	2142.18
494.76	2011.11
494.96	2058.21
495.16	2047.97
495.36	2004.96
495.56	2007.01
495.76	2000.87
495.96	1923.04
496.16	1935.33
496.36	2125.79
496.56	2039.78
496.77	2025.44
496.97	2025.44
497.17	2050.02
497.37	1789.92
497.57	1964.00
497.77	2009.06
497.97	1886.18
498.17	1978.34
498.37	1982.43
498.57	2009.06
498.77	1947.62
498.97	2088.93
499.17	2013.15
499.38	2009.06
499.58	2031.58
499.78	2043.87
499.98	2047.97
500.18	1964.00
500.38	1875.94
500.58	2187.23
500.78	2672.60
500.98	4882.36
501.18	6920.09
501.38	8724.35
501.58	9738.09
501.78	9635.69
501.98	7583.63
502.18	6317.98
502.38	5345.20
502.58	5044.15
502.78	4480.96
502.98	4388.80
503.18	4196.29
503.38	3696.58
503.59	3235.79
503.79	3086.29
503.99	2789.33
504.19	2586.58
504.39	2557.91
504.59	2598.87
504.79	2650.07
504.99	2590.68
505.19	2367.45
505.39	2308.06
505.59	2369.50
505.79	2279.39
505.99	2131.94
506.19	2170.85
506.39	2297.82
506.59	2039.78
506.79	2054.11
506.99	2078.69
507.19	2072.54
507.39	2070.50
507.59	1869.80
507.79	1955.81
507.99	1906.66
508.19	1957.86
508.39	1966.05
508.59	1949.67
508.79	2080.74
508.99	2115.55
509.19	1943.52
509.39	1998.82
509.59	1943.52
509.79	1996.77
509.99	2041.82
510.19	2043.87
510.39	1935.33
510.59	1937.38
510.79	1957.86
510.99	1980.39
511.19	1955.81
511.39	2154.46
511.59	2054.11
511.79	2093.02
511.99	2002.91
512.19	2140.13
512.38	1925.09
512.58	1937.38
512.78	2029.54
512.98	2101.22
513.18	2111.46
513.38	1857.51
513.58	2041.82
513.78	1910.75
513.98	1957.86
514.18	2017.25
514.38	1996.77
514.58	1974.24
514.78	1900.52
514.98	1949.67
515.18	1974.24
515.38	1898.47
515.58	2183.13
515.78	1925.09
515.98	2037.73
516.18	2009.06
516.38	2013.15
516.57	1951.71
516.77	1964.00
516.97	2041.82
517.17	1908.71
517.37	1867.75
517.57	2037.73
517.77	1945.57
517.97	1900.52
518.17	1959.91
518.37	1994.72
518.57	2007.01
518.77	1939.43
518.97	1982.43
519.16	2029.54
519.36	2086.88
519.56	1888.23
519.76	1970.15
519.96	1996.77
520.16	2101.22
520.36	1939.43
520.56	2074.59
520.76	2015.20
520.96	1988.58
521.16	2086.88
521.35	2090.98
521.55	2115.55
521.75	2007.01
521.95	1939.43
522.15	1980.39
522.35	1882.08
522.55	1914.85
522.75	2074.59
522.95	1978.34
523.14	1888.23
523.34	1972.19
523.54	1925.09
523.74	1937.38
523.94	2054.11
524.14	1877.99
524.34	2009.06
524.54	2093.02
524.73	1916.90
524.93	2070.50
525.13	1972.19
525.33	1851.36
525.53	2133.98
525.73	2029.54
525.93	2002.91
526.13	1943.52
526.32	2056.16
526.52	2062.30
526.72	2070.50
526.92	1990.63
527.12	1927.14
527.32	1966.05
527.52	1974.24
527.71	2035.68
527.91	2013.15
528.11	1890.28
528.31	1947.62
528.51	1873.89
528.71	2037.73
528.90	2082.78
529.10	2080.74
529.30	2062.30
529.50	1822.69
529.70	1994.72
529.90	1968.10
530.09	1982.43
530.29	1888.23
530.49	1894.37
530.69	2226.14
530.89	1996.77
531.09	2056.16
531.28	1953.76
531.48	2031.58
531.68	1959.91
531.88	1998.82
532.08	2058.21
532.28	1929.19
532.47	1982.43
532.67	2111.46
532.87	2045.92
533.07	1949.67
533.27	2090.98
533.46	2019.30
533.66	2007.01
533.86	2023.39
534.06	2002.91
534.26	2039.78
534.45	1984.48
534.65	2123.74
534.85	2009.06
535.05	1941.47
535.25	2041.82
535.44	1892.32
535.64	1996.77
535.84	1935.33
536.04	1900.52
536.24	1984.48
536.43	1959.91
536.63	1931.23
536.83	1939.43
537.03	1964.00
537.22	1937.38
537.42	1945.57
537.62	1959.91
537.82	1873.89
538.02	2015.20
538.21	2027.49
538.41	2156.51
538.61	2007.01
538.81	1943.52
539.00	2043.87
539.20	1918.95
539.40	1955.81
539.60	2013.15
539.79	2002.91
539.99	1949.67
540.19	2039.78
540.39	2002.91
540.58	2009.06
540.78	1957.86
540.98	1982.43
541.18	2080.74
541.37	2082.78
541.57	2021.35
541.77	1978.34
541.97	1939.43
542.16	1910.75
542.36	2004.96
542.56	1939.43
542.76	2115.55
542.95	2072.54
543.15	2035.68
543.35	1959.91
543.54	1970.15
543.74	1943.52
543.94	2058.21
544.14	1949.67
544.33	2084.83
544.53	1918.95
544.73	2007.01
544.93	1996.77
545.12	1906.66
545.32	1970.15
545.52	1908.71
545.71	1841.12
545.91	1964.00
546.11	1968.10
546.30	1937.38
546.50	2000.87
546.70	2078.69
546.90	1912.80
547.09	1845.22
547.29	1933.28
547.49	2035.68
547.68	1920.99
547.88	1898.47
548.08	1992.67
548.27	2478.04
548.47	1953.76
548.67	2011.11
548.87	2009.06
549.06	1904.61
549.26	1943.52
549.46	1988.58
549.65	1898.47
549.85	2050.02
550.05	2017.25
550.24	1865.70
550.44	1959.91
550.64	1961.95
550.83	1943.52
551.03	2047.97
551.23	2058.21
551.42	1992.67
551.62	2011.11
551.82	1984.48
552.01	1988.58
552.21	2107.36
552.41	1957.86
552.60	2035.68
552.80	1970.15
553.00	1972.19
553.19	1955.81
553.39	2086.88
553.59	1982.43
553.78	1980.39
553.98	2013.15
554.17	1937.38
554.37	2041.82
554.57	1935.33
554.76	1914.85
554.96	1957.86
555.16	1925.09
555.35	1949.67
555.55	1961.95
555.75	2119.65
555.94	2131.94
556.14	1916.90
556.33	1988.58
556.53	1947.62
556.73	2007.01
556.92	2017.25
557.12	2080.74
557.32	2181.09
557.51	2093.02
557.71	2054.11
557.90	2123.74
558.10	2054.11
558.30	2017.25
558.49	1974.24
558.69	1953.76
558.88	1964.00
559.08	1978.34
559.28	1961.95
559.47	2017.25
559.67	1972.19
559.86	2082.78
560.06	2023.39
560.26	1955.81
560.45	1968.10
560.65	1992.67
560.84	2086.88
561.04	1941.47
561.24	2050.02
561.43	1886.18
561.63	2090.98
561.82	1998.82
562.02	2050.02
562.22	1996.77
562.41	1880.04
562.61	1947.62
562.80	1982.43
563.00	2123.74
563.19	1994.72
563.39	1994.72
563.59	2045.92
563.78	1906.66
563.98	1894.37
564.17	1978.34
564.37	1820.64
564.56	1955.81
564.76	1841.12
564.96	2082.78
565.15	2029.54
565.35	2170.85
565.54	1996.77
565.74	2043.87
565.93	2054.11
566.13	2029.54
566.32	2074.59
566.52	1998.82
566.71	2021.35
566.91	1986.53
567.11	2019.30
567.30	1964.00
567.50	2056.16
567.69	1986.53
567.89	1949.67
568.08	1968.10
568.28	2025.44
568.47	1939.43
568.67	1986.53
568.86	1945.57
569.06	2103.26
569.25	1937.38
569.45	1933.28
569.64	1904.61
569.84	1908.71
570.04	2068.45
570.23	1925.09
570.43	1976.29
570.62	2004.96
570.82	2152.42
571.01	1839.08
571.21	1937.38
571.40	1880.04
571.60	2017.25
571.79	2162.66
571.99	2080.74
572.18	1880.04
572.38	1992.67
572.57	1996.77
572.77	2086.88
572.96	2152.42
573.16	2037.73
573.35	1945.57
573.55	2086.88
573.74	1964.00
573.94	1929.19
574.13	1949.67
574.33	2113.50
574.52	2080.74
574.71	1912.80
574.91	2111.46
575.10	1925.09
575.30	1968.10
575.49	1927.14
575.69	1974.24
575.88	2037.73
576.08	2148.32
576.27	2170.85
576.47	2041.82
576.66	2144.22
576.86	2129.89
577.05	2068.45
577.25	2107.36
577.44	2162.66
577.64	2023.39
577.83	2078.69
578.02	2007.01
578.22	2125.79
578.41	2146.27
578.61	1980.39
578.80	1882.08
579.00	1949.67
579.19	1984.48
579.39	2105.31
579.58	2140.13
579.77	1974.24
579.97	2101.22
580.16	2166.75
580.36	2025.44
580.55	2084.83
580.75	2113.50
580.94	2066.40
581.13	2136.03
581.33	2174.94
581.52	2060.26
581.72	2168.80
581.91	2113.50
582.11	2007.01
582.30	2115.55
582.49	2066.40
582.69	2111.46
582.88	2033.63
583.08	2113.50
583.27	2090.98
583.47	2066.40
583.66	1986.53
583.85	1947.62
584.05	2015.20
584.24	2029.54
584.44	2084.83
584.63	2158.56
584.82	2131.94
585.02	2148.32
585.21	2152.42
585.41	2181.09
585.60	2123.74
585.79	2205.66
585.99	2199.52
586.18	2133.98
586.37	2559.96
586.57	3989.44
586.76	11798.35
586.96	30707.24
587.15	44957.01
587.34	55069.88
587.54	60343.40
587.73	56530.08
587.93	40293.79
588.12	30262.83
588.31	23797.40
588.51	20676.29
588.70	18761.44
588.89	17297.14
589.09	15355.67
589.28	13303.60
589.47	10809.18
589.67	8857.46
589.86	6680.47
590.06	4902.84
590.25	3889.09
590.44	3121.10
590.64	2695.13
590.83	2381.79
591.02	2279.39
591.22	2166.75
591.41	2090.98
591.60	2129.89
591.80	2273.25
591.99	2039.78
592.18	2035.68
592.38	2113.50
592.57	1990.63
592.76	1996.77
592.96	2004.96
593.15	2011.11
593.34	2107.36
593.54	1949.67
593.73	2146.27
593.92	2080.74
594.12	2060.26
594.31	2064.35
594.50	2207.71
594.70	2119.65
594.89	2301.92
595.08	1898.47
595.28	2097.12
595.47	2230.24
595.66	2115.55
595.86	1908.71
596.05	2004.96
596.24	1966.05
596.43	2117.60
596.63	2129.89
596.82	2052.06
597.01	2066.40
597.21	2107.36
597.40	2090.98
597.59	2150.37
597.79	1951.71
597.98	2183.13
598.17	2037.73
598.36	1951.71
598.56	2037.73
598.75	1937.38
598.94	2064.35
599.14	1994.72
599.33	1908.71
599.52	2097.12
599.71	2050.02
599.91	2103.26
600.10	1996.77
600.29	1980.39
600.48	1980.39
600.68	2017.25
600.87	2021.35
601.06	1869.80
601.26	1964.00
601.45	2000.87
601.64	1902.56
601.83	2013.15
602.03	1986.53
602.22	1976.29
602.41	2019.30
602.60	2179.04
602.80	2101.22
602.99	1986.53
603.18	2002.91
603.37	2062.30
603.57	2021.35
603.76	2080.74
603.95	2084.83
604.14	1994.72
604.34	1898.47
604.53	1953.76
604.72	2023.39
604.91	2136.03
605.10	1931.23
605.30	1918.95
605.49	2160.61
605.68	1992.67
605.87	2023.39
606.07	1894.37
606.26	1970.15
606.45	1998.82
606.64	2023.39
606.84	1972.19
607.03	1980.39
607.22	2111.46
607.41	1968.10
607.60	2047.97
607.80	2054.11
607.99	1935.33
608.18	2082.78
608.37	2058.21
608.56	1933.28
608.76	2062.30
608.95	2133.98
609.14	2080.74
609.33	2086.88
609.52	2187.23
609.72	2146.27
609.91	2119.65
610.10	2015.20
610.29	2117.60
610.48	2097.12
610.68	2047.97
610.87	1990.63
611.06	2123.74
611.25	1990.63
611.44	2115.55
611.63	1990.63
611.83	2115.55
612.02	1863.65
612.21	2138.08
612.40	1847.27
612.59	1877.99
612.79	1945.57
612.98	2009.06
613.17	2105.31
613.36	2009.06
613.55	2115.55
613.74	2133.98
613.93	2189.28
614.13	2193.37
614.32	2344.92
614.51	2224.09
614.70	2129.89
614.89	2041.82
615.08	2119.65
615.28	2459.61
615.47	1955.81
615.66	2093.02
615.85	1984.48
616.04	2228.19
616.23	2035.68
616.42	1988.58
616.62	2037.73
616.81	2025.44
617.00	1998.82
617.19	2000.87
617.38	1912.80
617.57	1996.77
617.76	2068.45
617.95	2068.45
618.15	2033.63
618.34	2131.94
618.53	1865.70
618.72	2058.21
618.91	2127.84
619.10	2097.12
619.29	1920.99
619.48	1992.67
619.68	1918.95
619.87	1882.08
620.06	1906.66
620.25	2033.63
620.44	1902.56
620.63	2035.68
620.82	1968.10
621.01	1990.63
621.20	2025.44
621.39	2072.54
621.59	2072.54
621.78	1939.43
621.97	2035.68
622.16	2090.98
622.35	2086.88
622.54	2082.78
622.73	2062.30
622.92	1877.99
623.11	1986.53
623.30	1976.29
623.49	2019.30
623.68	1896.42
623.88	2109.41
624.07	2031.58
624.26	1982.43
624.45	1970.15
624.64	2015.20
624.83	2019.30
625.02	2043.87
625.21	1914.85
625.40	1968.10
625.59	2103.26
625.78	2062.30
625.97	2068.45
626.16	2101.22
626.35	2047.97
626.54	2121.70
626.74	2174.94
626.93	1943.52
627.12	2009.06
627.31	2117.60
627.50	2043.87
627.69	1953.76
627.88	1894.37
628.07	1961.95
628.26	1896.42
628.45	1900.52
628.64	1937.38
628.83	2009.06
629.02	1865.70
629.21	2017.25
629.40	1974.24
629.59	2011.11
629.78	1961.95
629.97	1976.29
630.16	2041.82
630.35	1978.34
630.54	1986.53
630.73	1916.90
630.92	1992.67
631.11	1920.99
631.30	1976.29
631.49	2088.93
631.68	1953.76
631.87	2009.06
632.06	1976.29
632.25	2236.38
632.44	2007.01
632.63	2076.64
632.82	2035.68
633.01	1990.63
633.20	2123.74
633.39	2095.07
633.58	1976.29
633.77	2037.73
633.96	2088.93
634.15	2015.20
634.34	2119.65
634.53	1990.63
634.72	1951.71
634.91	1857.51
635.10	2025.44
635.29	2101.22
635.48	1970.15
635.67	1877.99
635.86	1931.23
636.05	2009.06
636.24	1951.71
636.43	1986.53
636.62	1976.29
636.81	1820.64
637.00	1964.00
637.19	1980.39
637.38	1984.48
637.57	2029.54
637.76	2047.97
637.95	2115.55
638.14	2021.35
638.33	2088.93
638.52	2088.93
638.71	1953.76
638.89	1925.09
639.08	2226.14
639.27	2187.23
639.46	2129.89
639.65	2617.30
639.84	2660.31
640.03	2901.97
640.22	2770.90
640.41	2858.96
640.60	2426.84
640.79	2277.34
640.98	2238.43
641.17	2258.91
641.36	2279.39
641.55	2230.24
641.74	2002.91
641.92	2045.92
642.11	1982.43
642.30	2011.11
642.49	1933.28
642.68	1892.32
642.87	1988.58
643.06	1968.10
643.25	1851.36
643.44	1925.09
643.63	1941.47
643.82	1974.24
644.00	1896.42
644.19	1994.72
644.38	1902.56
644.57	1986.53
644.76	2031.58
644.95	1929.19
645.14	1918.95
645.33	1898.47
645.52	2013.15
645.71	1880.04
645.89	1898.47
646.08	1904.61
646.27	1986.53
646.46	2138.08
646.65	1845.22
646.84	1933.28
647.03	1859.56
647.22	2050.02
647.40	1920.99
647.59	1894.37
647.78	1843.17
647.97	1912.80
648.16	1918.95
648.35	2070.50
648.54	2119.65
648.73	1908.71
648.91	2037.73
649.10	1968.10
649.29	1964.00
649.48	1931.23
649.67	1972.19
649.86	1978.34
650.05	2074.59
650.23	2189.28
650.42	2148.32
650.61	2246.62
650.80	2269.15
650.99	2254.81
651.18	2072.54
651.36	2179.04
651.55	1984.48
651.74	2068.45
651.93	2025.44
652.12	2011.11
652.31	2080.74
652.49	1941.47
652.68	1994.72
652.87	2115.55
653.06	1990.63
653.25	2148.32
653.44	2045.92
653.62	2119.65
653.81	1998.82
654.00	1912.80
654.19	2090.98
654.38	2123.74
654.56	2080.74
654.75	1964.00
654.94	2054.11
655.13	1964.00
655.32	1902.56
655.51	2037.73
655.69	1853.41
655.88	2037.73
656.07	1908.71
656.26	2011.11
656.45	1837.03
656.63	1970.15
656.82	2047.97
657.01	2041.82
657.20	1871.84
657.38	2027.49
657.57	1957.86
657.76	1918.95
657.95	2066.40
658.14	1892.32
658.32	1996.77
658.51	1843.17
658.70	1927.14
658.89	2004.96
659.08	2023.39
659.26	2090.98
659.45	1957.86
659.64	2086.88
659.83	1974.24
660.01	2414.56
660.20	1984.48
660.39	2111.46
660.58	1830.88
660.76	1994.72
660.95	1857.51
661.14	1927.14
661.33	1923.04
661.51	1961.95
661.70	1947.62
661.89	1972.19
662.08	1908.71
662.26	1865.70
662.45	1918.95
662.64	2131.94
662.83	2015.20
663.01	1916.90
663.20	1947.62
663.39	2099.17
663.58	1916.90
663.76	2011.11
663.95	1935.33
664.14	1873.89
664.32	1941.47
664.51	1978.34
664.70	1806.31
664.89	2068.45
665.07	1945.57
665.26	2043.87
665.45	1902.56
665.64	2058.21
665.82	2064.35
666.01	2031.58
666.20	1929.19
666.38	2060.26
666.57	2101.22
666.76	2867.16
666.95	6864.79
667.13	15048.47
667.32	20905.66
667.51	25321.09
667.69	27346.53
667.88	26109.55
668.07	18886.37
668.25	14737.18
668.44	11878.22
668.63	10211.17
668.81	8816.51
669.00	7927.69
669.19	7090.07
669.38	6166.43
669.56	5287.86
669.75	4394.94
669.94	3698.63
670.12	3043.28
670.31	2656.22
670.50	2475.99
670.68	2234.33
670.87	2197.47
671.06	2052.06
671.24	2123.74
671.43	2187.23
671.62	2207.71
671.80	2029.54
671.99	2058.21
672.18	2072.54
672.36	2019.30
672.55	2045.92
672.74	2000.87
672.92	2011.11
673.11	2035.68
673.29	1892.32
673.48	2009.06
673.67	2009.06
673.85	2050.02
674.04	1970.15
674.23	1992.67
674.41	2054.11
674.60	1937.38
674.79	1884.13
674.97	1923.04
675.16	2035.68
675.34	2045.92
675.53	1875.94
675.72	2007.01
675.90	2093.02
676.09	1935.33
676.28	2000.87
676.46	1834.98
676.65	2011.11
676.83	1859.56
677.02	1949.67
677.21	1966.05
677.39	1955.81
677.58	1869.80
677.77	1939.43
677.95	1968.10
678.14	1968.10
678.32	1957.86
678.51	1951.71
678.70	2115.55
678.88	1931.23
679.07	2054.11
679.25	1970.15
679.44	1966.05
679.63	1847.27
679.81	1988.58
680.00	2127.84
680.18	2029.54
680.37	2084.83
680.55	2029.54
680.74	1861.60
680.93	1906.66
681.11	2023.39
681.30	1984.48
681.48	2013.15
681.67	2021.35
681.85	2037.73
682.04	1900.52
682.23	2009.06
682.41	1961.95
682.60	1959.91
682.78	1976.29
682.97	1830.88
683.15	1976.29
683.34	2002.91
683.53	2086.88
683.71	1904.61
683.90	2064.35
684.08	2093.02
684.27	1968.10
684.45	2027.49
684.64	2090.98
684.82	1994.72
685.01	2093.02
685.19	1968.10
685.38	2033.63
685.57	1953.76
685.75	1892.32
685.94	2009.06
686.12	1888.23
686.31	1906.66
686.49	2090.98
686.68	1865.70
686.86	2002.91
687.05	1947.62
687.23	2113.50
687.42	1986.53
687.60	1869.80
687.79	1982.43
687.97	2080.74
688.16	2062.30
688.34	2068.45
688.53	1871.84
688.71	1998.82
688.90	2011.11
689.08	2000.87
689.27	1884.13
689.45	1992.67
689.64	2033.63
689.82	1951.71
690.01	2041.82
690.19	1918.95
690.38	2037.73
690.56	2043.87
690.75	1941.47
690.93	1916.90
691.12	1966.05
691.30	1945.57
691.49	2013.15
691.67	1910.75
691.86	2131.94
692.04	1929.19
692.23	1992.67
692.41	1984.48
692.60	2291.68
692.78	2140.13
692.97	2056.16
693.15	2119.65
693.34	2076.64
693.52	2097.12
693.71	2000.87
693.89	1902.56
694.08	1906.66
694.26	2072.54
694.44	2103.26
694.63	2033.63
694.81	1908.71
695.00	1869.80
695.18	2002.91
695.37	2045.92
695.55	2004.96
695.74	1861.60
695.92	1933.28
696.10	2058.21
696.29	1847.27
696.47	1894.37
696.66	1920.99
696.84	1894.37
697.03	2000.87
697.21	2127.84
697.40	2746.33
697.58	2090.98
697.76	1916.90
697.95	1914.85
698.13	1920.99
698.32	1910.75
698.50	1974.24
698.68	2070.50
698.87	1980.39
699.05	2150.37
699.24	2015.20
699.42	1898.47
699.61	1953.76
699.79	1961.95
699.97	1931.23
700.16	1892.32
700.34	1931.23
700.53	2023.39
700.71	2076.64
700.89	2095.07
701.08	1912.80
701.26	1996.77
701.45	2508.76
701.63	1968.10
701.81	2058.21
702.00	1943.52
702.18	1953.76
702.37	1918.95
702.55	2123.74
702.73	2242.53
702.92	2162.66
703.10	2375.64
703.28	2179.04
703.47	2068.45
703.65	2248.67
703.84	2125.79
704.02	2090.98
704.20	2205.66
704.39	2052.06
704.57	2062.30
704.75	2113.50
704.94	2093.02
705.12	2013.15
705.30	2258.91
705.49	3592.14
705.67	9381.74
705.86	19013.34
706.04	23889.56
706.22	27582.04
706.41	29503.04
706.59	26484.33
706.77	18738.91
706.96	14950.17
707.14	12777.28
707.32	11140.95
707.51	9807.72
707.69	8281.99
707.87	6737.82
708.06	5269.42
708.24	4149.18
708.42	3217.36
708.61	2949.08
708.79	2430.94
708.97	2228.19
709.16	2170.85
709.34	2125.79
709.52	1972.19
709.71	1976.29
709.89	2021.35
710.07	1873.89
710.26	1955.81
710.44	2009.06
710.62	2041.82
710.80	1953.76
710.99	2066.40
711.17	2107.36
711.35	1929.19
711.54	1898.47
711.72	2121.70
711.90	2033.63
712.09	1978.34
712.27	1990.63
712.45	1996.77
712.63	1935.33
712.82	1998.82
713.00	1972.19
713.18	2015.20
713.37	2072.54
713.55	1947.62
713.73	1972.19
713.91	1925.09
714.10	1976.29
714.28	2009.06
714.46	1982.43
714.65	2013.15
714.83	1974.24
715.01	1984.48
715.19	1939.43
715.38	1943.52
715.56	2035.68
715.74	1941.47
715.92	1890.28
716.11	2004.96
716.29	1884.13
716.47	2011.11
716.65	1992.67
716.84	1873.89
717.02	2017.25
717.20	1822.69
717.38	1978.34
717.57	1994.72
717.75	1902.56
717.93	1927.14
718.11	1996.77
718.30	1898.47
718.48	1920.99
718.66	1941.47
718.84	2037.73
719.03	1933.28
719.21	1855.46
719.39	2109.41
719.57	2050.02
719.75	2119.65
719.94	1884.13
720.12	1871.84
720.30	1984.48
720.48	2093.02
720.67	1937.38
720.85	1896.42
721.03	1943.52
721.21	1898.47
721.39	2084.83
721.58	1978.34
721.76	1933.28
721.94	2019.30
722.12	1978.34
722.30	2158.56
722.49	1871.84
722.67	2002.91
722.85	1941.47
723.03	1923.04
723.21	1886.18
723.40	1976.29
723.58	2027.49
723.76	2039.78
723.94	2131.94
724.12	2033.63
724.30	2086.88
724.49	2136.03
724.67	1955.81
724.85	2117.60
725.03	1976.29
725.21	2025.44
725.40	2117.60
725.58	1918.95
725.76	2080.74
725.94	1953.76
726.12	1849.32
726.30	1966.05
726.49	1904.61
726.67	2015.20
726.85	2080.74
727.03	2236.38
727.21	3213.26
727.39	4886.45
727.57	6289.31
727.76	6795.16
727.94	7384.98
728.12	7317.39
728.30	5816.23
728.48	4851.64
728.66	4378.56
728.84	3907.52
729.03	3514.31
729.21	2944.98
729.39	2672.60
729.57	2379.74
729.75	2191.33
729.93	2095.07
730.11	2011.11
730.30	1994.72
730.48	1970.15
730.66	2090.98
730.84	2031.58
731.02	1990.63
731.20	1918.95
731.38	1898.47
731.56	1892.32
731.74	1865.70
731.93	1941.47
732.11	2007.01
732.29	1957.86
732.47	2058.21
732.65	1951.71
732.83	2123.74
733.01	2015.20
733.19	1851.36
733.37	1970.15
733.56	2037.73
733.74	1892.32
733.92	2176.99
734.10	2002.91
734.28	2017.25
734.46	1929.19
734.64	1910.75
734.82	1968.10
735.00	1964.00
735.18	1959.91
735.36	1964.00
735.54	1968.10
735.73	1902.56
735.91	1941.47
736.09	2047.97
736.27	1974.24
736.45	1972.19
736.63	1802.21
736.81	1869.80
736.99	2052.06
737.17	2039.78
737.35	2017.25
737.53	1968.10
737.71	1927.14
737.89	2039.78
738.07	1953.76
738.25	1961.95
738.43	1900.52
738.61	1925.09
738.80	1906.66
738.98	1818.60
739.16	1953.76
739.34	1974.24
739.52	2115.55
739.70	1961.95
739.88	1992.67
740.06	1992.67
740.24	1814.50
740.42	2082.78
740.60	1810.40
740.78	1920.99
740.96	1877.99
741.14	1925.09
741.32	1972.19
741.50	1914.85
741.68	2170.85
741.86	2027.49
742.04	1861.60
742.22	1904.61
742.40	1892.32
742.58	1968.10
742.76	1884.13
742.94	2060.26
743.12	1933.28
743.30	2027.49
743.48	2029.54
743.66	1951.71
743.84	1990.63
744.02	1988.58
744.20	1953.76
744.38	1894.37
744.56	1939.43
744.74	2179.04
744.92	1961.95
745.10	2076.64
745.28	2019.30
745.46	2093.02
745.64	1882.08
745.82	2009.06
746.00	1920.99
746.18	1988.58
746.36	1886.18
746.54	2027.49
746.72	1957.86
746.90	1914.85
747.08	2070.50
747.26	1927.14
747.44	1892.32
747.62	2017.25
747.80	1945.57
747.98	2035.68
748.15	1988.58
748.33	2007.01
748.51	1953.76
748.69	2056.16
748.87	1939.43
749.05	1972.19
749.23	1982.43
749.41	2023.39
749.59	1943.52
749.77	2019.30
749.95	1920.99
750.13	1972.19
750.31	1980.39
750.49	1943.52
750.67	1976.29
750.85	2076.64
751.03	1972.19
751.20	2076.64
751.38	1894.37
751.56	1877.99
751.74	1961.95
751.92	2011.11
752.10	1886.18
752.28	2084.83
752.46	2004.96
752.64	2045.92
752.82	1992.67
753.00	2031.58
753.18	1910.75
753.35	1910.75
753.53	1961.95
753.71	1861.60
753.89	1982.43
754.07	2035.68
754.25	2031.58
754.43	2023.39
754.61	1869.80
754.79	2002.91
754.97	1912.80
755.14	2074.59
755.32	1900.52
755.50	1994.72
755.68	1996.77
755.86	1906.66
756.04	1945.57
756.22	1806.31
756.40	2004.96
756.57	2088.93
756.75	1892.32
756.93	2086.88
757.11	2093.02
757.29	1888.23
757.47	1896.42
757.65	1826.79
757.82	1845.22
758.00	1927.14
758.18	1976.29
758.36	1931.23
758.54	2021.35
758.72	1845.22
758.90	1988.58
759.07	1988.58
759.25	1882.08
759.43	1941.47
759.61	1818.60
759.79	2613.21
759.97	2084.83
760.15	1968.10
760.32	1886.18
760.50	1988.58
760.68	2103.26
760.86	1837.03
761.04	2043.87
761.22	2031.58
761.39	1953.76
761.57	1914.85
761.75	1978.34
761.93	1931.23
762.11	1955.81
762.28	1976.29
762.46	1875.94
762.64	2066.40
762.82	1820.64
763.00	1951.71
763.18	2125.79
763.35	1920.99
763.53	1972.19
763.71	1941.47
763.89	1941.47
764.07	1996.77
764.24	1982.43
764.42	1992.67
764.60	1974.24
764.78	2004.96
764.96	2045.92
765.13	2041.82
765.31	1947.62
765.49	2015.20
765.67	1902.56
765.84	1925.09
766.02	1914.85
766.20	1859.56
766.38	1945.57
766.56	1994.72
766.73	1988.58
766.91	2015.20
767.09	1916.90
767.27	1951.71
767.44	1877.99
767.62	1992.67
767.80	2017.25
767.98	1916.90
768.15	1974.24
768.33	1949.67
768.51	2031.58
768.69	1998.82
768.87	1920.99
769.04	1964.00
769.22	2119.65
769.40	1996.77
769.58	2095.07
769.75	1916.90
769.93	2066.40
770.11	1941.47
770.28	1929.19
770.46	2050.02
770.64	2011.11
770.82	1951.71
770.99	1968.10
771.17	1957.86
771.35	1966.05
771.53	1890.28
771.70	1937.38
771.88	1998.82
772.06	2041.82
772.23	2009.06
772.41	1992.67
772.59	1996.77
772.77	1896.42
772.94	2013.15
773.12	1988.58
773.30	1990.63
773.47	1964.00
773.65	1873.89
773.83	2013.15
774.01	1964.00
774.18	1816.55
774.36	1896.42
774.54	1871.84
774.71	1986.53
774.89	1902.56
775.07	1914.85
775.24	1976.29
775.42	1978.34
775.60	2029.54
775.78	1941.47
775.95	1880.04
776.13	1886.18
776.31	1808.36
776.48	1984.48
776.66	2070.50
776.84	1964.00
777.01	1898.47
777.19	1918.95
777.37	1869.80
777.54	2002.91
777.72	2123.74
777.90	1935.33
778.07	1845.22
778.25	2170.85
778.43	2076.64
778.60	1984.48
778.78	1968.10
778.96	2033.63
779.13	1910.75
779.31	2029.54
779.49	1957.86
779.66	2029.54
779.84	1912.80
780.01	1964.00
780.19	1773.54
780.37	2045.92
780.54	2000.87
780.72	1847.27
780.90	1880.04
781.07	1959.91
781.25	1945.57
781.43	2074.59
781.60	1851.36
781.78	2076.64
781.95	1957.86
782.13	1880.04
782.31	1882.08
782.48	1796.07
782.66	1894.37
782.83	2084.83
783.01	1906.66
783.19	2011.11
783.36	1966.05
783.54	1880.04
783.72	2015.20
783.89	1947.62
784.07	1912.80
784.24	2009.06
784.42	2013.15
784.60	1955.81
784.77	1882.08
784.95	1884.13
785.12	1839.08
785.30	1896.42
785.47	1896.42
785.65	1935.33
785.83	1914.85
786.00	1898.47
786.18	2007.01
786.35	1884.13
786.53	1939.43
786.71	1972.19
786.88	2013.15
787.06	2007.01
787.23	1945.57
787.41	1904.61
787.58	2023.39
787.76	1839.08
787.94	1998.82
788.11	2000.87
788.29	1859.56
788.46	1875.94
788.64	1890.28
788.81	1939.43
788.99	1894.37
789.16	1839.08
789.34	1990.63
789.52	1906.66
789.69	1902.56
789.87	1855.46
790.04	1937.38
790.22	1929.19
790.39	2133.98
790.57	1902.56
790.74	1853.41
790.92	2013.15
791.09	1834.98
791.27	1851.36
791.44	2043.87
791.62	1912.80
791.79	2088.93
791.97	1982.43
792.15	2224.09
792.32	1982.43
792.50	1951.71
792.67	2013.15
792.85	1968.10
793.02	2033.63
793.20	1972.19
793.37	1798.12
793.55	1961.95
793.72	1867.75
793.90	1947.62
794.07	1961.95
794.25	1900.52
794.42	2015.20
794.60	1873.89
794.77	1992.67
794.95	2017.25
795.12	1949.67
795.30	2031.58
795.47	1767.40
795.65	2230.24
795.82	1908.71
796.00	1898.47
796.17	1898.47
796.34	1910.75
796.52	1978.34
796.69	2023.39
796.87	2017.25
797.04	1961.95
797.22	2047.97
797.39	1968.10
797.57	1986.53
797.74	1988.58
797.92	1976.29
798.09	1957.86
798.27	2144.22
798.44	1896.42
798.62	1898.47
798.79	1910.75
798.96	1998.82
799.14	2037.73
799.31	2138.08
799.49	1898.47
799.66	1982.43
799.84	2007.01
800.01	2000.87
800.19	2037.73
800.36	1857.51
800.53	1947.62
800.71	1961.95
800.88	2082.78
801.06	1855.46
801.23	1976.29
801.41	1908.71
801.58	1912.80
801.75	1904.61
801.93	1964.00
802.10	1982.43
802.28	1925.09
802.45	1880.04
802.63	2007.01
802.80	2078.69
802.97	1925.09
803.15	1863.65
803.32	1966.05
803.50	1990.63
803.67	1943.52
803.84	1820.64
804.02	1896.42
804.19	1945.57
804.37	1830.88
804.54	1923.04
804.71	1923.04
804.89	2033.63
805.06	1937.38
805.24	1877.99
805.41	1927.14
805.58	1904.61
805.76	2142.18
805.93	1986.53
806.10	2062.30
806.28	2004.96
806.45	1923.04
806.63	2021.35
806.80	1931.23
806.97	1935.33
807.15	1959.91
807.32	2027.49
807.49	1974.24
807.67	1847.27
807.84	1986.53
808.01	1892.32
808.19	2058.21
808.36	2078.69
808.54	1845.22
808.71	1941.47
808.88	1927.14
809.06	2058.21
809.23	2103.26
809.40	1927.14
809.58	2011.11
809.75	1925.09
809.92	1886.18
810.10	2054.11
810.27	1984.48
810.44	2007.01
810.62	2031.58
810.79	1943.52
810.96	1818.60
811.14	1978.34
811.31	1972.19
811.48	1972.19
811.66	1978.34
811.83	2095.07
812.00	2013.15
812.18	1964.00
812.35	2168.80
812.52	1951.71
812.69	1925.09
812.87	1990.63
813.04	1892.32
813.21	1945.57
813.39	1896.42
813.56	1834.98
813.73	2037.73
813.91	1853.41
814.08	1933.28
814.25	2007.01
814.42	1855.46
814.60	1916.90
814.77	1986.53
814.94	1968.10
815.12	2004.96
815.29	1986.53
815.46	1943.52
815.63	1949.67
815.81	1980.39
815.98	1961.95
816.15	1900.52
816.33	2002.91
816.50	1970.15
816.67	1914.85
816.84	1959.91
817.02	1882.08
817.19	1984.48
817.36	2007.01
817.53	2015.20
817.71	1904.61
817.88	2035.68
818.05	1902.56
818.22	1896.42
818.40	2035.68
818.57	1904.61
818.74	2031.58
818.91	1918.95
819.09	1986.53
819.26	2035.68
819.43	1951.71
819.60	1869.80
819.78	1955.81
819.95	2090.98
820.12	1855.46
820.29	1994.72
820.47	2113.50
820.64	2029.54
820.81	1816.55
820.98	1918.95
821.15	1923.04
821.33	1978.34
821.50	1798.12
821.67	1980.39
821.84	1949.67
822.02	2013.15
822.19	2103.26
822.36	1896.42
822.53	1951.71
822.70	1845.22
822.88	1945.57
823.05	2174.94
823.22	1923.04
823.39	1918.95
823.56	1945.57
823.74	2064.35
823.91	1904.61
824.08	1849.32
824.25	1943.52
824.42	2129.89
824.60	1759.21
824.77	2004.96
824.94	1920.99
825.11	1959.91
825.28	1857.51
825.45	1970.15
825.63	1953.76
825.80	1847.27
825.97	2037.73
826.14	2000.87
826.31	1800.16
826.48	1986.53
826.66	1847.27
826.83	1953.76
827.00	1916.90
827.17	1882.08
827.34	1953.76
827.51	1902.56
827.69	2002.91
827.86	1851.36
828.03	1906.66
828.20	2002.91
828.37	1898.47
828.54	1990.63
828.71	1906.66
828.89	2086.88
829.06	1943.52
829.23	2164.70
829.40	1904.61
829.57	1935.33
829.74	2017.25
829.91	1861.60
830.09	1886.18
830.26	1939.43
830.43	2050.02
830.60	1947.62
830.77	1984.48
830.94	2011.11
831.11	2017.25
831.28	1949.67
831.46	2000.87
831.63	1951.71
831.80	1980.39
831.97	1990.63
832.14	1812.45
832.31	1939.43
832.48	1904.61
832.65	1990.63
832.82	2007.01
832.99	1959.91
833.17	1843.17
833.34	2033.63
833.51	1955.81
833.68	1877.99
833.85	2009.06
834.02	1892.32
834.19	1853.41
834.36	1888.23
834.53	1964.00
834.70	2078.69
834.87	2011.11
835.04	1964.00
835.22	1920.99
835.39	1914.85
835.56	1877.99
835.73	1910.75
835.90	1949.67
836.07	1943.52
836.24	1943.52
836.41	1834.98
836.58	1877.99
836.75	2050.02
836.92	1953.76
837.09	1982.43
837.26	2025.44
837.43	2054.11
837.60	2035.68
837.77	1841.12
837.94	1974.24
838.12	1945.57
838.29	1986.53
838.46	1849.32
838.63	1871.84
838.80	2115.55
838.97	1949.67
839.14	1908.71
839.31	2004.96
839.48	2045.92
839.65	1877.99
839.82	2019.30
839.99	1923.04
840.16	1992.67
840.33	1904.61
840.50	1949.67
840.67	1908.71
840.84	1757.16
841.01	1871.84
841.18	1894.37
841.35	1886.18
841.52	2037.73
841.69	2074.59
841.86	2019.30
842.03	1947.62
842.20	1959.91
842.37	1937.38
842.54	2000.87
842.71	1941.47
842.88	1845.22
843.05	1990.63
843.22	1966.05
843.39	2050.02
843.56	1882.08
843.73	1951.71
843.90	1961.95
844.07	1884.13
844.24	2041.82
844.41	2029.54
844.58	1945.57
844.75	1964.00
844.92	1976.29
845.09	1968.10
845.26	1757.16
845.43	2105.31
845.60	1982.43
845.77	1992.67
845.94	1990.63
846.10	2054.11
846.27	1896.42
846.44	1906.66
846.61	1812.45
846.78	1968.10
846.95	2056.16
847.12	1886.18
847.29	1931.23
847.46	1880.04
847.63	2017.25
847.80	1947.62
847.97	1847.27
848.14	2090.98
848.31	1843.17
848.48	1871.84
848.65	1953.76
848.82	1986.53
848.98	2109.41
849.15	1992.67
849.32	2047.97
849.49	1988.58
849.66	1945.57
849.83	1937.38
850.00	1812.45
850.17	1968.10
850.34	1935.33
850.51	1931.23
850.68	2000.87
850.85	2105.31
851.01	2025.44
851.18	1972.19
851.35	1972.19
851.52	2111.46
851.69	1992.67
851.86	1916.90
852.03	1923.04
852.20	1988.58
852.37	1896.42
852.53	1839.08
852.70	1918.95
852.87	1992.67
853.04	2021.35
853.21	1843.17
853.38	2035.68
853.55	2043.87
853.72	2115.55
853.89	1882.08
854.05	1951.71
854.22	1943.52
854.39	1953.76
854.56	2000.87
854.73	1982.43
854.90	1884.13
855.07	1925.09
855.23	1982.43
855.40	1931.23
855.57	2015.20
855.74	1882.08
855.91	2176.99
856.08	1847.27
856.25	1845.22
856.41	1900.52
856.58	1974.24
856.75	2064.35
856.92	1861.60
857.09	2037.73
857.26	1890.28
857.42	1935.33
857.59	1968.10
857.76	1927.14
857.93	2031.58
858.10	1966.05
858.27	1871.84
858.43	1994.72
858.60	1853.41
858.77	1763.30
858.94	1941.47
859.11	1961.95
859.27	1964.00
859.44	1951.71
859.61	2023.39
859.78	1966.05
859.95	1927.14
860.12	1841.12
860.28	2140.13
860.45	2187.23
860.62	1931.23
860.79	2007.01
860.95	1959.91
861.12	1896.42
861.29	1916.90
861.46	1910.75
861.63	1906.66
861.79	2019.30
861.96	1920.99
862.13	1931.23
862.30	2015.20
862.47	1871.84
862.63	1886.18
862.80	2013.15
862.97	1959.91
863.14	1957.86
863.30	1988.58
863.47	1925.09
863.64	2082.78
863.81	1980.39
863.97	1941.47
864.14	1910.75
864.31	1939.43
864.48	2009.06
864.65	1939.43
864.81	2019.30
864.98	1923.04
865.15	2000.87
865.32	2011.11
865.48	2035.68
865.65	2021.35
865.82	1970.15
865.98	2015.20
866.15	1957.86
866.32	1880.04
866.49	1933.28
866.65	2015.20
866.82	1859.56
866.99	1912.80
867.16	1949.67
867.32	1898.47
867.49	1916.90
867.66	1849.32
867.83	1859.56
867.99	1818.60
868.16	1947.62
868.33	1869.80
868.49	1966.05
868.66	1855.46
868.83	1978.34
868.99	2009.06
869.16	1945.57
869.33	2002.91
869.50	2013.15
869.66	2000.87
869.83	1955.81
870.00	1791.97
870.16	1978.34
870.33	1974.24
870.50	2043.87
870.66	1978.34
870.83	2127.84
871.00	2021.35
871.17	2027.49
871.33	1939.43
871.50	1980.39
871.67	1931.23
871.83	1927.14
872.00	2074.59
872.17	1966.05
872.33	2068.45
872.50	2088.93
872.67	1937.38
872.83	1910.75
873.00	2004.96
873.17	1961.95
873.33	1896.42
873.50	1957.86
873.67	1890.28
873.83	1884.13
874.00	1957.86
874.16	2013.15
874.33	1925.09
874.50	1861.60
874.66	1957.86
874.83	2050.02
875.00	2070.50
875.16	1990.63
875.33	2148.32
875.50	1812.45
875.66	1918.95
875.83	1896.42
875.99	1984.48
876.16	1861.60
876.33	1851.36
876.49	1998.82
876.66	1882.08
876.83	1943.52
876.99	1865.70
877.16	1941.47
877.32	1951.71
877.49	1964.00
877.66	1988.58
877.82	2068.45
877.99	1990.63
878.15	1988.58
878.32	2007.01
878.49	1978.34
878.65	1888.23
878.82	2078.69
878.98	1828.84
879.15	1998.82
879.32	2025.44
879.48	1906.66
879.65	1957.86
879.81	2017.25
879.98	1855.46
880.15	1894.37
880.31	1970.15
880.48	1918.95
880.64	2054.11
880.81	1914.85
880.97	2011.11
881.14	1990.63
881.31	1925.09
881.47	2103.26
881.64	1945.57
881.80	1867.75
881.97	1933.28
882.13	2000.87
882.30	1847.27
882.47	1910.75
882.63	1865.70
882.80	1808.36
882.96	1918.95
883.13	2070.50
883.29	1945.57
883.46	1871.84
883.62	2050.02
883.79	1984.48
883.95	2056.16
884.12	1939.43
884.29	2076.64
884.45	2002.91
884.62	1990.63
884.78	1902.56
884.95	2088.93
885.11	1867.75
885.28	2021.35
885.44	1914.85
885.61	1953.76
885.77	2115.55
885.94	2074.59
886.10	1898.47
886.27	1984.48
886.43	2080.74
886.60	1974.24
886.76	1857.51
886.93	1859.56
887.09	1941.47
887.26	1822.69
887.42	1959.91
887.59	2074.59
887.75	2052.06
887.92	1978.34
888.08	1980.39
888.25	2054.11
888.41	1986.53
888.58	1953.76
888.74	1814.50
888.91	1904.61
>>>>>End Processed Spectral Data<<<<<
