SpectraSuite Data File
++++++++++++++++++++++++++++++++++++
Date: Wed May 04 22:45:47 CEST 2016
User: root
Dark Spectrum Present: No
Reference Spectrum Present: No
Number of Sampled Component Spectra: 1
Spectrometers: USB4C02835
Integration Time (usec): 100000 (USB4C02835)
Spectra Averaged: 1 (USB4C02835)
Boxcar Smoothing: 0 (USB4C02835)
Correct for Electrical Dark: No (USB4C02835)
Strobe/Lamp Enabled: No (USB4C02835)
Correct for Detector Non-linearity: No (USB4C02835)
Correct for Stray Light: No (USB4C02835)
Number of Pixels in Processed Spectrum: 3648
>>>>>Begin Processed Spectral Data<<<<<
177.47	1609.70
177.69	1609.70
177.91	1609.70
178.13	1583.08
178.36	1605.61
178.58	1920.99
178.80	1941.47
179.02	1908.71
179.24	1869.80
179.46	1953.76
179.68	1943.52
179.90	1923.04
180.13	1951.71
180.35	1894.37
180.57	1923.04
180.79	1990.63
181.01	1894.37
181.23	1968.10
181.45	1964.00
181.67	1996.77
181.90	2045.92
182.12	1880.04
182.34	1882.08
182.56	1992.67
182.78	2000.87
183.00	1927.14
183.22	1920.99
183.44	1894.37
183.66	2166.75
183.89	2025.44
184.11	2000.87
184.33	2019.30
184.55	2076.64
184.77	1980.39
184.99	1996.77
185.21	1906.66
185.43	2166.75
185.65	1972.19
185.87	1925.09
186.10	2041.82
186.32	2172.89
186.54	2002.91
186.76	2017.25
186.98	2076.64
187.20	1918.95
187.42	1943.52
187.64	1959.91
187.86	1972.19
188.08	2068.45
188.30	1916.90
188.52	1929.19
188.75	2093.02
188.97	2115.55
189.19	1894.37
189.41	1894.37
189.63	2027.49
189.85	1935.33
190.07	1855.46
190.29	1837.03
190.51	2007.01
190.73	1859.56
190.95	2056.16
191.17	1900.52
191.39	1882.08
191.61	1925.09
191.84	1935.33
192.06	1980.39
192.28	1851.36
192.50	2142.18
192.72	1925.09
192.94	1955.81
193.16	2007.01
193.38	1988.58
193.60	1894.37
193.82	1894.37
194.04	2050.02
194.26	2041.82
194.48	1904.61
194.70	1931.23
194.92	1900.52
195.14	1925.09
195.36	1884.13
195.58	1996.77
195.80	1927.14
196.02	1910.75
196.24	1916.90
196.46	1861.60
196.69	1884.13
196.91	2109.41
197.13	1867.75
197.35	1884.13
197.57	2082.78
197.79	1990.63
198.01	2019.30
198.23	1992.67
198.45	1923.04
198.67	1906.66
198.89	1964.00
199.11	1984.48
199.33	1923.04
199.55	1857.51
199.77	1912.80
199.99	2054.11
200.21	1871.84
200.43	2009.06
200.65	1855.46
200.87	1789.92
201.09	2023.39
201.31	1964.00
201.53	1920.99
201.75	2009.06
201.97	2002.91
202.19	1966.05
202.41	2017.25
202.63	1980.39
202.85	1964.00
203.07	1994.72
203.29	1910.75
203.51	1871.84
203.73	1916.90
203.95	2138.08
204.17	1857.51
204.39	1972.19
204.61	1955.81
204.83	1910.75
205.05	2045.92
205.27	2009.06
205.49	2113.50
205.71	1949.67
205.93	1851.36
206.15	1918.95
206.37	1968.10
206.59	1978.34
206.81	1894.37
207.03	1908.71
207.25	1902.56
207.47	1994.72
207.69	1996.77
207.91	2023.39
208.13	2074.59
208.34	1945.57
208.56	1880.04
208.78	1908.71
209.00	1906.66
209.22	1845.22
209.44	1867.75
209.66	1943.52
209.88	1945.57
210.10	1892.32
210.32	1941.47
210.54	2011.11
210.76	1966.05
210.98	2041.82
211.20	1777.64
211.42	1955.81
211.64	2050.02
211.86	1951.71
212.08	1982.43
212.30	1882.08
212.52	1923.04
212.74	1974.24
212.96	2011.11
213.17	1959.91
213.39	2054.11
213.61	2058.21
213.83	1933.28
214.05	1890.28
214.27	1976.29
214.49	1857.51
214.71	1890.28
214.93	1906.66
215.15	1933.28
215.37	2009.06
215.59	1785.83
215.81	1966.05
216.03	2025.44
216.24	1871.84
216.46	1931.23
216.68	1968.10
216.90	2066.40
217.12	2033.63
217.34	1894.37
217.56	1961.95
217.78	2047.97
218.00	2027.49
218.22	1914.85
218.44	1984.48
218.66	1951.71
218.87	2080.74
219.09	1898.47
219.31	1970.15
219.53	1947.62
219.75	1953.76
219.97	1935.33
220.19	1972.19
220.41	1966.05
220.63	2031.58
220.85	2011.11
221.06	1970.15
221.28	2050.02
221.50	1972.19
221.72	1976.29
221.94	1896.42
222.16	1923.04
222.38	2117.60
222.60	1994.72
222.82	1900.52
223.03	1990.63
223.25	1927.14
223.47	1980.39
223.69	2088.93
223.91	2047.97
224.13	1976.29
224.35	1843.17
224.57	2054.11
224.78	2004.96
225.00	1953.76
225.22	1906.66
225.44	1951.71
225.66	2033.63
225.88	1951.71
226.10	1964.00
226.32	1888.23
226.53	1982.43
226.75	1875.94
226.97	1957.86
227.19	2027.49
227.41	1882.08
227.63	1896.42
227.85	1845.22
228.06	1925.09
228.28	1949.67
228.50	1955.81
228.72	1873.89
228.94	1875.94
229.16	1851.36
229.37	1892.32
229.59	1927.14
229.81	2023.39
230.03	1996.77
230.25	1861.60
230.47	1851.36
230.69	1857.51
230.90	2029.54
231.12	1970.15
231.34	1955.81
231.56	2013.15
231.78	1869.80
232.00	1955.81
232.21	1925.09
232.43	1884.13
232.65	1804.26
232.87	1933.28
233.09	1841.12
233.30	1853.41
233.52	2037.73
233.74	1918.95
233.96	1896.42
234.18	1996.77
234.40	1951.71
234.61	2121.70
234.83	1802.21
235.05	1818.60
235.27	2185.18
235.49	2025.44
235.70	1953.76
235.92	1966.05
236.14	1937.38
236.36	2107.36
236.58	1853.41
236.79	1955.81
237.01	1920.99
237.23	1980.39
237.45	2056.16
237.67	1890.28
237.88	1935.33
238.10	2090.98
238.32	1933.28
238.54	1937.38
238.76	1976.29
238.97	1894.37
239.19	1837.03
239.41	1994.72
239.63	1988.58
239.85	1828.84
240.06	1937.38
240.28	1925.09
240.50	2074.59
240.72	1984.48
240.93	1906.66
241.15	2037.73
241.37	1935.33
241.59	2076.64
241.81	1918.95
242.02	1853.41
242.24	1982.43
242.46	2009.06
242.68	1867.75
242.89	1837.03
243.11	2080.74
243.33	1988.58
243.55	1976.29
243.76	1988.58
243.98	1906.66
244.20	1941.47
244.42	1937.38
244.64	1888.23
244.85	1808.36
245.07	1822.69
245.29	1978.34
245.51	1941.47
245.72	1923.04
245.94	2072.54
246.16	1949.67
246.38	2021.35
246.59	1966.05
246.81	1882.08
247.03	1941.47
247.24	1834.98
247.46	1902.56
247.68	1933.28
247.90	1914.85
248.11	1994.72
248.33	2025.44
248.55	1980.39
248.77	1935.33
248.98	1943.52
249.20	2113.50
249.42	2037.73
249.64	1892.32
249.85	1902.56
250.07	1970.15
250.29	1943.52
250.50	2019.30
250.72	1824.74
250.94	2023.39
251.16	2136.03
251.37	1953.76
251.59	1955.81
251.81	2007.01
252.02	2158.56
252.24	1947.62
252.46	2080.74
252.68	1806.31
252.89	1857.51
253.11	1849.32
253.33	2047.97
253.54	2029.54
253.76	1894.37
253.98	1904.61
254.20	1931.23
254.41	1896.42
254.63	1998.82
254.85	1849.32
255.06	1882.08
255.28	1998.82
255.50	1945.57
255.71	1882.08
255.93	1910.75
256.15	1972.19
256.36	1996.77
256.58	1857.51
256.80	2025.44
257.02	1865.70
257.23	1898.47
257.45	1951.71
257.67	1959.91
257.88	1867.75
258.10	1957.86
258.32	1925.09
258.53	1955.81
258.75	2099.17
258.97	1935.33
259.18	1937.38
259.40	1945.57
259.62	2140.13
259.83	2086.88
260.05	1986.53
260.27	2273.25
260.48	2007.01
260.70	1849.32
260.92	1886.18
261.13	1931.23
261.35	1947.62
261.57	1886.18
261.78	1816.55
262.00	1871.84
262.22	2002.91
262.43	1871.84
262.65	1961.95
262.86	1937.38
263.08	2111.46
263.30	1955.81
263.51	1830.88
263.73	1906.66
263.95	2076.64
264.16	1898.47
264.38	1908.71
264.60	1933.28
264.81	1957.86
265.03	2007.01
265.25	2029.54
265.46	1888.23
265.68	1984.48
265.89	2009.06
266.11	1898.47
266.33	1961.95
266.54	1972.19
266.76	1918.95
266.98	1996.77
267.19	2052.06
267.41	2062.30
267.62	1972.19
267.84	1826.79
268.06	2033.63
268.27	1927.14
268.49	2072.54
268.70	1992.67
268.92	1996.77
269.14	1935.33
269.35	1900.52
269.57	1996.77
269.79	1980.39
270.00	1910.75
270.22	2152.42
270.43	1884.13
270.65	1787.88
270.87	2021.35
271.08	2047.97
271.30	1923.04
271.51	1880.04
271.73	2084.83
271.95	2007.01
272.16	1968.10
272.38	1964.00
272.59	1857.51
272.81	1968.10
273.02	1898.47
273.24	1970.15
273.46	2017.25
273.67	1906.66
273.89	1935.33
274.10	1882.08
274.32	2074.59
274.54	1955.81
274.75	2019.30
274.97	1910.75
275.18	1992.67
275.40	1923.04
275.61	2023.39
275.83	1927.14
276.05	1863.65
276.26	1984.48
276.48	1931.23
276.69	1935.33
276.91	1916.90
277.12	2052.06
277.34	1980.39
277.55	1994.72
277.77	1990.63
277.99	1908.71
278.20	1832.93
278.42	1871.84
278.63	1841.12
278.85	1834.98
279.06	1826.79
279.28	2045.92
279.49	2050.02
279.71	2054.11
279.93	1998.82
280.14	1937.38
280.36	1853.41
280.57	2076.64
280.79	2002.91
281.00	1945.57
281.22	1882.08
281.43	1949.67
281.65	1767.40
281.86	1865.70
282.08	2004.96
282.29	2152.42
282.51	1906.66
282.73	1853.41
282.94	1849.32
283.16	2011.11
283.37	2111.46
283.59	1894.37
283.80	2004.96
284.02	1966.05
284.23	1984.48
284.45	1935.33
284.66	1892.32
284.88	1916.90
285.09	1939.43
285.31	2035.68
285.52	1914.85
285.74	1867.75
285.95	2045.92
286.17	1994.72
286.38	2109.41
286.60	1904.61
286.81	1910.75
287.03	1984.48
287.24	1898.47
287.46	1951.71
287.67	2023.39
287.89	2050.02
288.10	1884.13
288.32	1937.38
288.53	1945.57
288.75	1890.28
288.96	1957.86
289.18	1982.43
289.39	1941.47
289.61	1992.67
289.82	2189.28
290.04	2076.64
290.25	1892.32
290.47	2035.68
290.68	1916.90
290.90	2037.73
291.11	1869.80
291.33	2019.30
291.54	1918.95
291.76	1910.75
291.97	1968.10
292.18	1970.15
292.40	1959.91
292.61	1904.61
292.83	2179.04
293.04	2033.63
293.26	1937.38
293.47	1898.47
293.69	1865.70
293.90	1961.95
294.12	2007.01
294.33	1970.15
294.55	2015.20
294.76	1914.85
294.97	2052.06
295.19	2041.82
295.40	1912.80
295.62	2039.78
295.83	2015.20
296.05	1964.00
296.26	2072.54
296.48	1955.81
296.69	1974.24
296.90	1916.90
297.12	2056.16
297.33	2140.13
297.55	1966.05
297.76	2027.49
297.98	2050.02
298.19	1955.81
298.41	1990.63
298.62	1816.55
298.83	2004.96
299.05	1929.19
299.26	1910.75
299.48	1968.10
299.69	1900.52
299.90	1986.53
300.12	1908.71
300.33	1984.48
300.55	1900.52
300.76	1941.47
300.98	1912.80
301.19	1972.19
301.40	1927.14
301.62	1923.04
301.83	1982.43
302.05	1974.24
302.26	1894.37
302.47	2002.91
302.69	1898.47
302.90	1949.67
303.12	1804.26
303.33	2013.15
303.54	2029.54
303.76	1976.29
303.97	1894.37
304.19	2078.69
304.40	1894.37
304.61	2043.87
304.83	2011.11
305.04	1978.34
305.26	1978.34
305.47	1927.14
305.68	1949.67
305.90	1906.66
306.11	2013.15
306.33	1966.05
306.54	1951.71
306.75	1920.99
306.97	1843.17
307.18	1869.80
307.39	1920.99
307.61	1951.71
307.82	1933.28
308.04	1916.90
308.25	1951.71
308.46	1945.57
308.68	1964.00
308.89	1888.23
309.10	1984.48
309.32	1949.67
309.53	1898.47
309.74	1982.43
309.96	2007.01
310.17	2027.49
310.39	1914.85
310.60	1992.67
310.81	1886.18
311.03	1912.80
311.24	1910.75
311.45	1978.34
311.67	2107.36
311.88	1978.34
312.09	1900.52
312.31	1914.85
312.52	1947.62
312.73	1978.34
312.95	1890.28
313.16	1923.04
313.37	2017.25
313.59	2070.50
313.80	2017.25
314.01	2105.31
314.23	1964.00
314.44	1865.70
314.65	1902.56
314.87	1880.04
315.08	1918.95
315.29	1988.58
315.51	1916.90
315.72	1861.60
315.93	2021.35
316.15	2035.68
316.36	1855.46
316.57	1894.37
316.79	1916.90
317.00	1910.75
317.21	1972.19
317.43	1861.60
317.64	1914.85
317.85	1871.84
318.07	1920.99
318.28	1996.77
318.49	2060.26
318.70	2197.47
318.92	2199.52
319.13	2205.66
319.34	2097.12
319.56	2068.45
319.77	2084.83
319.98	2031.58
320.20	2009.06
320.41	2101.22
320.62	2007.01
320.83	1974.24
321.05	2080.74
321.26	2021.35
321.47	1951.71
321.69	2068.45
321.90	1843.17
322.11	1851.36
322.32	1984.48
322.54	2074.59
322.75	1955.81
322.96	2170.85
323.18	1826.79
323.39	1806.31
323.60	1853.41
323.81	1982.43
324.03	1931.23
324.24	1982.43
324.45	1982.43
324.66	1929.19
324.88	2011.11
325.09	2117.60
325.30	1933.28
325.52	1984.48
325.73	1964.00
325.94	1869.80
326.15	1789.92
326.37	1890.28
326.58	2060.26
326.79	2080.74
327.00	1972.19
327.22	1943.52
327.43	1968.10
327.64	1849.32
327.85	1923.04
328.07	2035.68
328.28	2099.17
328.49	1902.56
328.70	1982.43
328.92	1927.14
329.13	1953.76
329.34	1937.38
329.55	2072.54
329.76	2045.92
329.98	1972.19
330.19	2047.97
330.40	1966.05
330.61	1978.34
330.83	2062.30
331.04	1839.08
331.25	1994.72
331.46	1884.13
331.68	1853.41
331.89	2060.26
332.10	1882.08
332.31	1900.52
332.52	1949.67
332.74	2054.11
332.95	1851.36
333.16	1873.89
333.37	1978.34
333.58	1964.00
333.80	2017.25
334.01	1853.41
334.22	1863.65
334.43	1828.84
334.64	1888.23
334.86	1779.68
335.07	1888.23
335.28	2119.65
335.49	1892.32
335.70	1953.76
335.92	2000.87
336.13	2158.56
336.34	1908.71
336.55	2021.35
336.76	1961.95
336.98	1822.69
337.19	1957.86
337.40	2056.16
337.61	2099.17
337.82	1888.23
338.04	2074.59
338.25	1837.03
338.46	1841.12
338.67	1898.47
338.88	1896.42
339.09	1966.05
339.31	1920.99
339.52	1832.93
339.73	1892.32
339.94	1937.38
340.15	1945.57
340.36	1877.99
340.58	1974.24
340.79	1953.76
341.00	1964.00
341.21	1925.09
341.42	2138.08
341.63	1916.90
341.85	2029.54
342.06	1929.19
342.27	1914.85
342.48	2056.16
342.69	1814.50
342.90	1984.48
343.12	2015.20
343.33	1976.29
343.54	2023.39
343.75	2072.54
343.96	1908.71
344.17	1896.42
344.38	1904.61
344.60	1947.62
344.81	1869.80
345.02	1920.99
345.23	2029.54
345.44	2121.70
345.65	1929.19
345.86	2021.35
346.07	2027.49
346.29	1918.95
346.50	2037.73
346.71	1980.39
346.92	2027.49
347.13	2166.75
347.34	1964.00
347.55	1980.39
347.76	1984.48
347.98	1865.70
348.19	1861.60
348.40	2060.26
348.61	1906.66
348.82	2090.98
349.03	1980.39
349.24	1834.98
349.45	2125.79
349.66	1906.66
349.88	1943.52
350.09	1882.08
350.30	2033.63
350.51	2047.97
350.72	2004.96
350.93	1974.24
351.14	1945.57
351.35	2029.54
351.56	1968.10
351.77	1925.09
351.99	2035.68
352.20	2179.04
352.41	2062.30
352.62	1902.56
352.83	1894.37
353.04	1982.43
353.25	1894.37
353.46	2031.58
353.67	1984.48
353.88	1869.80
354.09	1871.84
354.30	1980.39
354.52	2066.40
354.73	1865.70
354.94	1871.84
355.15	1974.24
355.36	2090.98
355.57	1966.05
355.78	1945.57
355.99	1920.99
356.20	1951.71
356.41	1933.28
356.62	1957.86
356.83	1920.99
357.04	2119.65
357.25	1810.40
357.46	1904.61
357.68	1851.36
357.89	1837.03
358.10	1943.52
358.31	1953.76
358.52	1933.28
358.73	1886.18
358.94	1925.09
359.15	1916.90
359.36	1966.05
359.57	2047.97
359.78	1923.04
359.99	1978.34
360.20	1880.04
360.41	1998.82
360.62	1959.91
360.83	2037.73
361.04	1986.53
361.25	2019.30
361.46	2144.22
361.67	2025.44
361.88	2013.15
362.09	2000.87
362.30	2076.64
362.51	1908.71
362.72	1927.14
362.93	1931.23
363.14	1994.72
363.35	1937.38
363.56	1849.32
363.78	2060.26
363.99	1968.10
364.20	1832.93
364.41	1984.48
364.62	2068.45
364.83	2002.91
365.04	1968.10
365.25	1890.28
365.46	2097.12
365.67	1890.28
365.88	1984.48
366.09	1851.36
366.30	1945.57
366.51	1961.95
366.72	1853.41
366.93	1935.33
367.14	1943.52
367.35	2035.68
367.56	1949.67
367.77	2076.64
367.98	1898.47
368.18	1988.58
368.39	2000.87
368.60	1863.65
368.81	1978.34
369.02	1931.23
369.23	1982.43
369.44	1857.51
369.65	1990.63
369.86	2002.91
370.07	2000.87
370.28	1869.80
370.49	1964.00
370.70	2017.25
370.91	1800.16
371.12	1910.75
371.33	2041.82
371.54	1976.29
371.75	2105.31
371.96	1834.98
372.17	1978.34
372.38	1941.47
372.59	2121.70
372.80	1892.32
373.01	1925.09
373.22	1984.48
373.43	1966.05
373.64	1880.04
373.85	1957.86
374.06	2105.31
374.26	1937.38
374.47	1964.00
374.68	2099.17
374.89	2037.73
375.10	2017.25
375.31	2031.58
375.52	1976.29
375.73	1957.86
375.94	1933.28
376.15	2084.83
376.36	1955.81
376.57	1902.56
376.78	1949.67
376.99	2023.39
377.20	2029.54
377.40	2027.49
377.61	2068.45
377.82	1845.22
378.03	2009.06
378.24	2068.45
378.45	1972.19
378.66	1972.19
378.87	1865.70
379.08	1814.50
379.29	1978.34
379.50	1980.39
379.71	1951.71
379.91	2015.20
380.12	1918.95
380.33	1886.18
380.54	2080.74
380.75	2000.87
380.96	1929.19
381.17	2041.82
381.38	1984.48
381.59	1978.34
381.80	2056.16
382.00	2164.70
382.21	2074.59
382.42	2213.85
382.63	2138.08
382.84	1904.61
383.05	2072.54
383.26	2019.30
383.47	1972.19
383.68	1992.67
383.88	2021.35
384.09	1986.53
384.30	2129.89
384.51	2045.92
384.72	1900.52
384.93	1882.08
385.14	1939.43
385.35	2009.06
385.55	1914.85
385.76	2056.16
385.97	1933.28
386.18	1834.98
386.39	1882.08
386.60	1937.38
386.81	1896.42
387.02	1902.56
387.22	1863.65
387.43	2050.02
387.64	1996.77
387.85	2105.31
388.06	2248.67
388.27	3997.64
388.48	8707.96
388.68	12121.93
388.89	14423.84
389.10	15558.42
389.31	14198.57
389.52	11075.42
389.73	9590.64
389.93	8597.37
390.14	8034.18
390.35	7219.09
390.56	6414.24
390.77	5228.46
390.98	4157.38
391.18	3182.54
391.39	2576.34
391.60	2265.05
391.81	2117.60
392.02	1914.85
392.23	2179.04
392.43	2025.44
392.64	2088.93
392.85	1982.43
393.06	2013.15
393.27	1996.77
393.47	1976.29
393.68	2025.44
393.89	1945.57
394.10	2064.35
394.31	1929.19
394.52	1964.00
394.72	1906.66
394.93	2050.02
395.14	1931.23
395.35	2060.26
395.56	1898.47
395.76	1949.67
395.97	1914.85
396.18	2084.83
396.39	2095.07
396.60	2340.83
396.80	2209.76
397.01	2133.98
397.22	2136.03
397.43	2105.31
397.64	1875.94
397.84	2148.32
398.05	2154.46
398.26	1961.95
398.47	2013.15
398.67	2062.30
398.88	2007.01
399.09	2023.39
399.30	1914.85
399.51	1970.15
399.71	1867.75
399.92	2027.49
400.13	1986.53
400.34	2070.50
400.54	1978.34
400.75	2088.93
400.96	2074.59
401.17	2095.07
401.37	2004.96
401.58	1951.71
401.79	1933.28
402.00	2078.69
402.21	2349.02
402.41	2349.02
402.62	2385.88
402.83	2349.02
403.04	2482.14
403.24	2469.85
403.45	2189.28
403.66	2246.62
403.87	2179.04
404.07	2224.09
404.28	2242.53
404.49	2269.15
404.70	2047.97
404.90	2031.58
405.11	2031.58
405.32	1910.75
405.52	1945.57
405.73	1925.09
405.94	1943.52
406.15	1898.47
406.35	2007.01
406.56	1964.00
406.77	1986.53
406.98	1945.57
407.18	1806.31
407.39	2054.11
407.60	1937.38
407.80	2002.91
408.01	1941.47
408.22	1990.63
408.43	1896.42
408.63	1959.91
408.84	1988.58
409.05	2060.26
409.25	1888.23
409.46	1968.10
409.67	1908.71
409.88	1923.04
410.08	2052.06
410.29	1966.05
410.50	1945.57
410.70	2039.78
410.91	1867.75
411.12	1933.28
411.32	1972.19
411.53	2004.96
411.74	2148.32
411.95	2109.41
412.15	2031.58
412.36	2039.78
412.57	2054.11
412.77	2101.22
412.98	1986.53
413.19	1972.19
413.39	2070.50
413.60	2031.58
413.81	2060.26
414.01	2039.78
414.22	2095.07
414.43	2029.54
414.63	1851.36
414.84	2074.59
415.05	1939.43
415.25	1918.95
415.46	2115.55
415.67	1890.28
415.87	1959.91
416.08	1877.99
416.29	2017.25
416.49	1976.29
416.70	1980.39
416.91	1955.81
417.11	1920.99
417.32	2033.63
417.53	1986.53
417.73	1992.67
417.94	1869.80
418.15	2050.02
418.35	2027.49
418.56	1877.99
418.77	2138.08
418.97	1968.10
419.18	1902.56
419.38	1783.78
419.59	1996.77
419.80	2088.93
420.00	1859.56
420.21	1990.63
420.42	1970.15
420.62	1982.43
420.83	1953.76
421.04	1865.70
421.24	2025.44
421.45	1896.42
421.65	1998.82
421.86	1888.23
422.07	1957.86
422.27	2007.01
422.48	1941.47
422.69	1902.56
422.89	1986.53
423.10	1978.34
423.30	1877.99
423.51	1943.52
423.72	1951.71
423.92	1964.00
424.13	1873.89
424.33	1988.58
424.54	2031.58
424.75	2000.87
424.95	2023.39
425.16	2023.39
425.36	1947.62
425.57	2002.91
425.78	2000.87
425.98	2021.35
426.19	1859.56
426.39	1877.99
426.60	2050.02
426.81	2064.35
427.01	2021.35
427.22	1923.04
427.42	1880.04
427.63	1910.75
427.83	2041.82
428.04	2111.46
428.25	2033.63
428.45	1984.48
428.66	1994.72
428.86	1978.34
429.07	1968.10
429.28	1908.71
429.48	1943.52
429.69	1855.46
429.89	2056.16
430.10	1779.68
430.30	2082.78
430.51	1966.05
430.71	1912.80
430.92	1882.08
431.13	1904.61
431.33	1943.52
431.54	2007.01
431.74	2084.83
431.95	2074.59
432.15	1918.95
432.36	1990.63
432.56	1990.63
432.77	2154.46
432.98	2142.18
433.18	1988.58
433.39	1957.86
433.59	1931.23
433.80	2070.50
434.00	2107.36
434.21	1931.23
434.41	1894.37
434.62	2136.03
434.82	1808.36
435.03	1877.99
435.23	1994.72
435.44	1910.75
435.64	1992.67
435.85	1994.72
436.06	1961.95
436.26	2041.82
436.47	1896.42
436.67	1927.14
436.88	1912.80
437.08	2074.59
437.29	2103.26
437.49	2031.58
437.70	2072.54
437.90	1959.91
438.11	2099.17
438.31	1984.48
438.52	2232.29
438.72	2164.70
438.93	2297.82
439.13	2054.11
439.34	2072.54
439.54	1998.82
439.75	2080.74
439.95	2064.35
440.16	1961.95
440.36	2011.11
440.57	2047.97
440.77	1982.43
440.98	1951.71
441.18	2056.16
441.39	1861.60
441.59	1886.18
441.80	2084.83
442.00	2050.02
442.21	2097.12
442.41	1908.71
442.62	2035.68
442.82	1964.00
443.02	1945.57
443.23	1978.34
443.43	2029.54
443.64	2082.78
443.84	1959.91
444.05	2072.54
444.25	2050.02
444.46	1912.80
444.66	2019.30
444.87	2078.69
445.07	1873.89
445.28	1914.85
445.48	2119.65
445.69	1974.24
445.89	2144.22
446.09	2084.83
446.30	2176.99
446.50	2578.39
446.71	4145.09
446.91	5420.97
447.12	6170.53
447.32	6655.90
447.53	6055.84
447.73	4974.52
447.93	4468.67
448.14	3997.64
448.34	3776.45
448.55	3467.21
448.75	3422.16
448.96	3243.98
449.16	2797.53
449.36	2625.50
449.57	2277.34
449.77	2088.93
449.98	1996.77
450.18	2088.93
450.39	2084.83
450.59	1968.10
450.79	1996.77
451.00	1900.52
451.20	2070.50
451.41	1949.67
451.61	2013.15
451.81	1964.00
452.02	2019.30
452.22	1931.23
452.43	1986.53
452.63	1894.37
452.84	1925.09
453.04	1933.28
453.24	1992.67
453.45	1880.04
453.65	1980.39
453.86	2000.87
454.06	1980.39
454.26	1980.39
454.47	1910.75
454.67	2050.02
454.87	1961.95
455.08	1978.34
455.28	2037.73
455.49	1953.76
455.69	1900.52
455.89	2166.75
456.10	2072.54
456.30	1896.42
456.51	2029.54
456.71	1984.48
456.91	2029.54
457.12	1994.72
457.32	2013.15
457.52	1804.26
457.73	2086.88
457.93	2054.11
458.14	1949.67
458.34	1877.99
458.54	1953.76
458.75	1935.33
458.95	1988.58
459.15	1951.71
459.36	2023.39
459.56	2074.59
459.76	2150.37
459.97	1957.86
460.17	1935.33
460.37	2129.89
460.58	1982.43
460.78	2025.44
460.99	1912.80
461.19	2025.44
461.39	2031.58
461.60	1941.47
461.80	2021.35
462.00	1937.38
462.21	2064.35
462.41	1964.00
462.61	1820.64
462.82	1775.59
463.02	1920.99
463.22	1945.57
463.43	2095.07
463.63	2015.20
463.83	2080.74
464.04	1949.67
464.24	2013.15
464.44	1873.89
464.64	1951.71
464.85	1998.82
465.05	2062.30
465.25	2002.91
465.46	1896.42
465.66	2041.82
465.86	2039.78
466.07	1982.43
466.27	1980.39
466.47	1898.47
466.68	1830.88
466.88	2084.83
467.08	2047.97
467.29	2056.16
467.49	1978.34
467.69	1894.37
467.89	2011.11
468.10	1966.05
468.30	1968.10
468.50	2103.26
468.71	2076.64
468.91	1898.47
469.11	2093.02
469.31	2084.83
469.52	2002.91
469.72	2121.70
469.92	2174.94
470.13	1972.19
470.33	1996.77
470.53	2050.02
470.73	2363.36
470.94	2768.85
471.14	2953.17
471.34	3393.48
471.54	3205.07
471.75	3018.71
471.95	2658.26
472.15	2555.86
472.36	2545.63
472.56	2514.91
472.76	2445.27
472.96	2389.98
473.17	2279.39
473.37	2279.39
473.57	2064.35
473.77	2119.65
473.98	1996.77
474.18	1880.04
474.38	2148.32
474.58	1884.13
474.79	1918.95
474.99	2019.30
475.19	2007.01
475.39	1896.42
475.60	1896.42
475.80	1992.67
476.00	1998.82
476.20	1882.08
476.41	1990.63
476.61	2080.74
476.81	2062.30
477.01	1961.95
477.21	2119.65
477.42	2111.46
477.62	1849.32
477.82	1994.72
478.02	1974.24
478.23	1945.57
478.43	1859.56
478.63	1900.52
478.83	1976.29
479.03	2009.06
479.24	2043.87
479.44	2125.79
479.64	1925.09
479.84	1882.08
480.04	1929.19
480.25	2039.78
480.45	1947.62
480.65	1939.43
480.85	2056.16
481.06	1877.99
481.26	1908.71
481.46	1996.77
481.66	1984.48
481.86	1906.66
482.06	2082.78
482.27	1955.81
482.47	1933.28
482.67	2039.78
482.87	1943.52
483.07	2041.82
483.28	1947.62
483.48	1882.08
483.68	1953.76
483.88	1929.19
484.08	1777.64
484.29	1929.19
484.49	2031.58
484.69	1984.48
484.89	2029.54
485.09	2041.82
485.29	1998.82
485.50	2002.91
485.70	1945.57
485.90	2078.69
486.10	1902.56
486.30	1992.67
486.50	2144.22
486.71	2009.06
486.91	2045.92
487.11	1988.58
487.31	1865.70
487.51	2017.25
487.71	1918.95
487.91	1841.12
488.12	1902.56
488.32	1791.97
488.52	1931.23
488.72	1884.13
488.92	1933.28
489.12	2066.40
489.32	2002.91
489.53	1931.23
489.73	1929.19
489.93	2119.65
490.13	1943.52
490.33	1892.32
490.53	1974.24
490.73	2117.60
490.94	1853.41
491.14	1990.63
491.34	2072.54
491.54	2377.69
491.74	3016.66
491.94	3530.70
492.14	3811.27
492.34	3858.37
492.54	3561.42
492.75	3082.19
492.95	2959.31
493.15	2703.32
493.35	2709.46
493.55	2643.93
493.75	2539.48
493.95	2420.70
494.15	2301.92
494.35	2260.96
494.56	2123.74
494.76	2011.11
494.96	2054.11
495.16	2019.30
495.36	1980.39
495.56	1978.34
495.76	2007.01
495.96	1859.56
496.16	1947.62
496.36	2095.07
496.56	1978.34
496.77	2015.20
496.97	2002.91
497.17	2035.68
497.37	1857.51
497.57	1974.24
497.77	1970.15
497.97	1920.99
498.17	1925.09
498.37	1902.56
498.57	2007.01
498.77	2004.96
498.97	2025.44
499.17	2152.42
499.38	2000.87
499.58	1966.05
499.78	2000.87
499.98	2090.98
500.18	1953.76
500.38	1982.43
500.58	2119.65
500.78	2523.10
500.98	4995.00
501.18	7204.75
501.38	9002.87
501.58	9703.28
501.78	9533.29
501.98	7532.43
502.18	6299.55
502.38	5420.97
502.58	5031.86
502.78	4413.37
502.98	4276.16
503.18	4171.71
503.38	3760.07
503.59	3264.46
503.79	3082.19
503.99	2875.35
504.19	2617.30
504.39	2580.44
504.59	2688.98
504.79	2582.49
504.99	2639.83
505.19	2385.88
505.39	2267.10
505.59	2418.65
505.79	2287.58
505.99	2174.94
506.19	2041.82
506.39	2158.56
506.59	2002.91
506.79	2093.02
506.99	2125.79
507.19	2000.87
507.39	2015.20
507.59	1914.85
507.79	1861.60
507.99	1904.61
508.19	2035.68
508.39	1892.32
508.59	1957.86
508.79	1992.67
508.99	2164.70
509.19	1984.48
509.39	2054.11
509.59	1925.09
509.79	2029.54
509.99	1925.09
510.19	1984.48
510.39	2115.55
510.59	2009.06
510.79	2013.15
510.99	1910.75
511.19	1972.19
511.39	2152.42
511.59	2058.21
511.79	2121.70
511.99	1968.10
512.19	2021.35
512.38	1990.63
512.58	1955.81
512.78	1912.80
512.98	2068.45
513.18	2047.97
513.38	1937.38
513.58	2054.11
513.78	1945.57
513.98	2019.30
514.18	1947.62
514.38	1947.62
514.58	1986.53
514.78	1957.86
514.98	1988.58
515.18	1945.57
515.38	1867.75
515.58	2072.54
515.78	1914.85
515.98	2015.20
516.18	2062.30
516.38	1953.76
516.57	1902.56
516.77	1902.56
516.97	2031.58
517.17	1900.52
517.37	1898.47
517.57	2058.21
517.77	1949.67
517.97	1867.75
518.17	2027.49
518.37	1896.42
518.57	1968.10
518.77	1959.91
518.97	1896.42
519.16	2025.44
519.36	2045.92
519.56	1923.04
519.76	1943.52
519.96	1992.67
520.16	2039.78
520.36	1849.32
520.56	2078.69
520.76	1945.57
520.96	1955.81
521.16	2031.58
521.35	2054.11
521.55	2072.54
521.75	1996.77
521.95	1982.43
522.15	1882.08
522.35	1884.13
522.55	1959.91
522.75	2080.74
522.95	1939.43
523.14	1863.65
523.34	1918.95
523.54	1968.10
523.74	2037.73
523.94	1964.00
524.14	1939.43
524.34	1980.39
524.54	2158.56
524.73	1947.62
524.93	2033.63
525.13	1937.38
525.33	1871.84
525.53	2248.67
525.73	2068.45
525.93	2019.30
526.13	1931.23
526.32	1882.08
526.52	2103.26
526.72	2043.87
526.92	1869.80
527.12	1927.14
527.32	1884.13
527.52	2064.35
527.71	2013.15
527.91	2000.87
528.11	1898.47
528.31	1982.43
528.51	1830.88
528.71	1998.82
528.90	1929.19
529.10	2029.54
529.30	2115.55
529.50	1785.83
529.70	2099.17
529.90	1961.95
530.09	1982.43
530.29	1925.09
530.49	1873.89
530.69	2203.61
530.89	2009.06
531.09	2000.87
531.28	1918.95
531.48	2064.35
531.68	1964.00
531.88	2017.25
532.08	1996.77
532.28	1982.43
532.47	2035.68
532.67	2160.61
532.87	2070.50
533.07	1894.37
533.27	2013.15
533.46	2004.96
533.66	2007.01
533.86	2000.87
534.06	2031.58
534.26	2035.68
534.45	1998.82
534.65	2050.02
534.85	2056.16
535.05	2035.68
535.25	2039.78
535.44	1853.41
535.64	2029.54
535.84	1904.61
536.04	2004.96
536.24	1996.77
536.43	1974.24
536.63	2045.92
536.83	2007.01
537.03	1976.29
537.22	1853.41
537.42	1863.65
537.62	2021.35
537.82	1929.19
538.02	2056.16
538.21	2088.93
538.41	2207.71
538.61	2021.35
538.81	1945.57
539.00	2086.88
539.20	1908.71
539.40	2011.11
539.60	2004.96
539.79	1984.48
539.99	1957.86
540.19	1812.45
540.39	2039.78
540.58	2111.46
540.78	2078.69
540.98	1937.38
541.18	1984.48
541.37	2027.49
541.57	1957.86
541.77	2052.06
541.97	1818.60
542.16	1910.75
542.36	1910.75
542.56	1943.52
542.76	2144.22
542.95	2029.54
543.15	2029.54
543.35	1994.72
543.54	1900.52
543.74	1920.99
543.94	2062.30
544.14	1937.38
544.33	2017.25
544.53	1964.00
544.73	1992.67
544.93	1990.63
545.12	1939.43
545.32	2002.91
545.52	1970.15
545.71	1861.60
545.91	1939.43
546.11	1941.47
546.30	1916.90
546.50	1912.80
546.70	2027.49
546.90	1998.82
547.09	1906.66
547.29	1957.86
547.49	2023.39
547.68	1900.52
547.88	1968.10
548.08	1920.99
548.27	2445.27
548.47	1970.15
548.67	1880.04
548.87	1990.63
549.06	2011.11
549.26	1937.38
549.46	2007.01
549.65	1935.33
549.85	2037.73
550.05	2021.35
550.24	1906.66
550.44	1955.81
550.64	1994.72
550.83	1884.13
551.03	2136.03
551.23	2050.02
551.42	1949.67
551.62	1916.90
551.82	2027.49
552.01	1949.67
552.21	2066.40
552.41	1986.53
552.60	2039.78
552.80	2033.63
553.00	1910.75
553.19	2011.11
553.39	2170.85
553.59	1892.32
553.78	2105.31
553.98	1996.77
554.17	1902.56
554.37	2000.87
554.57	2045.92
554.76	1933.28
554.96	1947.62
555.16	1945.57
555.35	2002.91
555.55	2068.45
555.75	2035.68
555.94	1970.15
556.14	1853.41
556.33	1992.67
556.53	1912.80
556.73	1964.00
556.92	1978.34
557.12	2060.26
557.32	2099.17
557.51	2103.26
557.71	1953.76
557.90	2088.93
558.10	1984.48
558.30	1923.04
558.49	2004.96
558.69	1937.38
558.88	2072.54
559.08	1929.19
559.28	1947.62
559.47	2002.91
559.67	1966.05
559.86	2109.41
560.06	1939.43
560.26	1986.53
560.45	1925.09
560.65	1996.77
560.84	2017.25
561.04	1923.04
561.24	2068.45
561.43	1914.85
561.63	2056.16
561.82	1966.05
562.02	2043.87
562.22	1904.61
562.41	1865.70
562.61	1949.67
562.80	1914.85
563.00	2209.76
563.19	1968.10
563.39	2031.58
563.59	1998.82
563.78	1867.75
563.98	1884.13
564.17	1914.85
564.37	1923.04
564.56	1949.67
564.76	1914.85
564.96	2088.93
565.15	1978.34
565.35	2176.99
565.54	1980.39
565.74	2082.78
565.93	2029.54
566.13	1951.71
566.32	1927.14
566.52	2023.39
566.71	2004.96
566.91	2080.74
567.11	1935.33
567.30	1929.19
567.50	2037.73
567.69	2093.02
567.89	1869.80
568.08	1906.66
568.28	1974.24
568.47	1929.19
568.67	2033.63
568.86	1957.86
569.06	2084.83
569.25	2007.01
569.45	1992.67
569.64	1935.33
569.84	1923.04
570.04	2004.96
570.23	1945.57
570.43	1992.67
570.62	2007.01
570.82	2086.88
571.01	1869.80
571.21	1908.71
571.40	1898.47
571.60	2025.44
571.79	2043.87
571.99	1964.00
572.18	1914.85
572.38	2011.11
572.57	1972.19
572.77	1923.04
572.96	2080.74
573.16	2007.01
573.35	2039.78
573.55	2131.94
573.74	2086.88
573.94	2002.91
574.13	2033.63
574.33	2068.45
574.52	2111.46
574.71	2043.87
574.91	2025.44
575.10	1869.80
575.30	1964.00
575.49	1955.81
575.69	1931.23
575.88	2070.50
576.08	2019.30
576.27	2093.02
576.47	2000.87
576.66	2166.75
576.86	2183.13
577.05	2050.02
577.25	2035.68
577.44	2160.61
577.64	1992.67
577.83	2023.39
578.02	1990.63
578.22	2123.74
578.41	2101.22
578.61	1970.15
578.80	1933.28
579.00	1988.58
579.19	2031.58
579.39	2050.02
579.58	2037.73
579.77	2011.11
579.97	2142.18
580.16	2097.12
580.36	2117.60
580.55	2105.31
580.75	2013.15
580.94	2019.30
581.13	2084.83
581.33	2166.75
581.52	2064.35
581.72	2211.81
581.91	2133.98
582.11	2045.92
582.30	2156.51
582.49	2101.22
582.69	2068.45
582.88	2025.44
583.08	2070.50
583.27	2101.22
583.47	2019.30
583.66	1908.71
583.85	1947.62
584.05	2021.35
584.24	2099.17
584.44	2029.54
584.63	2117.60
584.82	2129.89
585.02	2224.09
585.21	2160.61
585.41	2127.84
585.60	2166.75
585.79	2263.01
585.99	2242.53
586.18	2160.61
586.37	2592.73
586.57	3925.96
586.76	11966.28
586.96	30658.09
587.15	45514.06
587.34	55088.31
587.54	60687.46
587.73	57130.14
587.93	40447.38
588.12	30654.00
588.31	24491.66
588.51	20954.82
588.70	19107.55
588.89	17596.15
589.09	15527.70
589.28	13195.06
589.47	10868.57
589.67	8707.96
589.86	6680.47
590.06	4882.36
590.25	3786.69
590.44	3106.77
590.64	2676.70
590.83	2424.80
591.02	2207.71
591.22	2191.33
591.41	2150.37
591.60	2103.26
591.80	2199.52
591.99	2031.58
592.18	1986.53
592.38	2076.64
592.57	2056.16
592.76	2082.78
592.96	2037.73
593.15	1982.43
593.34	2052.06
593.54	2013.15
593.73	2101.22
593.92	2035.68
594.12	2084.83
594.31	2047.97
594.50	2127.84
594.70	2047.97
594.89	2183.13
595.08	1902.56
595.28	1953.76
595.47	2205.66
595.66	2056.16
595.86	1914.85
596.05	1994.72
596.24	1998.82
596.43	2189.28
596.63	2078.69
596.82	2015.20
597.01	2043.87
597.21	2195.42
597.40	2068.45
597.59	2017.25
597.79	2041.82
597.98	2066.40
598.17	2035.68
598.36	2041.82
598.56	2076.64
598.75	1992.67
598.94	2002.91
599.14	1943.52
599.33	2007.01
599.52	2062.30
599.71	2041.82
599.91	1992.67
600.10	2066.40
600.29	1988.58
600.48	2119.65
600.68	1992.67
600.87	2009.06
601.06	2009.06
601.26	2007.01
601.45	2039.78
601.64	1996.77
601.83	1939.43
602.03	1949.67
602.22	1939.43
602.41	2086.88
602.60	2170.85
602.80	2019.30
602.99	2037.73
603.18	1974.24
603.37	2027.49
603.57	1982.43
603.76	2025.44
603.95	2045.92
604.14	2039.78
604.34	1925.09
604.53	2035.68
604.72	1998.82
604.91	2076.64
605.10	1986.53
605.30	1918.95
605.49	2156.51
605.68	2015.20
605.87	2103.26
606.07	1916.90
606.26	1992.67
606.45	2017.25
606.64	1988.58
606.84	1970.15
607.03	2052.06
607.22	2162.66
607.41	2050.02
607.60	1992.67
607.80	2045.92
607.99	1966.05
608.18	2070.50
608.37	2023.39
608.56	1988.58
608.76	2152.42
608.95	2166.75
609.14	2070.50
609.33	2170.85
609.52	2181.09
609.72	2035.68
609.91	2099.17
610.10	2054.11
610.29	2093.02
610.48	2052.06
610.68	2033.63
610.87	1978.34
611.06	2103.26
611.25	1955.81
611.44	2107.36
611.63	1990.63
611.83	2035.68
612.02	1904.61
612.21	2109.41
612.40	1847.27
612.59	1906.66
612.79	1890.28
612.98	1990.63
613.17	2142.18
613.36	2045.92
613.55	2170.85
613.74	2054.11
613.93	2113.50
614.13	2267.10
614.32	2271.20
614.51	2277.34
614.70	2109.41
614.89	2086.88
615.08	2107.36
615.28	2447.32
615.47	1998.82
615.66	2127.84
615.85	2101.22
616.04	2183.13
616.23	2129.89
616.42	2084.83
616.62	2080.74
616.81	2080.74
617.00	1994.72
617.19	2027.49
617.38	2021.35
617.57	1968.10
617.76	2027.49
617.95	2117.60
618.15	2017.25
618.34	2086.88
618.53	1892.32
618.72	2076.64
618.91	2041.82
619.10	2093.02
619.29	1966.05
619.48	2013.15
619.68	1964.00
619.87	1986.53
620.06	1867.75
620.25	1998.82
620.44	1851.36
620.63	1908.71
620.82	1994.72
621.01	1976.29
621.20	2019.30
621.39	2013.15
621.59	2068.45
621.78	2009.06
621.97	1957.86
622.16	2097.12
622.35	2002.91
622.54	2011.11
622.73	2060.26
622.92	1837.03
623.11	2047.97
623.30	1882.08
623.49	1992.67
623.68	1908.71
623.88	2142.18
624.07	1992.67
624.26	1978.34
624.45	1953.76
624.64	1898.47
624.83	2072.54
625.02	1890.28
625.21	2015.20
625.40	2013.15
625.59	2052.06
625.78	2002.91
625.97	2127.84
626.16	2121.70
626.35	2150.37
626.54	2101.22
626.74	2136.03
626.93	2013.15
627.12	2045.92
627.31	2105.31
627.50	1996.77
627.69	2052.06
627.88	1875.94
628.07	1877.99
628.26	1863.65
628.45	2015.20
628.64	1951.71
628.83	2007.01
629.02	1824.74
629.21	2103.26
629.40	2050.02
629.59	1986.53
629.78	1957.86
629.97	2033.63
630.16	1998.82
630.35	2039.78
630.54	2052.06
630.73	1884.13
630.92	1974.24
631.11	1884.13
631.30	2002.91
631.49	2054.11
631.68	1998.82
631.87	2037.73
632.06	1955.81
632.25	2131.94
632.44	2002.91
632.63	2121.70
632.82	2007.01
633.01	2043.87
633.20	2066.40
633.39	2047.97
633.58	2009.06
633.77	2043.87
633.96	2111.46
634.15	2025.44
634.34	2013.15
634.53	2045.92
634.72	2031.58
634.91	1914.85
635.10	1976.29
635.29	2074.59
635.48	1947.62
635.67	1904.61
635.86	1910.75
636.05	2021.35
636.24	1929.19
636.43	2007.01
636.62	1996.77
636.81	1810.40
637.00	1992.67
637.19	2045.92
637.38	1976.29
637.57	1920.99
637.76	2039.78
637.95	2090.98
638.14	2082.78
638.33	2115.55
638.52	2090.98
638.71	1970.15
638.89	1978.34
639.08	2097.12
639.27	2078.69
639.46	2195.42
639.65	2576.34
639.84	2641.88
640.03	2738.13
640.22	2826.20
640.41	2715.61
640.60	2336.73
640.79	2318.30
640.98	2254.81
641.17	2256.86
641.36	2170.85
641.55	2195.42
641.74	1990.63
641.92	2023.39
642.11	2064.35
642.30	1982.43
642.49	1955.81
642.68	1980.39
642.87	2002.91
643.06	1957.86
643.25	1873.89
643.44	1884.13
643.63	2033.63
643.82	2011.11
644.00	1918.95
644.19	1927.14
644.38	1916.90
644.57	2047.97
644.76	2009.06
644.95	1964.00
645.14	1990.63
645.33	1920.99
645.52	1941.47
645.71	1875.94
645.89	1855.46
646.08	2000.87
646.27	1912.80
646.46	2035.68
646.65	1832.93
646.84	2009.06
647.03	1837.03
647.22	2019.30
647.40	2029.54
647.59	1961.95
647.78	1828.84
647.97	1906.66
648.16	1884.13
648.35	2125.79
648.54	1990.63
648.73	1935.33
648.91	2058.21
649.10	2009.06
649.29	1984.48
649.48	1912.80
649.67	1941.47
649.86	2066.40
650.05	2052.06
650.23	2230.24
650.42	2086.88
650.61	2271.20
650.80	2191.33
650.99	2240.48
651.18	2113.50
651.36	2025.44
651.55	1959.91
651.74	2056.16
651.93	2056.16
652.12	1968.10
652.31	1964.00
652.49	1961.95
652.68	1857.51
652.87	2115.55
653.06	2052.06
653.25	2068.45
653.44	2060.26
653.62	2050.02
653.81	2002.91
654.00	1976.29
654.19	2017.25
654.38	2140.13
654.56	2007.01
654.75	1923.04
654.94	2041.82
655.13	1931.23
655.32	1877.99
655.51	2070.50
655.69	1943.52
655.88	2031.58
656.07	1890.28
656.26	2009.06
656.45	1902.56
656.63	1996.77
656.82	1976.29
657.01	2043.87
657.20	1925.09
657.38	2101.22
657.57	1920.99
657.76	1857.51
657.95	1998.82
658.14	1968.10
658.32	2043.87
658.51	1902.56
658.70	1957.86
658.89	1972.19
659.08	1990.63
659.26	2076.64
659.45	1959.91
659.64	2060.26
659.83	2019.30
660.01	2291.68
660.20	2025.44
660.39	2095.07
660.58	1908.71
660.76	2027.49
660.95	1859.56
661.14	2029.54
661.33	1834.98
661.51	1923.04
661.70	1986.53
661.89	2019.30
662.08	1957.86
662.26	1906.66
662.45	1880.04
662.64	2103.26
662.83	1992.67
663.01	1886.18
663.20	1925.09
663.39	2078.69
663.58	1929.19
663.76	1951.71
663.95	2021.35
664.14	1961.95
664.32	1937.38
664.51	1875.94
664.70	1892.32
664.89	2047.97
665.07	1888.23
665.26	2033.63
665.45	1908.71
665.64	1961.95
665.82	2031.58
666.01	2007.01
666.20	1939.43
666.38	2060.26
666.57	2095.07
666.76	2838.48
666.95	6829.98
667.13	14984.99
667.32	21284.54
667.51	25310.85
667.69	27473.50
667.88	26312.30
668.07	18824.93
668.25	14645.02
668.44	12040.01
668.63	10078.05
668.81	9086.84
669.00	7909.26
669.19	7061.40
669.38	6283.17
669.56	5124.02
669.75	4413.37
669.94	3723.21
670.12	3049.43
670.31	2719.70
670.50	2430.94
670.68	2336.73
670.87	2152.42
671.06	2129.89
671.24	2052.06
671.43	2148.32
671.62	2090.98
671.80	1986.53
671.99	2084.83
672.18	1978.34
672.36	2058.21
672.55	2009.06
672.74	2056.16
672.92	1923.04
673.11	2095.07
673.29	1873.89
673.48	2068.45
673.67	1970.15
673.85	2148.32
674.04	1943.52
674.23	2007.01
674.41	2076.64
674.60	1912.80
674.79	1867.75
674.97	1974.24
675.16	1994.72
675.34	2082.78
675.53	1996.77
675.72	2000.87
675.90	2056.16
676.09	1937.38
676.28	1906.66
676.46	1773.54
676.65	2033.63
676.83	1855.46
677.02	1943.52
677.21	1986.53
677.39	1972.19
677.58	1927.14
677.77	1966.05
677.95	1886.18
678.14	2035.68
678.32	1937.38
678.51	1880.04
678.70	2140.13
678.88	1959.91
679.07	2007.01
679.25	2000.87
679.44	1970.15
679.63	1916.90
679.81	1953.76
680.00	2127.84
680.18	1998.82
680.37	2002.91
680.55	2074.59
680.74	1800.16
680.93	1894.37
681.11	2029.54
681.30	1945.57
681.48	1984.48
681.67	1955.81
681.85	1982.43
682.04	1845.22
682.23	2017.25
682.41	1951.71
682.60	1920.99
682.78	1918.95
682.97	1927.14
683.15	2021.35
683.34	2007.01
683.53	2015.20
683.71	1851.36
683.90	2078.69
684.08	2113.50
684.27	1923.04
684.45	1964.00
684.64	2029.54
684.82	1906.66
685.01	2002.91
685.19	1957.86
685.38	2107.36
685.57	1927.14
685.75	1892.32
685.94	1923.04
686.12	1925.09
686.31	2007.01
686.49	2101.22
686.68	1859.56
686.86	1947.62
687.05	1908.71
687.23	2021.35
687.42	1929.19
687.60	1867.75
687.79	1984.48
687.97	2056.16
688.16	2082.78
688.34	1972.19
688.53	1847.27
688.71	1972.19
688.90	2043.87
689.08	1867.75
689.27	1908.71
689.45	2000.87
689.64	2031.58
689.82	2017.25
690.01	1964.00
690.19	1935.33
690.38	1957.86
690.56	2109.41
690.75	1931.23
690.93	1884.13
691.12	1865.70
691.30	1935.33
691.49	1947.62
691.67	1955.81
691.86	2142.18
692.04	1953.76
692.23	2009.06
692.41	1955.81
692.60	2273.25
692.78	2156.51
692.97	2043.87
693.15	2060.26
693.34	2146.27
693.52	2072.54
693.71	1961.95
693.89	1990.63
694.08	1910.75
694.26	2019.30
694.44	2025.44
694.63	2062.30
694.81	1861.60
695.00	1945.57
695.18	1970.15
695.37	2144.22
695.55	1961.95
695.74	1877.99
695.92	1947.62
696.10	2084.83
696.29	1853.41
696.47	1929.19
696.66	1906.66
696.84	1886.18
697.03	1957.86
697.21	2197.47
697.40	2789.33
697.58	2101.22
697.76	1900.52
697.95	1941.47
698.13	1890.28
698.32	1935.33
698.50	1984.48
698.68	2054.11
698.87	1908.71
699.05	2054.11
699.24	1986.53
699.42	1910.75
699.61	1863.65
699.79	1908.71
699.97	1873.89
700.16	1929.19
700.34	1941.47
700.53	2058.21
700.71	2119.65
700.89	1998.82
701.08	1900.52
701.26	1996.77
701.45	2441.18
701.63	1894.37
701.81	1959.91
702.00	1974.24
702.18	2023.39
702.37	2002.91
702.55	2226.14
702.73	2228.19
702.92	2140.13
703.10	2328.54
703.28	2207.71
703.47	2144.22
703.65	2211.81
703.84	2121.70
704.02	2052.06
704.20	2127.84
704.39	1886.18
704.57	2015.20
704.75	2084.83
704.94	2105.31
705.12	2021.35
705.30	2213.85
705.49	3774.41
705.67	9154.42
705.86	18673.38
706.04	23514.78
706.22	27493.98
706.41	29214.27
706.59	26130.03
706.77	18462.44
706.96	14972.70
707.14	12848.96
707.32	11081.56
707.51	9551.73
707.69	8208.26
707.87	6717.34
708.06	5279.66
708.24	4255.68
708.42	3270.61
708.61	2861.01
708.79	2242.53
708.97	2279.39
709.16	2136.03
709.34	2033.63
709.52	2095.07
709.71	2000.87
709.89	1996.77
710.07	1867.75
710.26	1982.43
710.44	1935.33
710.62	1994.72
710.80	1902.56
710.99	2007.01
711.17	2047.97
711.35	1941.47
711.54	1892.32
711.72	2013.15
711.90	1994.72
712.09	1990.63
712.27	1918.95
712.45	1994.72
712.63	1890.28
712.82	1972.19
713.00	2035.68
713.18	1949.67
713.37	2086.88
713.55	2043.87
713.73	1986.53
713.91	2017.25
714.10	1949.67
714.28	1974.24
714.46	1978.34
714.65	2011.11
714.83	1996.77
715.01	1964.00
715.19	1916.90
715.38	1861.60
715.56	2000.87
715.74	1939.43
715.92	1935.33
716.11	2041.82
716.29	1837.03
716.47	1972.19
716.65	1929.19
716.84	1826.79
717.02	2037.73
717.20	1871.84
717.38	1964.00
717.57	1937.38
717.75	2000.87
717.93	2004.96
718.11	2000.87
718.30	1912.80
718.48	2002.91
718.66	2023.39
718.84	2043.87
719.03	1957.86
719.21	1937.38
719.39	2017.25
719.57	2039.78
719.75	2021.35
719.94	1896.42
720.12	1970.15
720.30	1964.00
720.48	2045.92
720.67	1871.84
720.85	1916.90
721.03	1898.47
721.21	1923.04
721.39	2125.79
721.58	2023.39
721.76	2007.01
721.94	1961.95
722.12	2027.49
722.30	2058.21
722.49	1906.66
722.67	2050.02
722.85	2050.02
723.03	1855.46
723.21	1845.22
723.40	1927.14
723.58	1970.15
723.76	2105.31
723.94	2068.45
724.12	2052.06
724.30	2179.04
724.49	2113.50
724.67	1980.39
724.85	2127.84
725.03	1867.75
725.21	2054.11
725.40	2072.54
725.58	1968.10
725.76	2080.74
725.94	2072.54
726.12	1910.75
726.30	1970.15
726.49	1957.86
726.67	1898.47
726.85	1980.39
727.03	2101.22
727.21	3176.40
727.39	4771.77
727.57	6174.63
727.76	6928.28
727.94	7407.50
728.12	7116.69
728.30	5904.29
728.48	4698.04
728.66	4313.02
728.84	3946.44
729.03	3409.87
729.21	3045.33
729.39	2639.83
729.57	2289.63
729.75	2271.20
729.93	2166.75
730.11	1943.52
730.30	2019.30
730.48	1943.52
730.66	2109.41
730.84	2058.21
731.02	1855.46
731.20	1877.99
731.38	1920.99
731.56	1871.84
731.74	1898.47
731.93	1978.34
732.11	1955.81
732.29	1910.75
732.47	2043.87
732.65	1951.71
732.83	2058.21
733.01	2035.68
733.19	2000.87
733.37	1986.53
733.56	1976.29
733.74	1861.60
733.92	2007.01
734.10	1920.99
734.28	2000.87
734.46	1920.99
734.64	1968.10
734.82	1984.48
735.00	1947.62
735.18	1888.23
735.36	1992.67
735.54	1931.23
735.73	1964.00
735.91	2021.35
736.09	2033.63
736.27	1941.47
736.45	2002.91
736.63	1818.60
736.81	1980.39
736.99	2000.87
737.17	2066.40
737.35	1990.63
737.53	1953.76
737.71	1939.43
737.89	2029.54
738.07	1890.28
738.25	1966.05
738.43	1861.60
738.61	1869.80
738.80	1861.60
738.98	1914.85
739.16	1916.90
739.34	1884.13
739.52	1984.48
739.70	1886.18
739.88	1988.58
740.06	2039.78
740.24	1906.66
740.42	1978.34
740.60	1802.21
740.78	1929.19
740.96	1814.50
741.14	1906.66
741.32	2000.87
741.50	1912.80
741.68	2064.35
741.86	2013.15
742.04	1955.81
742.22	1904.61
742.40	1873.89
742.58	1964.00
742.76	1906.66
742.94	2013.15
743.12	1955.81
743.30	1927.14
743.48	2007.01
743.66	1931.23
743.84	2045.92
744.02	1908.71
744.20	2019.30
744.38	1914.85
744.56	1964.00
744.74	2174.94
744.92	1935.33
745.10	2062.30
745.28	2080.74
745.46	2011.11
745.64	1908.71
745.82	1990.63
746.00	1888.23
746.18	1937.38
746.36	1927.14
746.54	1972.19
746.72	1968.10
746.90	1880.04
747.08	2070.50
747.26	1951.71
747.44	1998.82
747.62	2011.11
747.80	1990.63
747.98	2021.35
748.15	1925.09
748.33	2146.27
748.51	1982.43
748.69	2037.73
748.87	1929.19
749.05	1900.52
749.23	1968.10
749.41	2043.87
749.59	1955.81
749.77	2002.91
749.95	1982.43
750.13	1882.08
750.31	1939.43
750.49	1918.95
750.67	1998.82
750.85	2031.58
751.03	1982.43
751.20	2131.94
751.38	1949.67
751.56	1990.63
751.74	1916.90
751.92	1916.90
752.10	1886.18
752.28	2041.82
752.46	1816.55
752.64	1961.95
752.82	1980.39
753.00	2011.11
753.18	1968.10
753.35	1974.24
753.53	2013.15
753.71	1992.67
753.89	2047.97
754.07	1966.05
754.25	2033.63
754.43	1927.14
754.61	1886.18
754.79	1937.38
754.97	2017.25
755.14	2011.11
755.32	1949.67
755.50	2021.35
755.68	1945.57
755.86	1939.43
756.04	1945.57
756.22	1880.04
756.40	1937.38
756.57	2029.54
756.75	1918.95
756.93	2039.78
757.11	2068.45
757.29	1929.19
757.47	1859.56
757.65	1892.32
757.82	1761.25
758.00	1853.41
758.18	1974.24
758.36	1908.71
758.54	1990.63
758.72	1769.44
758.90	2013.15
759.07	1933.28
759.25	1892.32
759.43	2013.15
759.61	1802.21
759.79	2629.59
759.97	2047.97
760.15	1908.71
760.32	1910.75
760.50	1978.34
760.68	2076.64
760.86	1804.26
761.04	2000.87
761.22	2054.11
761.39	2017.25
761.57	2027.49
761.75	2037.73
761.93	1986.53
762.11	1837.03
762.28	1945.57
762.46	1849.32
762.64	2109.41
762.82	1900.52
763.00	1933.28
763.18	1990.63
763.35	1855.46
763.53	1961.95
763.71	1968.10
763.89	2007.01
764.07	1970.15
764.24	1937.38
764.42	2035.68
764.60	1955.81
764.78	1972.19
764.96	1980.39
765.13	1918.95
765.31	1826.79
765.49	1951.71
765.67	1882.08
765.84	1996.77
766.02	1980.39
766.20	1865.70
766.38	1894.37
766.56	1920.99
766.73	2017.25
766.91	1957.86
767.09	2070.50
767.27	2060.26
767.44	1896.42
767.62	1984.48
767.80	1955.81
767.98	1880.04
768.15	1908.71
768.33	1992.67
768.51	2062.30
768.69	2035.68
768.87	1908.71
769.04	2011.11
769.22	2144.22
769.40	2115.55
769.58	2115.55
769.75	1955.81
769.93	1986.53
770.11	1943.52
770.28	1865.70
770.46	2031.58
770.64	1968.10
770.82	1908.71
770.99	1933.28
771.17	2009.06
771.35	1939.43
771.53	1980.39
771.70	1886.18
771.88	2021.35
772.06	2004.96
772.23	1888.23
772.41	1947.62
772.59	1920.99
772.77	1851.36
772.94	2004.96
773.12	1966.05
773.30	1906.66
773.47	1939.43
773.65	1843.17
773.83	2095.07
774.01	1990.63
774.18	1757.16
774.36	1935.33
774.54	1873.89
774.71	1988.58
774.89	1853.41
775.07	1927.14
775.24	1871.84
775.42	1910.75
775.60	2090.98
775.78	1937.38
775.95	1853.41
776.13	1820.64
776.31	1910.75
776.48	2025.44
776.66	2103.26
776.84	1896.42
777.01	1880.04
777.19	1937.38
777.37	1908.71
777.54	2013.15
777.72	2148.32
777.90	2017.25
778.07	1898.47
778.25	2179.04
778.43	2029.54
778.60	1851.36
778.78	2013.15
778.96	2074.59
779.13	1894.37
779.31	2013.15
779.49	1941.47
779.66	2025.44
779.84	1947.62
780.01	1947.62
780.19	1886.18
780.37	1974.24
780.54	2066.40
780.72	1939.43
780.90	1949.67
781.07	1966.05
781.25	1867.75
781.43	2074.59
781.60	1976.29
781.78	2009.06
781.95	2074.59
782.13	1947.62
782.31	1939.43
782.48	1841.12
782.66	1955.81
782.83	2131.94
783.01	1951.71
783.19	1992.67
783.36	1904.61
783.54	1861.60
783.72	2064.35
783.89	1902.56
784.07	1988.58
784.24	2015.20
784.42	2062.30
784.60	1968.10
784.77	1998.82
784.95	1837.03
785.12	1884.13
785.30	1937.38
785.47	1826.79
785.65	1867.75
785.83	1931.23
786.00	1953.76
786.18	1953.76
786.35	1882.08
786.53	1894.37
786.71	2009.06
786.88	1959.91
787.06	1978.34
787.23	1916.90
787.41	1910.75
787.58	1918.95
787.76	1927.14
787.94	1970.15
788.11	2002.91
788.29	1865.70
788.46	1896.42
788.64	1896.42
788.81	1945.57
788.99	1910.75
789.16	1882.08
789.34	1986.53
789.52	1918.95
789.69	1902.56
789.87	1812.45
790.04	1869.80
790.22	1941.47
790.39	2113.50
790.57	1890.28
790.74	1867.75
790.92	1998.82
791.09	1886.18
791.27	1974.24
791.44	2093.02
791.62	1945.57
791.79	2090.98
791.97	1951.71
792.15	2125.79
792.32	1957.86
792.50	2035.68
792.67	2084.83
792.85	2052.06
793.02	2039.78
793.20	1937.38
793.37	1785.83
793.55	1982.43
793.72	1832.93
793.90	1976.29
794.07	1974.24
794.25	1855.46
794.42	1931.23
794.60	1996.77
794.77	1966.05
794.95	1957.86
795.12	2037.73
795.30	1894.37
795.47	1865.70
795.65	2181.09
795.82	1992.67
796.00	1912.80
796.17	1828.84
796.34	1953.76
796.52	1984.48
796.69	1964.00
796.87	2037.73
797.04	1988.58
797.22	2015.20
797.39	1980.39
797.57	2004.96
797.74	1959.91
797.92	1931.23
798.09	1861.60
798.27	1988.58
798.44	1920.99
798.62	1900.52
798.79	1998.82
798.96	2007.01
799.14	2000.87
799.31	2185.18
799.49	2011.11
799.66	1875.94
799.84	1949.67
800.01	1834.98
800.19	1927.14
800.36	1855.46
800.53	1904.61
800.71	1968.10
800.88	2090.98
801.06	1964.00
801.23	1927.14
801.41	1923.04
801.58	1871.84
801.75	1914.85
801.93	1951.71
802.10	2050.02
802.28	1951.71
802.45	1886.18
802.63	2031.58
802.80	2088.93
802.97	1894.37
803.15	1931.23
803.32	1904.61
803.50	1859.56
803.67	1964.00
803.84	1779.68
804.02	1933.28
804.19	1884.13
804.37	1890.28
804.54	1863.65
804.71	1877.99
804.89	1974.24
805.06	1914.85
805.24	1884.13
805.41	1896.42
805.58	1957.86
805.76	2095.07
805.93	1988.58
806.10	2119.65
806.28	2062.30
806.45	1937.38
806.63	1990.63
806.80	1972.19
806.97	1939.43
807.15	2000.87
807.32	2007.01
807.49	1918.95
807.67	1861.60
807.84	2004.96
808.01	1877.99
808.19	2101.22
808.36	2187.23
808.54	1914.85
808.71	1916.90
808.88	1974.24
809.06	2076.64
809.23	2029.54
809.40	1992.67
809.58	2033.63
809.75	1935.33
809.92	1822.69
810.10	2217.95
810.27	1939.43
810.44	2000.87
810.62	2033.63
810.79	1941.47
810.96	1906.66
811.14	1912.80
811.31	2009.06
811.48	2023.39
811.66	1976.29
811.83	2111.46
812.00	1945.57
812.18	2031.58
812.35	2103.26
812.52	1914.85
812.69	1931.23
812.87	1964.00
813.04	1886.18
813.21	1972.19
813.39	1882.08
813.56	1927.14
813.73	2041.82
813.91	1804.26
814.08	1951.71
814.25	1888.23
814.42	1886.18
814.60	1892.32
814.77	1990.63
814.94	2007.01
815.12	1953.76
815.29	2086.88
815.46	1884.13
815.63	1951.71
815.81	1957.86
815.98	1908.71
816.15	1900.52
816.33	1923.04
816.50	1937.38
816.67	1980.39
816.84	1916.90
817.02	1859.56
817.19	1900.52
817.36	1896.42
817.53	1966.05
817.71	1888.23
817.88	1957.86
818.05	1972.19
818.22	1894.37
818.40	2123.74
818.57	2019.30
818.74	1984.48
818.91	1929.19
819.09	2037.73
819.26	1994.72
819.43	1949.67
819.60	1986.53
819.78	1943.52
819.95	2041.82
820.12	1935.33
820.29	2013.15
820.47	1941.47
820.64	1918.95
820.81	1873.89
820.98	1851.36
821.15	1890.28
821.33	1988.58
821.50	1880.04
821.67	1925.09
821.84	1976.29
822.02	2011.11
822.19	1972.19
822.36	1964.00
822.53	1925.09
822.70	1841.12
822.88	1916.90
823.05	1998.82
823.22	2011.11
823.39	1996.77
823.56	1933.28
823.74	2076.64
823.91	1888.23
824.08	1929.19
824.25	1855.46
824.42	2131.94
824.60	1841.12
824.77	1908.71
824.94	1957.86
825.11	1947.62
825.28	1806.31
825.45	1941.47
825.63	1939.43
825.80	1906.66
825.97	2015.20
826.14	1939.43
826.31	1855.46
826.48	1933.28
826.66	1900.52
826.83	1916.90
827.00	1941.47
827.17	1857.51
827.34	1914.85
827.51	1955.81
827.69	1984.48
827.86	1888.23
828.03	1947.62
828.20	1920.99
828.37	1894.37
828.54	1980.39
828.71	1880.04
828.89	2068.45
829.06	1976.29
829.23	2058.21
829.40	1931.23
829.57	1966.05
829.74	1990.63
829.91	1939.43
830.09	1894.37
830.26	2037.73
830.43	2074.59
830.60	1894.37
830.77	2015.20
830.94	2062.30
831.11	1990.63
831.28	1933.28
831.46	2144.22
831.63	1925.09
831.80	2050.02
831.97	1871.84
832.14	1949.67
832.31	1990.63
832.48	1929.19
832.65	1941.47
832.82	1935.33
832.99	1914.85
833.17	1912.80
833.34	2015.20
833.51	2011.11
833.68	1859.56
833.85	2033.63
834.02	1966.05
834.19	1900.52
834.36	1892.32
834.53	2025.44
834.70	2002.91
834.87	2017.25
835.04	1939.43
835.22	1906.66
835.39	1953.76
835.56	1873.89
835.73	1869.80
835.90	2052.06
836.07	1912.80
836.24	2054.11
836.41	1894.37
836.58	1910.75
836.75	2043.87
836.92	2013.15
837.09	1918.95
837.26	2045.92
837.43	2011.11
837.60	2021.35
837.77	1886.18
837.94	2025.44
838.12	2144.22
838.29	1998.82
838.46	1802.21
838.63	1933.28
838.80	2015.20
838.97	1964.00
839.14	1966.05
839.31	1943.52
839.48	2025.44
839.65	1916.90
839.82	2019.30
839.99	1953.76
840.16	1966.05
840.33	1929.19
840.50	2007.01
840.67	1847.27
840.84	1771.49
841.01	2000.87
841.18	1908.71
841.35	1943.52
841.52	1949.67
841.69	2050.02
841.86	1998.82
842.03	1945.57
842.20	2021.35
842.37	1912.80
842.54	1935.33
842.71	2041.82
842.88	1875.94
843.05	2031.58
843.22	1970.15
843.39	2058.21
843.56	1906.66
843.73	1937.38
843.90	1910.75
844.07	1949.67
844.24	1918.95
844.41	1984.48
844.58	2035.68
844.75	1912.80
844.92	2033.63
845.09	1902.56
845.26	1892.32
845.43	2033.63
845.60	1920.99
845.77	2019.30
845.94	2004.96
846.10	1996.77
846.27	1914.85
846.44	1853.41
846.61	1869.80
846.78	2017.25
846.95	1974.24
847.12	1863.65
847.29	1949.67
847.46	1824.74
847.63	2054.11
847.80	1894.37
847.97	1908.71
848.14	2074.59
848.31	1961.95
848.48	1837.03
848.65	1990.63
848.82	1843.17
848.98	2150.37
849.15	2037.73
849.32	2000.87
849.49	1998.82
849.66	2047.97
849.83	2017.25
850.00	1935.33
850.17	1978.34
850.34	1929.19
850.51	1927.14
850.68	1865.70
850.85	2090.98
851.01	1941.47
851.18	1949.67
851.35	1902.56
851.52	2029.54
851.69	2031.58
851.86	1812.45
852.03	1884.13
852.20	1992.67
852.37	1920.99
852.53	1820.64
852.70	1945.57
852.87	1959.91
853.04	2047.97
853.21	1935.33
853.38	2031.58
853.55	2009.06
853.72	2027.49
853.89	1859.56
854.05	1849.32
854.22	1996.77
854.39	1941.47
854.56	1941.47
854.73	2090.98
854.90	1845.22
855.07	1912.80
855.23	1884.13
855.40	1910.75
855.57	1880.04
855.74	1763.30
855.91	2041.82
856.08	1888.23
856.25	1839.08
856.41	1935.33
856.58	1888.23
856.75	1900.52
856.92	1912.80
857.09	1984.48
857.26	1896.42
857.42	1894.37
857.59	1937.38
857.76	1851.36
857.93	1964.00
858.10	1925.09
858.27	1968.10
858.43	1964.00
858.60	1787.88
858.77	1875.94
858.94	1941.47
859.11	2127.84
859.27	1888.23
859.44	1947.62
859.61	2121.70
859.78	1951.71
859.95	1964.00
860.12	1908.71
860.28	2088.93
860.45	2041.82
860.62	1875.94
860.79	1949.67
860.95	1974.24
861.12	1890.28
861.29	1896.42
861.46	1882.08
861.63	1972.19
861.79	2007.01
861.96	1853.41
862.13	1892.32
862.30	2029.54
862.47	1939.43
862.63	1812.45
862.80	2041.82
862.97	2023.39
863.14	2033.63
863.30	1931.23
863.47	1918.95
863.64	2037.73
863.81	1984.48
863.97	1871.84
864.14	1939.43
864.31	1941.47
864.48	1929.19
864.65	1892.32
864.81	1935.33
864.98	1945.57
865.15	2035.68
865.32	1947.62
865.48	2052.06
865.65	2047.97
865.82	1855.46
865.98	1892.32
866.15	2017.25
866.32	1949.67
866.49	1937.38
866.65	2011.11
866.82	1839.08
866.99	1927.14
867.16	1863.65
867.32	1902.56
867.49	1937.38
867.66	1953.76
867.83	1966.05
867.99	1886.18
868.16	1900.52
868.33	1939.43
868.49	1896.42
868.66	1927.14
868.83	1996.77
868.99	1884.13
869.16	1900.52
869.33	1998.82
869.50	2064.35
869.66	1931.23
869.83	1957.86
870.00	1982.43
870.16	1994.72
870.33	1988.58
870.50	2047.97
870.66	1986.53
870.83	2068.45
871.00	1890.28
871.17	2015.20
871.33	2017.25
871.50	1959.91
871.67	1972.19
871.83	1904.61
872.00	2035.68
872.17	1882.08
872.33	2082.78
872.50	2088.93
872.67	1935.33
872.83	1937.38
873.00	2013.15
873.17	1976.29
873.33	2000.87
873.50	1984.48
873.67	1951.71
873.83	2009.06
874.00	1888.23
874.16	1976.29
874.33	1968.10
874.50	1812.45
874.66	1980.39
874.83	1968.10
875.00	2013.15
875.16	2052.06
875.33	2035.68
875.50	1775.59
875.66	1935.33
875.83	1888.23
875.99	2002.91
876.16	1959.91
876.33	1863.65
876.49	1941.47
876.66	1941.47
876.83	1914.85
876.99	1826.79
877.16	1910.75
877.32	1886.18
877.49	1988.58
877.66	1976.29
877.82	2007.01
877.99	1968.10
878.15	2015.20
878.32	1961.95
878.49	1996.77
878.65	1988.58
878.82	2013.15
878.98	1890.28
879.15	1996.77
879.32	2056.16
879.48	1918.95
879.65	1951.71
879.81	1898.47
879.98	1888.23
880.15	1849.32
880.31	1974.24
880.48	1830.88
880.64	1945.57
880.81	2013.15
880.97	2101.22
881.14	2052.06
881.31	1849.32
881.47	2070.50
881.64	1970.15
881.80	1931.23
881.97	1998.82
882.13	2000.87
882.30	1890.28
882.47	1914.85
882.63	1888.23
882.80	1884.13
882.96	1841.12
883.13	2043.87
883.29	1941.47
883.46	2050.02
883.62	2123.74
883.79	1949.67
883.95	1955.81
884.12	1884.13
884.29	2007.01
884.45	1992.67
884.62	2041.82
884.78	1939.43
884.95	2103.26
885.11	1910.75
885.28	1986.53
885.44	1888.23
885.61	1929.19
885.77	2111.46
885.94	1978.34
886.10	1935.33
886.27	2000.87
886.43	2000.87
886.60	2017.25
886.76	1986.53
886.93	1853.41
887.09	1955.81
887.26	1888.23
887.42	1896.42
887.59	2015.20
887.75	2148.32
887.92	2029.54
888.08	2027.49
888.25	2066.40
888.41	2045.92
888.58	1902.56
888.74	1918.95
888.91	1931.23
>>>>>End Processed Spectral Data<<<<<
