SpectraSuite Data File
++++++++++++++++++++++++++++++++++++
Date: Wed May 04 22:45:38 CEST 2016
User: root
Dark Spectrum Present: No
Reference Spectrum Present: No
Number of Sampled Component Spectra: 1
Spectrometers: USB4C02835
Integration Time (usec): 100000 (USB4C02835)
Spectra Averaged: 1 (USB4C02835)
Boxcar Smoothing: 0 (USB4C02835)
Correct for Electrical Dark: No (USB4C02835)
Strobe/Lamp Enabled: No (USB4C02835)
Correct for Detector Non-linearity: No (USB4C02835)
Correct for Stray Light: No (USB4C02835)
Number of Pixels in Processed Spectrum: 3648
>>>>>Begin Processed Spectral Data<<<<<
177.47	1615.85
177.69	1615.85
177.91	1615.85
178.13	1677.29
178.36	1652.71
178.58	1867.75
178.80	1966.05
179.02	1884.13
179.24	1890.28
179.46	1927.14
179.68	1988.58
179.90	1933.28
180.13	2035.68
180.35	1834.98
180.57	1863.65
180.79	1943.52
181.01	1908.71
181.23	2039.78
181.45	2007.01
181.67	1994.72
181.90	2058.21
182.12	1900.52
182.34	1839.08
182.56	1957.86
182.78	1906.66
183.00	1988.58
183.22	1918.95
183.44	1832.93
183.66	2164.70
183.89	1986.53
184.11	1994.72
184.33	1984.48
184.55	2033.63
184.77	1994.72
184.99	1914.85
185.21	2004.96
185.43	2064.35
185.65	1886.18
185.87	1964.00
186.10	2101.22
186.32	2148.32
186.54	2037.73
186.76	1929.19
186.98	1988.58
187.20	1904.61
187.42	1916.90
187.64	1986.53
187.86	1978.34
188.08	2002.91
188.30	1947.62
188.52	1916.90
188.75	2084.83
188.97	2052.06
189.19	1947.62
189.41	1920.99
189.63	2043.87
189.85	1931.23
190.07	1816.55
190.29	1873.89
190.51	1980.39
190.73	1923.04
190.95	2064.35
191.17	1906.66
191.39	1824.74
191.61	1929.19
191.84	1845.22
192.06	1998.82
192.28	1873.89
192.50	2226.14
192.72	1961.95
192.94	1955.81
193.16	2047.97
193.38	1949.67
193.60	1890.28
193.82	1929.19
194.04	2021.35
194.26	1961.95
194.48	1941.47
194.70	1920.99
194.92	1968.10
195.14	2017.25
195.36	1908.71
195.58	1927.14
195.80	2000.87
196.02	1918.95
196.24	1914.85
196.46	2027.49
196.69	1873.89
196.91	2125.79
197.13	1939.43
197.35	1925.09
197.57	2107.36
197.79	1923.04
198.01	1966.05
198.23	2047.97
198.45	2070.50
198.67	1943.52
198.89	1980.39
199.11	2015.20
199.33	1920.99
199.55	1818.60
199.77	1945.57
199.99	2095.07
200.21	2009.06
200.43	1951.71
200.65	1869.80
200.87	1812.45
201.09	1933.28
201.31	1994.72
201.53	1970.15
201.75	1935.33
201.97	1988.58
202.19	1978.34
202.41	2029.54
202.63	2045.92
202.85	1980.39
203.07	1992.67
203.29	1941.47
203.51	1816.55
203.73	1961.95
203.95	2166.75
204.17	1896.42
204.39	1920.99
204.61	1998.82
204.83	1951.71
205.05	2000.87
205.27	1990.63
205.49	2176.99
205.71	1920.99
205.93	1830.88
206.15	1890.28
206.37	1943.52
206.59	1894.37
206.81	1875.94
207.03	1834.98
207.25	1810.40
207.47	1994.72
207.69	2037.73
207.91	1968.10
208.13	2056.16
208.34	1953.76
208.56	1837.03
208.78	1961.95
209.00	1955.81
209.22	1865.70
209.44	1906.66
209.66	1898.47
209.88	1957.86
210.10	1937.38
210.32	1998.82
210.54	2031.58
210.76	1959.91
210.98	1972.19
211.20	1777.64
211.42	1939.43
211.64	2039.78
211.86	2011.11
212.08	1920.99
212.30	1943.52
212.52	1961.95
212.74	1992.67
212.96	1949.67
213.17	1937.38
213.39	1988.58
213.61	2105.31
213.83	1880.04
214.05	1945.57
214.27	2052.06
214.49	1884.13
214.71	1886.18
214.93	2043.87
215.15	1937.38
215.37	2027.49
215.59	1884.13
215.81	2021.35
216.03	2111.46
216.24	1927.14
216.46	1941.47
216.68	1951.71
216.90	1976.29
217.12	2002.91
217.34	1869.80
217.56	1978.34
217.78	2015.20
218.00	2011.11
218.22	1955.81
218.44	1939.43
218.66	1955.81
218.87	2144.22
219.09	1884.13
219.31	1964.00
219.53	1964.00
219.75	1902.56
219.97	1964.00
220.19	2002.91
220.41	1914.85
220.63	2068.45
220.85	1986.53
221.06	1939.43
221.28	2045.92
221.50	1955.81
221.72	1939.43
221.94	1955.81
222.16	1904.61
222.38	2066.40
222.60	1978.34
222.82	1929.19
223.03	2029.54
223.25	1892.32
223.47	1959.91
223.69	2066.40
223.91	1968.10
224.13	1910.75
224.35	1865.70
224.57	2011.11
224.78	1984.48
225.00	1791.97
225.22	1949.67
225.44	1927.14
225.66	2023.39
225.88	1828.84
226.10	2015.20
226.32	1951.71
226.53	2117.60
226.75	1910.75
226.97	1943.52
227.19	1941.47
227.41	1882.08
227.63	2027.49
227.85	1908.71
228.06	1986.53
228.28	2009.06
228.50	2009.06
228.72	1806.31
228.94	1904.61
229.16	1875.94
229.37	1890.28
229.59	1918.95
229.81	2142.18
230.03	1933.28
230.25	1855.46
230.47	1855.46
230.69	1927.14
230.90	2017.25
231.12	1953.76
231.34	1972.19
231.56	2041.82
231.78	1884.13
232.00	2019.30
232.21	1974.24
232.43	1886.18
232.65	1785.83
232.87	1947.62
233.09	1851.36
233.30	1945.57
233.52	2013.15
233.74	2004.96
233.96	1910.75
234.18	1951.71
234.40	1894.37
234.61	2146.27
234.83	1892.32
235.05	1814.50
235.27	2199.52
235.49	2111.46
235.70	1923.04
235.92	2029.54
236.14	1984.48
236.36	2142.18
236.58	1937.38
236.79	1898.47
237.01	1949.67
237.23	1970.15
237.45	2070.50
237.67	1849.32
237.88	1949.67
238.10	2052.06
238.32	1890.28
238.54	1937.38
238.76	1964.00
238.97	1818.60
239.19	1906.66
239.41	2095.07
239.63	2076.64
239.85	1945.57
240.06	1970.15
240.28	1935.33
240.50	2086.88
240.72	1947.62
240.93	2011.11
241.15	1994.72
241.37	1902.56
241.59	2095.07
241.81	1800.16
242.02	1927.14
242.24	2002.91
242.46	2000.87
242.68	1886.18
242.89	1943.52
243.11	2009.06
243.33	1961.95
243.55	2025.44
243.76	1978.34
243.98	1910.75
244.20	1959.91
244.42	1896.42
244.64	1974.24
244.85	1841.12
245.07	1843.17
245.29	2027.49
245.51	1970.15
245.72	1939.43
245.94	1982.43
246.16	1920.99
246.38	1966.05
246.59	1966.05
246.81	1871.84
247.03	1896.42
247.24	1843.17
247.46	2021.35
247.68	1959.91
247.90	1988.58
248.11	1955.81
248.33	1978.34
248.55	1925.09
248.77	1974.24
248.98	2076.64
249.20	2025.44
249.42	1992.67
249.64	1994.72
249.85	1882.08
250.07	1912.80
250.29	1959.91
250.50	2011.11
250.72	1839.08
250.94	1986.53
251.16	2129.89
251.37	2054.11
251.59	1947.62
251.81	1970.15
252.02	2113.50
252.24	1916.90
252.46	2090.98
252.68	1927.14
252.89	1925.09
253.11	1839.08
253.33	2031.58
253.54	2056.16
253.76	2002.91
253.98	1918.95
254.20	1927.14
254.41	1806.31
254.63	1976.29
254.85	1830.88
255.06	2002.91
255.28	1949.67
255.50	1908.71
255.71	1896.42
255.93	1839.08
256.15	1959.91
256.36	2017.25
256.58	1900.52
256.80	2023.39
257.02	1953.76
257.23	1990.63
257.45	1994.72
257.67	2002.91
257.88	1900.52
258.10	1996.77
258.32	1906.66
258.53	1933.28
258.75	2029.54
258.97	1867.75
259.18	1904.61
259.40	1947.62
259.62	2133.98
259.83	2086.88
260.05	1961.95
260.27	2320.35
260.48	1908.71
260.70	1849.32
260.92	1947.62
261.13	1970.15
261.35	1968.10
261.57	2015.20
261.78	1832.93
262.00	1888.23
262.22	1974.24
262.43	1867.75
262.65	1853.41
262.86	1980.39
263.08	2201.57
263.30	1947.62
263.51	1818.60
263.73	1859.56
263.95	2033.63
264.16	1849.32
264.38	1843.17
264.60	1996.77
264.81	1976.29
265.03	1986.53
265.25	1976.29
265.46	1900.52
265.68	2017.25
265.89	2011.11
266.11	1847.27
266.33	2007.01
266.54	2031.58
266.76	1988.58
266.98	2029.54
267.19	2011.11
267.41	1959.91
267.62	1941.47
267.84	1837.03
268.06	1964.00
268.27	2023.39
268.49	2107.36
268.70	2021.35
268.92	1972.19
269.14	1906.66
269.35	1826.79
269.57	2004.96
269.79	2009.06
270.00	1906.66
270.22	2127.84
270.43	1822.69
270.65	1847.27
270.87	2004.96
271.08	2056.16
271.30	1959.91
271.51	1966.05
271.73	2023.39
271.95	2068.45
272.16	1972.19
272.38	2015.20
272.59	1914.85
272.81	1959.91
273.02	1935.33
273.24	1961.95
273.46	2064.35
273.67	1894.37
273.89	1845.22
274.10	1920.99
274.32	2047.97
274.54	1947.62
274.75	1978.34
274.97	1970.15
275.18	2062.30
275.40	2021.35
275.61	1925.09
275.83	1884.13
276.05	1880.04
276.26	2007.01
276.48	2047.97
276.69	1951.71
276.91	1910.75
277.12	2109.41
277.34	2074.59
277.55	1925.09
277.77	1957.86
277.99	1937.38
278.20	1851.36
278.42	1882.08
278.63	1939.43
278.85	1974.24
279.06	1871.84
279.28	1939.43
279.49	1925.09
279.71	1986.53
279.93	1955.81
280.14	1978.34
280.36	1978.34
280.57	2068.45
280.79	2025.44
281.00	1894.37
281.22	1937.38
281.43	2072.54
281.65	1798.12
281.86	1882.08
282.08	2017.25
282.29	2174.94
282.51	1875.94
282.73	1918.95
282.94	1812.45
283.16	1968.10
283.37	2031.58
283.59	1959.91
283.80	2041.82
284.02	1925.09
284.23	1994.72
284.45	1972.19
284.66	1853.41
284.88	1871.84
285.09	2000.87
285.31	1970.15
285.52	1978.34
285.74	1898.47
285.95	1964.00
286.17	1959.91
286.38	2050.02
286.60	1890.28
286.81	1898.47
287.03	1892.32
287.24	1900.52
287.46	2062.30
287.67	1978.34
287.89	2084.83
288.10	1955.81
288.32	1976.29
288.53	1957.86
288.75	1832.93
288.96	2021.35
289.18	1877.99
289.39	1814.50
289.61	2056.16
289.82	2148.32
290.04	2080.74
290.25	1853.41
290.47	1966.05
290.68	1884.13
290.90	2054.11
291.11	1804.26
291.33	1994.72
291.54	1914.85
291.76	1847.27
291.97	1959.91
292.18	1976.29
292.40	1888.23
292.61	1933.28
292.83	2121.70
293.04	1947.62
293.26	1996.77
293.47	1920.99
293.69	1900.52
293.90	1927.14
294.12	2058.21
294.33	1949.67
294.55	1912.80
294.76	1976.29
294.97	2058.21
295.19	2109.41
295.40	2009.06
295.62	1949.67
295.83	2007.01
296.05	1955.81
296.26	2103.26
296.48	1892.32
296.69	1937.38
296.90	1929.19
297.12	1994.72
297.33	2082.78
297.55	1980.39
297.76	2000.87
297.98	2043.87
298.19	2009.06
298.41	1869.80
298.62	1890.28
298.83	1953.76
299.05	1955.81
299.26	1931.23
299.48	1877.99
299.69	1947.62
299.90	1968.10
300.12	1957.86
300.33	1945.57
300.55	1982.43
300.76	2004.96
300.98	1808.36
301.19	1949.67
301.40	1984.48
301.62	1865.70
301.83	2023.39
302.05	2013.15
302.26	1933.28
302.47	2043.87
302.69	1894.37
302.90	2004.96
303.12	1767.40
303.33	1992.67
303.54	2062.30
303.76	1912.80
303.97	2011.11
304.19	2041.82
304.40	1916.90
304.61	1996.77
304.83	2105.31
305.04	2045.92
305.26	2007.01
305.47	1984.48
305.68	1937.38
305.90	1853.41
306.11	2033.63
306.33	1947.62
306.54	1933.28
306.75	1916.90
306.97	1834.98
307.18	1980.39
307.39	1920.99
307.61	1964.00
307.82	1880.04
308.04	1943.52
308.25	1935.33
308.46	1959.91
308.68	1939.43
308.89	1966.05
309.10	2017.25
309.32	1929.19
309.53	1945.57
309.74	1996.77
309.96	1982.43
310.17	2029.54
310.39	1865.70
310.60	2070.50
310.81	1931.23
311.03	1894.37
311.24	2017.25
311.45	2037.73
311.67	2086.88
311.88	1998.82
312.09	1912.80
312.31	1953.76
312.52	1931.23
312.73	1904.61
312.95	1871.84
313.16	1931.23
313.37	2027.49
313.59	1929.19
313.80	2035.68
314.01	2023.39
314.23	1966.05
314.44	1935.33
314.65	1906.66
314.87	1880.04
315.08	1867.75
315.29	1927.14
315.51	1894.37
315.72	1822.69
315.93	2019.30
316.15	2052.06
316.36	1894.37
316.57	1994.72
316.79	2043.87
317.00	1970.15
317.21	2076.64
317.43	1912.80
317.64	1964.00
317.85	1863.65
318.07	1933.28
318.28	1912.80
318.49	2064.35
318.70	2207.71
318.92	2160.61
319.13	2209.76
319.34	2179.04
319.56	2035.68
319.77	2031.58
319.98	2109.41
320.20	2050.02
320.41	2086.88
320.62	1984.48
320.83	1882.08
321.05	2084.83
321.26	2013.15
321.47	2011.11
321.69	2056.16
321.90	1931.23
322.11	1918.95
322.32	1906.66
322.54	2043.87
322.75	1918.95
322.96	2113.50
323.18	1970.15
323.39	1886.18
323.60	1941.47
323.81	2031.58
324.03	1892.32
324.24	1886.18
324.45	1984.48
324.66	1957.86
324.88	2054.11
325.09	2150.37
325.30	1910.75
325.52	2002.91
325.73	2064.35
325.94	1896.42
326.15	1890.28
326.37	1908.71
326.58	1945.57
326.79	2045.92
327.00	1863.65
327.22	1914.85
327.43	1986.53
327.64	1837.03
327.85	2033.63
328.07	1980.39
328.28	2004.96
328.49	1908.71
328.70	1904.61
328.92	1896.42
329.13	1914.85
329.34	1964.00
329.55	2099.17
329.76	2007.01
329.98	1943.52
330.19	2002.91
330.40	2000.87
330.61	1959.91
330.83	2064.35
331.04	1935.33
331.25	1982.43
331.46	1976.29
331.68	1847.27
331.89	2013.15
332.10	1920.99
332.31	1877.99
332.52	1986.53
332.74	2066.40
332.95	1789.92
333.16	1890.28
333.37	1894.37
333.58	1937.38
333.80	1994.72
334.01	1894.37
334.22	1900.52
334.43	1906.66
334.64	1896.42
334.86	1869.80
335.07	1855.46
335.28	2095.07
335.49	1785.83
335.70	2064.35
335.92	2039.78
336.13	2148.32
336.34	1982.43
336.55	1916.90
336.76	1959.91
336.98	1867.75
337.19	1949.67
337.40	1996.77
337.61	2181.09
337.82	1955.81
338.04	1986.53
338.25	1845.22
338.46	1998.82
338.67	1982.43
338.88	1834.98
339.09	1892.32
339.31	1900.52
339.52	1855.46
339.73	1832.93
339.94	1974.24
340.15	2017.25
340.36	1935.33
340.58	1943.52
340.79	1947.62
341.00	1920.99
341.21	1982.43
341.42	2078.69
341.63	1892.32
341.85	2025.44
342.06	2023.39
342.27	1900.52
342.48	1961.95
342.69	1916.90
342.90	2015.20
343.12	2031.58
343.33	1865.70
343.54	2015.20
343.75	2039.78
343.96	1884.13
344.17	1925.09
344.38	1951.71
344.60	1853.41
344.81	1892.32
345.02	1972.19
345.23	2072.54
345.44	2125.79
345.65	2027.49
345.86	1931.23
346.07	1996.77
346.29	1953.76
346.50	1972.19
346.71	2029.54
346.92	2021.35
347.13	2152.42
347.34	1968.10
347.55	1968.10
347.76	1943.52
347.98	1834.98
348.19	2045.92
348.40	2084.83
348.61	1951.71
348.82	2144.22
349.03	2000.87
349.24	1896.42
349.45	2125.79
349.66	1783.78
349.88	1951.71
350.09	1927.14
350.30	2088.93
350.51	2007.01
350.72	1906.66
350.93	1970.15
351.14	1908.71
351.35	1888.23
351.56	1896.42
351.77	1964.00
351.99	1988.58
352.20	2007.01
352.41	2035.68
352.62	1828.84
352.83	1920.99
353.04	2052.06
353.25	1927.14
353.46	1986.53
353.67	2009.06
353.88	1859.56
354.09	1935.33
354.30	1892.32
354.52	2056.16
354.73	1978.34
354.94	1996.77
355.15	1959.91
355.36	2127.84
355.57	1894.37
355.78	1941.47
355.99	1853.41
356.20	1970.15
356.41	2033.63
356.62	2054.11
356.83	1970.15
357.04	2105.31
357.25	1841.12
357.46	1855.46
357.68	1843.17
357.89	1851.36
358.10	1951.71
358.31	1947.62
358.52	1914.85
358.73	1912.80
358.94	1898.47
359.15	1908.71
359.36	1986.53
359.57	2045.92
359.78	1923.04
359.99	2070.50
360.20	1875.94
360.41	1947.62
360.62	2033.63
360.83	1990.63
361.04	1937.38
361.25	1935.33
361.46	2119.65
361.67	2019.30
361.88	2039.78
362.09	1947.62
362.30	1980.39
362.51	1914.85
362.72	2047.97
362.93	1923.04
363.14	1943.52
363.35	1964.00
363.56	1941.47
363.78	2099.17
363.99	2002.91
364.20	1927.14
364.41	2064.35
364.62	2152.42
364.83	1955.81
365.04	1941.47
365.25	1945.57
365.46	2129.89
365.67	1894.37
365.88	2023.39
366.09	1859.56
366.30	1927.14
366.51	1931.23
366.72	1816.55
366.93	1964.00
367.14	1912.80
367.35	2041.82
367.56	1935.33
367.77	2101.22
367.98	1986.53
368.18	2019.30
368.39	1996.77
368.60	1804.26
368.81	2023.39
369.02	1976.29
369.23	1939.43
369.44	1886.18
369.65	1949.67
369.86	1927.14
370.07	2029.54
370.28	1986.53
370.49	1978.34
370.70	2019.30
370.91	1863.65
371.12	1920.99
371.33	2029.54
371.54	1980.39
371.75	2099.17
371.96	1800.16
372.17	1951.71
372.38	1943.52
372.59	1966.05
372.80	1951.71
373.01	1933.28
373.22	1964.00
373.43	1875.94
373.64	1896.42
373.85	2041.82
374.06	2021.35
374.26	1994.72
374.47	2068.45
374.68	2086.88
374.89	1976.29
375.10	1910.75
375.31	2045.92
375.52	1982.43
375.73	1941.47
375.94	1923.04
376.15	2119.65
376.36	1882.08
376.57	1904.61
376.78	1904.61
376.99	1902.56
377.20	2050.02
377.40	1937.38
377.61	2088.93
377.82	1884.13
378.03	2078.69
378.24	2021.35
378.45	1982.43
378.66	2000.87
378.87	1757.16
379.08	1900.52
379.29	1947.62
379.50	1982.43
379.71	1925.09
379.91	2013.15
380.12	1937.38
380.33	1929.19
380.54	1990.63
380.75	1980.39
380.96	1904.61
381.17	1992.67
381.38	2015.20
381.59	2009.06
381.80	1964.00
382.00	2166.75
382.21	2009.06
382.42	2133.98
382.63	2176.99
382.84	1986.53
383.05	2027.49
383.26	2117.60
383.47	2090.98
383.68	2078.69
383.88	2033.63
384.09	2000.87
384.30	2105.31
384.51	2035.68
384.72	1898.47
384.93	1869.80
385.14	1908.71
385.35	2035.68
385.55	1839.08
385.76	2056.16
385.97	1988.58
386.18	1832.93
386.39	2029.54
386.60	1853.41
386.81	1964.00
387.02	1902.56
387.22	1880.04
387.43	2099.17
387.64	2058.21
387.85	2056.16
388.06	2240.48
388.27	3960.77
388.48	8519.55
388.68	11997.00
388.89	14618.40
389.10	15271.70
389.31	13907.76
389.52	10977.11
389.73	9486.19
389.93	8595.32
390.14	8040.33
390.35	7313.30
390.56	6307.74
390.77	5324.72
390.98	4036.55
391.18	3182.54
391.39	2537.43
391.60	2140.13
391.81	2052.06
392.02	1974.24
392.23	2115.55
392.43	2054.11
392.64	2017.25
392.85	1951.71
393.06	2097.12
393.27	1992.67
393.47	1898.47
393.68	1972.19
393.89	1933.28
394.10	2047.97
394.31	1849.32
394.52	1884.13
394.72	1851.36
394.93	2072.54
395.14	1845.22
395.35	2090.98
395.56	1935.33
395.76	1992.67
395.97	2043.87
396.18	2166.75
396.39	2146.27
396.60	2361.31
396.80	2224.09
397.01	2133.98
397.22	2101.22
397.43	2136.03
397.64	2025.44
397.84	2121.70
398.05	2244.57
398.26	2019.30
398.47	2011.11
398.67	2072.54
398.88	1959.91
399.09	2039.78
399.30	1972.19
399.51	1998.82
399.71	1918.95
399.92	1931.23
400.13	1968.10
400.34	1974.24
400.54	1937.38
400.75	2082.78
400.96	1941.47
401.17	2070.50
401.37	2023.39
401.58	1914.85
401.79	1941.47
402.00	2050.02
402.21	2281.44
402.41	2379.74
402.62	2328.54
402.83	2447.32
403.04	2453.47
403.24	2488.28
403.45	2148.32
403.66	2246.62
403.87	2164.70
404.07	2160.61
404.28	2283.49
404.49	2230.24
404.70	2054.11
404.90	2031.58
405.11	2017.25
405.32	2002.91
405.52	1945.57
405.73	1908.71
405.94	1908.71
406.15	1945.57
406.35	2111.46
406.56	1992.67
406.77	1988.58
406.98	1998.82
407.18	1966.05
407.39	2105.31
407.60	1996.77
407.80	2082.78
408.01	1935.33
408.22	1923.04
408.43	1871.84
408.63	1933.28
408.84	2054.11
409.05	2035.68
409.25	1908.71
409.46	1914.85
409.67	1933.28
409.88	1863.65
410.08	1886.18
410.29	1974.24
410.50	2017.25
410.70	1910.75
410.91	1910.75
411.12	1961.95
411.32	1898.47
411.53	1888.23
411.74	2056.16
411.95	2031.58
412.15	2047.97
412.36	2068.45
412.57	2066.40
412.77	2033.63
412.98	1988.58
413.19	1937.38
413.39	2068.45
413.60	1984.48
413.81	2121.70
414.01	1880.04
414.22	2009.06
414.43	2013.15
414.63	1914.85
414.84	2125.79
415.05	2015.20
415.25	1925.09
415.46	1986.53
415.67	1890.28
415.87	1966.05
416.08	1935.33
416.29	1949.67
416.49	1986.53
416.70	1923.04
416.91	1898.47
417.11	1920.99
417.32	1941.47
417.53	2064.35
417.73	2002.91
417.94	1972.19
418.15	2037.73
418.35	2004.96
418.56	1961.95
418.77	2058.21
418.97	1894.37
419.18	1912.80
419.38	1783.78
419.59	1949.67
419.80	2058.21
420.00	1882.08
420.21	2004.96
420.42	2015.20
420.62	1949.67
420.83	1871.84
421.04	1925.09
421.24	1929.19
421.45	1996.77
421.65	2045.92
421.86	1947.62
422.07	2017.25
422.27	1968.10
422.48	1927.14
422.69	1816.55
422.89	2068.45
423.10	1970.15
423.30	1937.38
423.51	2097.12
423.72	1949.67
423.92	1961.95
424.13	1914.85
424.33	1957.86
424.54	2084.83
424.75	1849.32
424.95	2127.84
425.16	2000.87
425.36	1925.09
425.57	2093.02
425.78	1978.34
425.98	2039.78
426.19	1914.85
426.39	1873.89
426.60	2084.83
426.81	2027.49
427.01	1923.04
427.22	1890.28
427.42	1910.75
427.63	1966.05
427.83	2031.58
428.04	2009.06
428.25	2074.59
428.45	1974.24
428.66	2039.78
428.86	1957.86
429.07	1892.32
429.28	1992.67
429.48	2002.91
429.69	1900.52
429.89	2004.96
430.10	1894.37
430.30	2047.97
430.51	2074.59
430.71	1880.04
430.92	1966.05
431.13	2011.11
431.33	2031.58
431.54	2021.35
431.74	2129.89
431.95	2043.87
432.15	1927.14
432.36	1982.43
432.56	2056.16
432.77	2105.31
432.98	2054.11
433.18	1949.67
433.39	2023.39
433.59	1939.43
433.80	2144.22
434.00	2127.84
434.21	1929.19
434.41	1906.66
434.62	2142.18
434.82	1961.95
435.03	1894.37
435.23	1970.15
435.44	1839.08
435.64	1931.23
435.85	2025.44
436.06	1992.67
436.26	2047.97
436.47	1935.33
436.67	1959.91
436.88	1984.48
437.08	2050.02
437.29	2146.27
437.49	1964.00
437.70	2056.16
437.90	1992.67
438.11	2009.06
438.31	2025.44
438.52	2183.13
438.72	2168.80
438.93	2148.32
439.13	2133.98
439.34	2133.98
439.54	2093.02
439.75	2052.06
439.95	2095.07
440.16	1945.57
440.36	2039.78
440.57	1996.77
440.77	2033.63
440.98	1992.67
441.18	1949.67
441.39	1933.28
441.59	1857.51
441.80	2095.07
442.00	2007.01
442.21	2023.39
442.41	1894.37
442.62	2027.49
442.82	1873.89
443.02	1984.48
443.23	1992.67
443.43	1935.33
443.64	2133.98
443.84	1914.85
444.05	2050.02
444.25	2015.20
444.46	1931.23
444.66	2031.58
444.87	2068.45
445.07	1863.65
445.28	1998.82
445.48	2109.41
445.69	2117.60
445.89	2226.14
446.09	2025.44
446.30	2260.96
446.50	2703.32
446.71	4210.62
446.91	5386.16
447.12	6186.91
447.32	6520.73
447.53	6072.23
447.73	4997.04
447.93	4401.08
448.14	3952.58
448.34	3794.89
448.55	3428.30
448.75	3459.02
448.96	3196.88
449.16	2910.16
449.36	2627.54
449.57	2285.53
449.77	2144.22
449.98	1974.24
450.18	2050.02
450.39	2078.69
450.59	2011.11
450.79	2054.11
451.00	1976.29
451.20	1966.05
451.41	1972.19
451.61	2027.49
451.81	1959.91
452.02	1990.63
452.22	2009.06
452.43	1933.28
452.63	1959.91
452.84	1953.76
453.04	1945.57
453.24	1968.10
453.45	1910.75
453.65	1943.52
453.86	1953.76
454.06	2070.50
454.26	1865.70
454.47	1920.99
454.67	2101.22
454.87	1972.19
455.08	2009.06
455.28	2052.06
455.49	1994.72
455.69	1927.14
455.89	2113.50
456.10	2138.08
456.30	1914.85
456.51	1966.05
456.71	1990.63
456.91	2004.96
457.12	2037.73
457.32	1976.29
457.52	1853.41
457.73	2011.11
457.93	2086.88
458.14	1925.09
458.34	1914.85
458.54	1972.19
458.75	1923.04
458.95	2031.58
459.15	1970.15
459.36	2021.35
459.56	1949.67
459.76	2121.70
459.97	2035.68
460.17	1988.58
460.37	2078.69
460.58	1968.10
460.78	2039.78
460.99	1925.09
461.19	1968.10
461.39	1957.86
461.60	1949.67
461.80	2027.49
462.00	1888.23
462.21	2050.02
462.41	1918.95
462.61	1912.80
462.82	1814.50
463.02	2058.21
463.22	2041.82
463.43	2111.46
463.63	1990.63
463.83	2052.06
464.04	2007.01
464.24	2000.87
464.44	1929.19
464.64	1935.33
464.85	2066.40
465.05	2037.73
465.25	2047.97
465.46	1888.23
465.66	2033.63
465.86	2068.45
466.07	1968.10
466.27	1961.95
466.47	1912.80
466.68	1906.66
466.88	2070.50
467.08	2078.69
467.29	2041.82
467.49	2004.96
467.69	1992.67
467.89	2035.68
468.10	1953.76
468.30	1941.47
468.50	2140.13
468.71	2060.26
468.91	1888.23
469.11	2158.56
469.31	2017.25
469.52	1964.00
469.72	2119.65
469.92	2174.94
470.13	2004.96
470.33	1943.52
470.53	2043.87
470.73	2449.37
470.94	2793.43
471.14	2969.55
471.34	3385.29
471.54	3348.43
471.75	2951.12
471.95	2609.11
472.15	2572.25
472.36	2516.95
472.56	2412.51
472.76	2525.15
472.96	2467.80
473.17	2324.44
473.37	2260.96
473.57	2031.58
473.77	2076.64
473.98	2029.54
474.18	1927.14
474.38	2211.81
474.58	1992.67
474.79	1990.63
474.99	1914.85
475.19	1996.77
475.39	1906.66
475.60	1949.67
475.80	1953.76
476.00	1902.56
476.20	1945.57
476.41	1964.00
476.61	2056.16
476.81	2004.96
477.01	1964.00
477.21	2162.66
477.42	2058.21
477.62	1925.09
477.82	2060.26
478.02	1957.86
478.23	1992.67
478.43	1908.71
478.63	1925.09
478.83	1941.47
479.03	1892.32
479.24	2062.30
479.44	2111.46
479.64	1941.47
479.84	1849.32
480.04	1890.28
480.25	1996.77
480.45	1920.99
480.65	1949.67
480.85	2058.21
481.06	1857.51
481.26	1994.72
481.46	2084.83
481.66	2011.11
481.86	1935.33
482.06	2074.59
482.27	1970.15
482.47	1978.34
482.67	2015.20
482.87	1871.84
483.07	2072.54
483.28	1957.86
483.48	1912.80
483.68	1982.43
483.88	1914.85
484.08	1873.89
484.29	1892.32
484.49	1974.24
484.69	1937.38
484.89	2035.68
485.09	2066.40
485.29	2017.25
485.50	1994.72
485.70	1949.67
485.90	2121.70
486.10	1966.05
486.30	2029.54
486.50	2011.11
486.71	2025.44
486.91	1990.63
487.11	2062.30
487.31	1857.51
487.51	1970.15
487.71	1822.69
487.91	1880.04
488.12	1900.52
488.32	1808.36
488.52	1927.14
488.72	1886.18
488.92	1961.95
489.12	2052.06
489.32	2047.97
489.53	2062.30
489.73	1886.18
489.93	2131.94
490.13	1996.77
490.33	1802.21
490.53	1972.19
490.73	2050.02
490.94	1888.23
491.14	2007.01
491.34	2052.06
491.54	2246.62
491.74	2877.40
491.94	3547.08
492.14	3925.96
492.34	3895.24
492.54	3538.89
492.75	2994.13
492.95	3110.86
493.15	2740.18
493.35	2686.94
493.55	2643.93
493.75	2389.98
493.95	2469.85
494.15	2293.72
494.35	2131.94
494.56	2103.26
494.76	1980.39
494.96	2045.92
495.16	2002.91
495.36	1916.90
495.56	1961.95
495.76	1923.04
495.96	1918.95
496.16	1820.64
496.36	2111.46
496.56	1994.72
496.77	1978.34
496.97	1961.95
497.17	2107.36
497.37	1867.75
497.57	2033.63
497.77	1945.57
497.97	1929.19
498.17	1996.77
498.37	1939.43
498.57	1943.52
498.77	1929.19
498.97	2019.30
499.17	2084.83
499.38	1966.05
499.58	2013.15
499.78	2013.15
499.98	2131.94
500.18	1935.33
500.38	1984.48
500.58	2195.42
500.78	2635.74
500.98	4831.16
501.18	7090.07
501.38	8675.20
501.58	9693.04
501.78	9521.01
501.98	7475.09
502.18	6301.60
502.38	5394.35
502.58	4812.73
502.78	4487.10
502.98	4302.78
503.18	4196.29
503.38	3688.39
503.59	3239.89
503.79	3047.38
503.99	2813.91
504.19	2672.60
504.39	2598.87
504.59	2744.28
504.79	2633.69
504.99	2553.82
505.19	2365.40
505.39	2201.57
505.59	2308.06
505.79	2242.53
505.99	2185.18
506.19	2078.69
506.39	2181.09
506.59	2037.73
506.79	2007.01
506.99	2158.56
507.19	2074.59
507.39	2047.97
507.59	1951.71
507.79	1974.24
507.99	1955.81
508.19	1914.85
508.39	1982.43
508.59	1955.81
508.79	2041.82
508.99	2148.32
509.19	1939.43
509.39	1968.10
509.59	1951.71
509.79	1918.95
509.99	2031.58
510.19	2045.92
510.39	2050.02
510.59	1998.82
510.79	1961.95
510.99	1966.05
511.19	1961.95
511.39	2082.78
511.59	2123.74
511.79	2136.03
511.99	1935.33
512.19	2062.30
512.38	1966.05
512.58	1875.94
512.78	2009.06
512.98	2099.17
513.18	2162.66
513.38	1890.28
513.58	2033.63
513.78	2007.01
513.98	1961.95
514.18	1945.57
514.38	1916.90
514.58	1953.76
514.78	2017.25
514.98	1935.33
515.18	1943.52
515.38	1937.38
515.58	2150.37
515.78	1959.91
515.98	2027.49
516.18	2043.87
516.38	1959.91
516.57	1943.52
516.77	1896.42
516.97	2013.15
517.17	1906.66
517.37	1849.32
517.57	2050.02
517.77	1931.23
517.97	1980.39
518.17	2062.30
518.37	1923.04
518.57	1947.62
518.77	1961.95
518.97	2033.63
519.16	2015.20
519.36	2011.11
519.56	2017.25
519.76	1949.67
519.96	1976.29
520.16	2041.82
520.36	1914.85
520.56	2062.30
520.76	1943.52
520.96	2002.91
521.16	2072.54
521.35	2023.39
521.55	2035.68
521.75	2023.39
521.95	1980.39
522.15	1953.76
522.35	1920.99
522.55	1992.67
522.75	2031.58
522.95	1877.99
523.14	1843.17
523.34	2025.44
523.54	1890.28
523.74	2035.68
523.94	1972.19
524.14	1839.08
524.34	1994.72
524.54	2021.35
524.73	1943.52
524.93	1966.05
525.13	1953.76
525.33	1959.91
525.53	2115.55
525.73	2023.39
525.93	2062.30
526.13	1978.34
526.32	1974.24
526.52	2070.50
526.72	1968.10
526.92	1943.52
527.12	2002.91
527.32	1912.80
527.52	2021.35
527.71	1990.63
527.91	1949.67
528.11	1957.86
528.31	2031.58
528.51	1890.28
528.71	2068.45
528.90	2097.12
529.10	2033.63
529.30	2052.06
529.50	1822.69
529.70	2004.96
529.90	2052.06
530.09	2015.20
530.29	1804.26
530.49	1923.04
530.69	2238.43
530.89	1931.23
531.09	2115.55
531.28	2039.78
531.48	2017.25
531.68	2011.11
531.88	1978.34
532.08	2047.97
532.28	1933.28
532.47	1980.39
532.67	2097.12
532.87	2031.58
533.07	1939.43
533.27	2047.97
533.46	2047.97
533.66	1988.58
533.86	1943.52
534.06	1986.53
534.26	2031.58
534.45	2002.91
534.65	2037.73
534.85	2101.22
535.05	2056.16
535.25	2088.93
535.44	1892.32
535.64	2029.54
535.84	1994.72
536.04	1882.08
536.24	2000.87
536.43	2009.06
536.63	2021.35
536.83	1920.99
537.03	2035.68
537.22	1888.23
537.42	1871.84
537.62	1951.71
537.82	1941.47
538.02	2146.27
538.21	2041.82
538.41	2129.89
538.61	1988.58
538.81	2017.25
539.00	2037.73
539.20	1966.05
539.40	1955.81
539.60	1972.19
539.79	2035.68
539.99	1998.82
540.19	1918.95
540.39	1966.05
540.58	2013.15
540.78	2123.74
540.98	1990.63
541.18	2060.26
541.37	1990.63
541.57	2000.87
541.77	2023.39
541.97	1841.12
542.16	1898.47
542.36	1986.53
542.56	1898.47
542.76	2103.26
542.95	2119.65
543.15	2015.20
543.35	1992.67
543.54	1916.90
543.74	1966.05
543.94	2080.74
544.14	1931.23
544.33	2070.50
544.53	2031.58
544.73	1892.32
544.93	2002.91
545.12	1955.81
545.32	2060.26
545.52	2027.49
545.71	1923.04
545.91	1890.28
546.11	2013.15
546.30	1953.76
546.50	2002.91
546.70	1970.15
546.90	1961.95
547.09	1925.09
547.29	1976.29
547.49	1953.76
547.68	1976.29
547.88	1949.67
548.08	2074.59
548.27	2502.62
548.47	1968.10
548.67	1939.43
548.87	2000.87
549.06	1939.43
549.26	1927.14
549.46	1982.43
549.65	1935.33
549.85	1972.19
550.05	2002.91
550.24	1845.22
550.44	1925.09
550.64	2039.78
550.83	2021.35
551.03	2119.65
551.23	2041.82
551.42	1955.81
551.62	1959.91
551.82	1929.19
552.01	1912.80
552.21	2084.83
552.41	2039.78
552.60	2103.26
552.80	1980.39
553.00	1959.91
553.19	1992.67
553.39	2095.07
553.59	1912.80
553.78	2025.44
553.98	2031.58
554.17	1908.71
554.37	1937.38
554.57	2019.30
554.76	1896.42
554.96	1923.04
555.16	2007.01
555.35	1925.09
555.55	2013.15
555.75	2029.54
555.94	2072.54
556.14	1959.91
556.33	2015.20
556.53	1970.15
556.73	2023.39
556.92	2017.25
557.12	2062.30
557.32	2152.42
557.51	2084.83
557.71	2068.45
557.90	2019.30
558.10	2105.31
558.30	1968.10
558.49	1916.90
558.69	1964.00
558.88	2027.49
559.08	2000.87
559.28	1998.82
559.47	1945.57
559.67	2023.39
559.86	2164.70
560.06	2064.35
560.26	1912.80
560.45	2017.25
560.65	1927.14
560.84	2007.01
561.04	2000.87
561.24	2007.01
561.43	1931.23
561.63	2023.39
561.82	1957.86
562.02	1996.77
562.22	1880.04
562.41	1931.23
562.61	1951.71
562.80	1880.04
563.00	2160.61
563.19	1994.72
563.39	2002.91
563.59	2041.82
563.78	1869.80
563.98	1886.18
564.17	1947.62
564.37	1877.99
564.56	1939.43
564.76	1855.46
564.96	2123.74
565.15	2078.69
565.35	2174.94
565.54	1955.81
565.74	2035.68
565.93	2031.58
566.13	1982.43
566.32	2058.21
566.52	2037.73
566.71	2015.20
566.91	2054.11
567.11	2009.06
567.30	1867.75
567.50	2035.68
567.69	1904.61
567.89	1961.95
568.08	1898.47
568.28	2070.50
568.47	1964.00
568.67	1949.67
568.86	1923.04
569.06	2066.40
569.25	1957.86
569.45	1900.52
569.64	1939.43
569.84	1970.15
570.04	2023.39
570.23	1988.58
570.43	1953.76
570.62	2023.39
570.82	2086.88
571.01	1902.56
571.21	1933.28
571.40	1906.66
571.60	2027.49
571.79	1970.15
571.99	2039.78
572.18	1931.23
572.38	2021.35
572.57	1939.43
572.77	1988.58
572.96	2236.38
573.16	2054.11
573.35	2021.35
573.55	2117.60
573.74	2056.16
573.94	1886.18
574.13	1986.53
574.33	2052.06
574.52	2144.22
574.71	2056.16
574.91	2052.06
575.10	1931.23
575.30	1953.76
575.49	1904.61
575.69	1910.75
575.88	2052.06
576.08	2009.06
576.27	2050.02
576.47	2070.50
576.66	2170.85
576.86	2133.98
577.05	2095.07
577.25	2060.26
577.44	2172.89
577.64	1970.15
577.83	2086.88
578.02	2050.02
578.22	2107.36
578.41	2088.93
578.61	2060.26
578.80	1873.89
579.00	2017.25
579.19	2035.68
579.39	2097.12
579.58	2099.17
579.77	2015.20
579.97	2105.31
580.16	2156.51
580.36	2121.70
580.55	2082.78
580.75	2062.30
580.94	2064.35
581.13	2168.80
581.33	2107.36
581.52	1978.34
581.72	2197.47
581.91	2215.90
582.11	2011.11
582.30	2052.06
582.49	1972.19
582.69	2142.18
582.88	2027.49
583.08	1980.39
583.27	2105.31
583.47	2017.25
583.66	1908.71
583.85	1972.19
584.05	2000.87
584.24	2058.21
584.44	2054.11
584.63	2105.31
584.82	2224.09
585.02	2121.70
585.21	2232.29
585.41	2267.10
585.60	2148.32
585.79	2181.09
585.99	2240.48
586.18	2152.42
586.37	2568.15
586.57	3938.24
586.76	11896.65
586.96	30471.73
587.15	44496.22
587.34	54318.28
587.54	60216.43
587.73	56163.50
587.93	39757.22
588.12	29978.17
588.31	23916.18
588.51	20543.17
588.70	18902.75
588.89	17239.80
589.09	15263.51
589.28	13119.29
589.47	10841.95
589.67	8679.29
589.86	6514.59
590.06	4868.02
590.25	3905.48
590.44	3133.39
590.64	2711.51
590.83	2480.09
591.02	2334.68
591.22	2123.74
591.41	2170.85
591.60	2015.20
591.80	2293.72
591.99	1863.65
592.18	2041.82
592.38	2070.50
592.57	2000.87
592.76	2039.78
592.96	1949.67
593.15	2035.68
593.34	2185.18
593.54	2037.73
593.73	2117.60
593.92	2037.73
594.12	2140.13
594.31	2013.15
594.50	2160.61
594.70	2062.30
594.89	2181.09
595.08	1957.86
595.28	1974.24
595.47	2213.85
595.66	1986.53
595.86	2000.87
596.05	1992.67
596.24	1984.48
596.43	2142.18
596.63	2140.13
596.82	2074.59
597.01	2072.54
597.21	2144.22
597.40	2056.16
597.59	2013.15
597.79	2021.35
597.98	1949.67
598.17	2088.93
598.36	2052.06
598.56	2027.49
598.75	2056.16
598.94	2029.54
599.14	1994.72
599.33	1908.71
599.52	2074.59
599.71	1925.09
599.91	2082.78
600.10	2113.50
600.29	1943.52
600.48	1982.43
600.68	2050.02
600.87	1951.71
601.06	1941.47
601.26	2007.01
601.45	1992.67
601.64	1912.80
601.83	2043.87
602.03	1994.72
602.22	1939.43
602.41	2041.82
602.60	2150.37
602.80	2121.70
602.99	2078.69
603.18	1945.57
603.37	1994.72
603.57	1988.58
603.76	1992.67
603.95	2011.11
604.14	1939.43
604.34	1894.37
604.53	2027.49
604.72	2037.73
604.91	1984.48
605.10	2021.35
605.30	1978.34
605.49	2176.99
605.68	2047.97
605.87	2000.87
606.07	1886.18
606.26	2021.35
606.45	2004.96
606.64	2050.02
606.84	1951.71
607.03	2015.20
607.22	2101.22
607.41	1972.19
607.60	1964.00
607.80	2027.49
607.99	2021.35
608.18	2023.39
608.37	2039.78
608.56	1910.75
608.76	2009.06
608.95	2166.75
609.14	2170.85
609.33	2103.26
609.52	2105.31
609.72	2070.50
609.91	2107.36
610.10	1976.29
610.29	2172.89
610.48	2121.70
610.68	2074.59
610.87	2019.30
611.06	2035.68
611.25	2035.68
611.44	2078.69
611.63	2013.15
611.83	2050.02
612.02	1925.09
612.21	2068.45
612.40	1900.52
612.59	1851.36
612.79	1976.29
612.98	1949.67
613.17	2105.31
613.36	1996.77
613.55	2127.84
613.74	2050.02
613.93	2232.29
614.13	2174.94
614.32	2228.19
614.51	2277.34
614.70	2146.27
614.89	2127.84
615.08	2103.26
615.28	2426.84
615.47	1931.23
615.66	2101.22
615.85	2107.36
616.04	2158.56
616.23	2056.16
616.42	2064.35
616.62	1974.24
616.81	2084.83
617.00	1996.77
617.19	2021.35
617.38	1990.63
617.57	2080.74
617.76	2058.21
617.95	2011.11
618.15	2058.21
618.34	2105.31
618.53	1959.91
618.72	2076.64
618.91	2129.89
619.10	2154.46
619.29	1951.71
619.48	2011.11
619.68	1935.33
619.87	2037.73
620.06	1867.75
620.25	2021.35
620.44	1982.43
620.63	2039.78
620.82	2043.87
621.01	1970.15
621.20	2058.21
621.39	2082.78
621.59	2021.35
621.78	2025.44
621.97	2013.15
622.16	2072.54
622.35	1984.48
622.54	2058.21
622.73	2052.06
622.92	1900.52
623.11	2025.44
623.30	1988.58
623.49	2045.92
623.68	1904.61
623.88	2066.40
624.07	1990.63
624.26	1865.70
624.45	2031.58
624.64	1996.77
624.83	2000.87
625.02	2013.15
625.21	2054.11
625.40	2023.39
625.59	2093.02
625.78	1955.81
625.97	2107.36
626.16	2142.18
626.35	2144.22
626.54	2060.26
626.74	2127.84
626.93	2002.91
627.12	2007.01
627.31	2086.88
627.50	2109.41
627.69	2105.31
627.88	1984.48
628.07	1968.10
628.26	1974.24
628.45	1898.47
628.64	1896.42
628.83	2002.91
629.02	1912.80
629.21	2021.35
629.40	2082.78
629.59	1931.23
629.78	1966.05
629.97	2060.26
630.16	2056.16
630.35	1953.76
630.54	1951.71
630.73	1923.04
630.92	1951.71
631.11	1949.67
631.30	1998.82
631.49	2000.87
631.68	2058.21
631.87	2021.35
632.06	1900.52
632.25	2146.27
632.44	2027.49
632.63	1996.77
632.82	2033.63
633.01	2078.69
633.20	2070.50
633.39	2013.15
633.58	1974.24
633.77	2035.68
633.96	2109.41
634.15	2015.20
634.34	2101.22
634.53	2041.82
634.72	2004.96
634.91	1886.18
635.10	2070.50
635.29	2090.98
635.48	1972.19
635.67	1908.71
635.86	1914.85
636.05	2078.69
636.24	2013.15
636.43	1980.39
636.62	2017.25
636.81	1834.98
637.00	2015.20
637.19	1972.19
637.38	1978.34
637.57	1931.23
637.76	2076.64
637.95	2162.66
638.14	2074.59
638.33	2095.07
638.52	2068.45
638.71	2004.96
638.89	1953.76
639.08	2226.14
639.27	2172.89
639.46	2205.66
639.65	2584.54
639.84	2686.94
640.03	2789.33
640.22	2789.33
640.41	2793.43
640.60	2299.87
640.79	2308.06
640.98	2154.46
641.17	2254.81
641.36	2205.66
641.55	2189.28
641.74	2064.35
641.92	1984.48
642.11	1941.47
642.30	2023.39
642.49	1988.58
642.68	1961.95
642.87	1923.04
643.06	2013.15
643.25	1929.19
643.44	1886.18
643.63	2052.06
643.82	1980.39
644.00	1894.37
644.19	2015.20
644.38	1929.19
644.57	2021.35
644.76	1996.77
644.95	1994.72
645.14	2017.25
645.33	1925.09
645.52	1951.71
645.71	1906.66
645.89	1896.42
646.08	1927.14
646.27	1920.99
646.46	2082.78
646.65	1855.46
646.84	1892.32
647.03	1904.61
647.22	2095.07
647.40	1974.24
647.59	1955.81
647.78	1857.51
647.97	1912.80
648.16	1857.51
648.35	2017.25
648.54	2113.50
648.73	1894.37
648.91	2009.06
649.10	1982.43
649.29	1961.95
649.48	1972.19
649.67	2017.25
649.86	1996.77
650.05	2066.40
650.23	2154.46
650.42	2154.46
650.61	2254.81
650.80	2236.38
650.99	2246.62
651.18	2068.45
651.36	2158.56
651.55	2015.20
651.74	2066.40
651.93	1925.09
652.12	1937.38
652.31	2047.97
652.49	2029.54
652.68	1869.80
652.87	2011.11
653.06	2029.54
653.25	2064.35
653.44	2009.06
653.62	2056.16
653.81	1972.19
654.00	1943.52
654.19	2043.87
654.38	2191.33
654.56	1933.28
654.75	2054.11
654.94	2070.50
655.13	1966.05
655.32	2033.63
655.51	2039.78
655.69	1978.34
655.88	1988.58
656.07	1898.47
656.26	1941.47
656.45	1890.28
656.63	1918.95
656.82	1996.77
657.01	2000.87
657.20	1908.71
657.38	2027.49
657.57	1998.82
657.76	1894.37
657.95	2064.35
658.14	1974.24
658.32	2064.35
658.51	1884.13
658.70	1986.53
658.89	1968.10
659.08	1957.86
659.26	2150.37
659.45	1955.81
659.64	2174.94
659.83	1980.39
660.01	2273.25
660.20	2011.11
660.39	2123.74
660.58	1851.36
660.76	2025.44
660.95	1902.56
661.14	1988.58
661.33	1949.67
661.51	1984.48
661.70	1904.61
661.89	2033.63
662.08	1951.71
662.26	1894.37
662.45	1898.47
662.64	2047.97
662.83	1984.48
663.01	1912.80
663.20	1992.67
663.39	2039.78
663.58	2000.87
663.76	1978.34
663.95	2043.87
664.14	1931.23
664.32	1964.00
664.51	1910.75
664.70	1929.19
664.89	2011.11
665.07	1875.94
665.26	2043.87
665.45	1927.14
665.64	1980.39
665.82	2039.78
666.01	2080.74
666.20	1982.43
666.38	2099.17
666.57	2086.88
666.76	2789.33
666.95	6727.58
667.13	14808.86
667.32	20737.73
667.51	24624.78
667.69	27108.96
667.88	25874.04
668.07	18624.23
668.25	14561.06
668.44	11874.12
668.63	10102.63
668.81	9088.89
669.00	7927.69
669.19	6985.62
669.38	6125.47
669.56	5291.95
669.75	4409.28
669.94	3698.63
670.12	3071.95
670.31	2723.80
670.50	2447.32
670.68	2336.73
670.87	2146.27
671.06	2058.21
671.24	2023.39
671.43	2179.04
671.62	2080.74
671.80	2033.63
671.99	2039.78
672.18	1990.63
672.36	2095.07
672.55	2088.93
672.74	1988.58
672.92	1935.33
673.11	2025.44
673.29	1888.23
673.48	2009.06
673.67	1923.04
673.85	2078.69
674.04	1968.10
674.23	2000.87
674.41	2101.22
674.60	1855.46
674.79	1781.73
674.97	1849.32
675.16	2021.35
675.34	2025.44
675.53	1949.67
675.72	2019.30
675.90	2060.26
676.09	1978.34
676.28	1906.66
676.46	1871.84
676.65	2045.92
676.83	1937.38
677.02	1990.63
677.21	2004.96
677.39	1959.91
677.58	1957.86
677.77	1982.43
677.95	1966.05
678.14	1927.14
678.32	1953.76
678.51	1877.99
678.70	2103.26
678.88	1939.43
679.07	1935.33
679.25	1923.04
679.44	1984.48
679.63	1834.98
679.81	2037.73
680.00	2007.01
680.18	2007.01
680.37	2037.73
680.55	1939.43
680.74	1898.47
680.93	1755.11
681.11	2039.78
681.30	2009.06
681.48	2027.49
681.67	1941.47
681.85	1984.48
682.04	1912.80
682.23	2035.68
682.41	1984.48
682.60	1968.10
682.78	2002.91
682.97	1912.80
683.15	1951.71
683.34	1986.53
683.53	2103.26
683.71	1859.56
683.90	2060.26
684.08	2193.37
684.27	2025.44
684.45	2002.91
684.64	2033.63
684.82	1931.23
685.01	2021.35
685.19	1892.32
685.38	2076.64
685.57	2039.78
685.75	1886.18
685.94	1912.80
686.12	1939.43
686.31	1937.38
686.49	2125.79
686.68	1896.42
686.86	2019.30
687.05	1990.63
687.23	2160.61
687.42	1902.56
687.60	1851.36
687.79	2004.96
687.97	2037.73
688.16	2054.11
688.34	2023.39
688.53	1810.40
688.71	2013.15
688.90	2031.58
689.08	1923.04
689.27	1886.18
689.45	2054.11
689.64	2037.73
689.82	1906.66
690.01	2000.87
690.19	2023.39
690.38	1984.48
690.56	2054.11
690.75	1968.10
690.93	1964.00
691.12	1927.14
691.30	1933.28
691.49	1892.32
691.67	1937.38
691.86	2164.70
692.04	1988.58
692.23	1886.18
692.41	2025.44
692.60	2195.42
692.78	2090.98
692.97	2064.35
693.15	2131.94
693.34	2084.83
693.52	2056.16
693.71	1974.24
693.89	1886.18
694.08	1847.27
694.26	2109.41
694.44	2013.15
694.63	1994.72
694.81	1884.13
695.00	1890.28
695.18	2031.58
695.37	2142.18
695.55	1914.85
695.74	1978.34
695.92	1935.33
696.10	2058.21
696.29	1923.04
696.47	1867.75
696.66	1861.60
696.84	1869.80
697.03	1980.39
697.21	2127.84
697.40	2809.81
697.58	2078.69
697.76	1959.91
697.95	1929.19
698.13	1898.47
698.32	1988.58
698.50	1974.24
698.68	2058.21
698.87	2011.11
699.05	1992.67
699.24	2013.15
699.42	1890.28
699.61	1980.39
699.79	1976.29
699.97	1894.37
700.16	1923.04
700.34	1839.08
700.53	1939.43
700.71	2084.83
700.89	2070.50
701.08	1937.38
701.26	2041.82
701.45	2494.43
701.63	1920.99
701.81	1880.04
702.00	1925.09
702.18	1927.14
702.37	2031.58
702.55	2191.33
702.73	2088.93
702.92	2170.85
703.10	2355.16
703.28	2303.96
703.47	2043.87
703.65	2176.99
703.84	2152.42
704.02	2062.30
704.20	2154.46
704.39	2031.58
704.57	2050.02
704.75	2158.56
704.94	2074.59
705.12	2078.69
705.30	2265.05
705.49	3629.00
705.67	9125.75
705.86	18665.19
706.04	23461.53
706.22	27123.30
706.41	28907.08
706.59	25953.91
706.77	18763.49
706.96	14745.38
707.14	12670.78
707.32	11274.07
707.51	9791.34
707.69	8218.50
707.87	6635.42
708.06	5265.33
708.24	4243.39
708.42	3207.12
708.61	2961.36
708.79	2353.12
708.97	2279.39
709.16	2133.98
709.34	2068.45
709.52	2033.63
709.71	1988.58
709.89	2078.69
710.07	1933.28
710.26	1982.43
710.44	1984.48
710.62	2080.74
710.80	2000.87
710.99	2000.87
711.17	2011.11
711.35	1871.84
711.54	2011.11
711.72	2039.78
711.90	2031.58
712.09	2011.11
712.27	1998.82
712.45	2013.15
712.63	1937.38
712.82	1990.63
713.00	1978.34
713.18	2039.78
713.37	2035.68
713.55	2029.54
713.73	1984.48
713.91	1964.00
714.10	1982.43
714.28	2043.87
714.46	2027.49
714.65	1949.67
714.83	2025.44
715.01	2004.96
715.19	1896.42
715.38	1877.99
715.56	2052.06
715.74	1931.23
715.92	1949.67
716.11	2031.58
716.29	1867.75
716.47	1937.38
716.65	1951.71
716.84	1859.56
717.02	2127.84
717.20	1775.59
717.38	2027.49
717.57	2011.11
717.75	1923.04
717.93	1943.52
718.11	2015.20
718.30	1914.85
718.48	2035.68
718.66	1947.62
718.84	2019.30
719.03	1914.85
719.21	1927.14
719.39	2029.54
719.57	2054.11
719.75	2025.44
719.94	1947.62
720.12	1949.67
720.30	1951.71
720.48	2021.35
720.67	1898.47
720.85	1947.62
721.03	1880.04
721.21	1904.61
721.39	2015.20
721.58	1968.10
721.76	1968.10
721.94	1996.77
722.12	2039.78
722.30	2019.30
722.49	1929.19
722.67	1992.67
722.85	1982.43
723.03	1859.56
723.21	1925.09
723.40	1976.29
723.58	2064.35
723.76	2070.50
723.94	2172.89
724.12	2090.98
724.30	2148.32
724.49	2121.70
724.67	1943.52
724.85	2207.71
725.03	1918.95
725.21	2080.74
725.40	2019.30
725.58	1947.62
725.76	2090.98
725.94	1916.90
726.12	1916.90
726.30	1988.58
726.49	1941.47
726.67	1884.13
726.85	2086.88
727.03	2242.53
727.21	3196.88
727.39	4827.06
727.57	6205.35
727.76	6883.22
727.94	7339.92
728.12	7231.38
728.30	5947.30
728.48	4843.45
728.66	4386.75
728.84	3954.63
729.03	3475.40
729.21	2957.27
729.39	2645.98
729.57	2312.16
729.75	2158.56
729.93	2080.74
730.11	1980.39
730.30	1914.85
730.48	1894.37
730.66	2105.31
730.84	2070.50
731.02	1945.57
731.20	1892.32
731.38	2025.44
731.56	1863.65
731.74	1902.56
731.93	1894.37
732.11	1945.57
732.29	2002.91
732.47	1988.58
732.65	1984.48
732.83	1972.19
733.01	2029.54
733.19	1871.84
733.37	1992.67
733.56	1964.00
733.74	1966.05
733.92	2047.97
734.10	1914.85
734.28	1972.19
734.46	1804.26
734.64	1912.80
734.82	1927.14
735.00	1843.17
735.18	1935.33
735.36	1953.76
735.54	2015.20
735.73	1902.56
735.91	1968.10
736.09	1996.77
736.27	1959.91
736.45	2009.06
736.63	1855.46
736.81	1933.28
736.99	2054.11
737.17	2058.21
737.35	1974.24
737.53	2011.11
737.71	1904.61
737.89	2052.06
738.07	1931.23
738.25	1863.65
738.43	1851.36
738.61	1880.04
738.80	1875.94
738.98	1886.18
739.16	1943.52
739.34	1943.52
739.52	2080.74
739.70	1935.33
739.88	2074.59
740.06	2027.49
740.24	1847.27
740.42	2011.11
740.60	1839.08
740.78	1865.70
740.96	1857.51
741.14	1902.56
741.32	2004.96
741.50	1929.19
741.68	2121.70
741.86	2070.50
742.04	1892.32
742.22	1904.61
742.40	1949.67
742.58	2031.58
742.76	1900.52
742.94	2035.68
743.12	1863.65
743.30	1933.28
743.48	2033.63
743.66	1943.52
743.84	2060.26
744.02	1966.05
744.20	1988.58
744.38	1855.46
744.56	1931.23
744.74	2099.17
744.92	1939.43
745.10	2121.70
745.28	2021.35
745.46	2088.93
745.64	1980.39
745.82	1996.77
746.00	1994.72
746.18	1902.56
746.36	1855.46
746.54	1931.23
746.72	2025.44
746.90	1869.80
747.08	1980.39
747.26	1933.28
747.44	2011.11
747.62	1941.47
747.80	1875.94
747.98	1998.82
748.15	1953.76
748.33	2142.18
748.51	2009.06
748.69	2035.68
748.87	1970.15
749.05	1822.69
749.23	2002.91
749.41	1955.81
749.59	1920.99
749.77	1996.77
749.95	1914.85
750.13	1949.67
750.31	1910.75
750.49	1957.86
750.67	1959.91
750.85	2025.44
751.03	1902.56
751.20	2138.08
751.38	2070.50
751.56	1908.71
751.74	1988.58
751.92	1900.52
752.10	1875.94
752.28	2054.11
752.46	1880.04
752.64	1990.63
752.82	1984.48
753.00	2015.20
753.18	1935.33
753.35	2015.20
753.53	1980.39
753.71	1904.61
753.89	2025.44
754.07	1947.62
754.25	2058.21
754.43	1935.33
754.61	1855.46
754.79	1947.62
754.97	1918.95
755.14	1992.67
755.32	1873.89
755.50	1894.37
755.68	2033.63
755.86	1869.80
756.04	1931.23
756.22	1755.11
756.40	2037.73
756.57	2058.21
756.75	1970.15
756.93	2131.94
757.11	1964.00
757.29	1873.89
757.47	1910.75
757.65	1953.76
757.82	1765.35
758.00	1818.60
758.18	1843.17
758.36	1896.42
758.54	2084.83
758.72	1951.71
758.90	2023.39
759.07	1951.71
759.25	1851.36
759.43	1959.91
759.61	1918.95
759.79	2682.84
759.97	2031.58
760.15	1951.71
760.32	1953.76
760.50	1964.00
760.68	2074.59
760.86	1898.47
761.04	2009.06
761.22	2039.78
761.39	1945.57
761.57	1972.19
761.75	1920.99
761.93	2054.11
762.11	1941.47
762.28	1957.86
762.46	1886.18
762.64	2074.59
762.82	1841.12
763.00	1892.32
763.18	2050.02
763.35	1906.66
763.53	1959.91
763.71	2013.15
763.89	1931.23
764.07	1931.23
764.24	1892.32
764.42	1974.24
764.60	1992.67
764.78	2002.91
764.96	1961.95
765.13	1986.53
765.31	1912.80
765.49	1998.82
765.67	1927.14
765.84	1908.71
766.02	1902.56
766.20	1834.98
766.38	2011.11
766.56	2009.06
766.73	1953.76
766.91	1992.67
767.09	1929.19
767.27	1931.23
767.44	1861.60
767.62	1964.00
767.80	1998.82
767.98	1931.23
768.15	1996.77
768.33	2029.54
768.51	2009.06
768.69	1935.33
768.87	1994.72
769.04	1955.81
769.22	2133.98
769.40	2095.07
769.58	2093.02
769.75	2045.92
769.93	2119.65
770.11	1992.67
770.28	1890.28
770.46	2031.58
770.64	1970.15
770.82	1884.13
770.99	2009.06
771.17	2076.64
771.35	1910.75
771.53	1920.99
771.70	1912.80
771.88	1982.43
772.06	1898.47
772.23	1912.80
772.41	1986.53
772.59	1873.89
772.77	1888.23
772.94	1902.56
773.12	1994.72
773.30	1923.04
773.47	1877.99
773.65	1927.14
773.83	2074.59
774.01	1972.19
774.18	1923.04
774.36	1966.05
774.54	1841.12
774.71	1980.39
774.89	1847.27
775.07	1832.93
775.24	1951.71
775.42	1939.43
775.60	2099.17
775.78	1923.04
775.95	1832.93
776.13	1794.02
776.31	1849.32
776.48	1925.09
776.66	2041.82
776.84	1947.62
777.01	1939.43
777.19	1968.10
777.37	1925.09
777.54	1945.57
777.72	2113.50
777.90	2031.58
778.07	1845.22
778.25	2193.37
778.43	1978.34
778.60	1920.99
778.78	2037.73
778.96	2076.64
779.13	1837.03
779.31	2119.65
779.49	1972.19
779.66	1959.91
779.84	1988.58
780.01	1972.19
780.19	1857.51
780.37	2031.58
780.54	2039.78
780.72	1937.38
780.90	1902.56
781.07	2015.20
781.25	1898.47
781.43	2045.92
781.60	1916.90
781.78	2033.63
781.95	1982.43
782.13	1886.18
782.31	1947.62
782.48	1773.54
782.66	1941.47
782.83	2088.93
783.01	2009.06
783.19	1972.19
783.36	1927.14
783.54	1933.28
783.72	2037.73
783.89	1904.61
784.07	1943.52
784.24	1966.05
784.42	2007.01
784.60	1912.80
784.77	1941.47
784.95	1777.64
785.12	1916.90
785.30	1992.67
785.47	1855.46
785.65	1886.18
785.83	1937.38
786.00	1824.74
786.18	1927.14
786.35	1896.42
786.53	1839.08
786.71	2021.35
786.88	2009.06
787.06	2013.15
787.23	1992.67
787.41	1867.75
787.58	1927.14
787.76	1904.61
787.94	1943.52
788.11	1976.29
788.29	1980.39
788.46	1925.09
788.64	1859.56
788.81	1929.19
788.99	1904.61
789.16	1912.80
789.34	1992.67
789.52	1914.85
789.69	1916.90
789.87	1849.32
790.04	1916.90
790.22	1976.29
790.39	2033.63
790.57	1794.02
790.74	1869.80
790.92	1951.71
791.09	1855.46
791.27	1968.10
791.44	2074.59
791.62	1910.75
791.79	1955.81
791.97	1994.72
792.15	2263.01
792.32	1994.72
792.50	1984.48
792.67	2097.12
792.85	2002.91
793.02	2007.01
793.20	1931.23
793.37	1843.17
793.55	1966.05
793.72	1898.47
793.90	1990.63
794.07	1865.70
794.25	1912.80
794.42	2031.58
794.60	1923.04
794.77	1982.43
794.95	2017.25
795.12	1961.95
795.30	1871.84
795.47	1867.75
795.65	2148.32
795.82	2004.96
796.00	1943.52
796.17	1880.04
796.34	1976.29
796.52	2029.54
796.69	2035.68
796.87	1951.71
797.04	1964.00
797.22	2004.96
797.39	1959.91
797.57	2002.91
797.74	1988.58
797.92	1953.76
798.09	1865.70
798.27	2002.91
798.44	1998.82
798.62	1853.41
798.79	2009.06
798.96	2099.17
799.14	1871.84
799.31	2082.78
799.49	1959.91
799.66	1943.52
799.84	1908.71
800.01	1900.52
800.19	2021.35
800.36	1834.98
800.53	1935.33
800.71	1957.86
800.88	2166.75
801.06	1939.43
801.23	1816.55
801.41	2000.87
801.58	1955.81
801.75	1908.71
801.93	1951.71
802.10	1998.82
802.28	1898.47
802.45	1923.04
802.63	1978.34
802.80	2095.07
802.97	1957.86
803.15	1974.24
803.32	1935.33
803.50	1869.80
803.67	1972.19
803.84	1894.37
804.02	1986.53
804.19	1927.14
804.37	1867.75
804.54	1845.22
804.71	1988.58
804.89	1929.19
805.06	1900.52
805.24	1794.02
805.41	1896.42
805.58	1859.56
805.76	2160.61
805.93	1974.24
806.10	2045.92
806.28	1982.43
806.45	1953.76
806.63	2027.49
806.80	1986.53
806.97	1961.95
807.15	2056.16
807.32	1968.10
807.49	2041.82
807.67	1808.36
807.84	1933.28
808.01	1820.64
808.19	2080.74
808.36	2131.94
808.54	1935.33
808.71	1978.34
808.88	1949.67
809.06	2045.92
809.23	2043.87
809.40	1904.61
809.58	2097.12
809.75	2009.06
809.92	1851.36
810.10	2162.66
810.27	1908.71
810.44	2015.20
810.62	1988.58
810.79	1980.39
810.96	1955.81
811.14	1920.99
811.31	1980.39
811.48	1961.95
811.66	1972.19
811.83	2127.84
812.00	2025.44
812.18	1961.95
812.35	2084.83
812.52	1955.81
812.69	1884.13
812.87	1978.34
813.04	1863.65
813.21	1935.33
813.39	1923.04
813.56	1900.52
813.73	2035.68
813.91	1888.23
814.08	1902.56
814.25	1931.23
814.42	1845.22
814.60	1925.09
814.77	1945.57
814.94	1906.66
815.12	1906.66
815.29	2119.65
815.46	1945.57
815.63	2015.20
815.81	1964.00
815.98	1906.66
816.15	1937.38
816.33	1955.81
816.50	2004.96
816.67	1875.94
816.84	1908.71
817.02	1857.51
817.19	1935.33
817.36	1947.62
817.53	1986.53
817.71	1877.99
817.88	2095.07
818.05	2002.91
818.22	1947.62
818.40	2064.35
818.57	1945.57
818.74	2007.01
818.91	1957.86
819.09	2107.36
819.26	1961.95
819.43	1918.95
819.60	1923.04
819.78	1970.15
819.95	1998.82
820.12	1898.47
820.29	2097.12
820.47	1982.43
820.64	1912.80
820.81	1849.32
820.98	1908.71
821.15	1875.94
821.33	1961.95
821.50	1853.41
821.67	2045.92
821.84	1957.86
822.02	1923.04
822.19	2029.54
822.36	1884.13
822.53	1951.71
822.70	1830.88
822.88	1886.18
823.05	2045.92
823.22	1886.18
823.39	2000.87
823.56	1894.37
823.74	2103.26
823.91	1931.23
824.08	1920.99
824.25	1877.99
824.42	2152.42
824.60	1834.98
824.77	2011.11
824.94	1982.43
825.11	2029.54
825.28	1869.80
825.45	1980.39
825.63	1980.39
825.80	1892.32
825.97	1982.43
826.14	1996.77
826.31	1781.73
826.48	1974.24
826.66	1845.22
826.83	1867.75
827.00	1953.76
827.17	1910.75
827.34	1916.90
827.51	1898.47
827.69	1968.10
827.86	1857.51
828.03	1923.04
828.20	1949.67
828.37	1941.47
828.54	1986.53
828.71	1875.94
828.89	2082.78
829.06	1859.56
829.23	2070.50
829.40	1839.08
829.57	1914.85
829.74	1966.05
829.91	1910.75
830.09	1865.70
830.26	2011.11
830.43	2060.26
830.60	1992.67
830.77	2029.54
830.94	2099.17
831.11	2103.26
831.28	1894.37
831.46	2011.11
831.63	1904.61
831.80	1964.00
831.97	1888.23
832.14	1910.75
832.31	1982.43
832.48	1955.81
832.65	2078.69
832.82	1923.04
832.99	2023.39
833.17	1877.99
833.34	2095.07
833.51	1959.91
833.68	1914.85
833.85	2086.88
834.02	1898.47
834.19	1882.08
834.36	1890.28
834.53	2009.06
834.70	2047.97
834.87	1955.81
835.04	1902.56
835.22	1847.27
835.39	1964.00
835.56	1929.19
835.73	1947.62
835.90	1974.24
836.07	1896.42
836.24	2029.54
836.41	1877.99
836.58	1857.51
836.75	2023.39
836.92	1992.67
837.09	1865.70
837.26	2029.54
837.43	1996.77
837.60	1931.23
837.77	1847.27
837.94	2017.25
838.12	2066.40
838.29	1984.48
838.46	1914.85
838.63	1826.79
838.80	2123.74
838.97	1994.72
839.14	2000.87
839.31	1931.23
839.48	2009.06
839.65	1939.43
839.82	2033.63
839.99	1984.48
840.16	1988.58
840.33	1867.75
840.50	1974.24
840.67	1945.57
840.84	1787.88
841.01	1933.28
841.18	1888.23
841.35	1875.94
841.52	2111.46
841.69	2078.69
841.86	1925.09
842.03	2045.92
842.20	2000.87
842.37	1945.57
842.54	1900.52
842.71	1994.72
842.88	1898.47
843.05	2021.35
843.22	1875.94
843.39	1996.77
843.56	1896.42
843.73	1939.43
843.90	1918.95
844.07	1992.67
844.24	2035.68
844.41	2027.49
844.58	1955.81
844.75	2011.11
844.92	2082.78
845.09	2007.01
845.26	1918.95
845.43	2017.25
845.60	1937.38
845.77	2029.54
845.94	2013.15
846.10	2021.35
846.27	1863.65
846.44	1781.73
846.61	1935.33
846.78	2035.68
846.95	2033.63
847.12	1906.66
847.29	2017.25
847.46	1949.67
847.63	2002.91
847.80	1920.99
847.97	1931.23
848.14	2058.21
848.31	1896.42
848.48	1918.95
848.65	1996.77
848.82	1908.71
848.98	2107.36
849.15	1990.63
849.32	2013.15
849.49	2035.68
849.66	2019.30
849.83	1894.37
850.00	1964.00
850.17	2068.45
850.34	1937.38
850.51	1910.75
850.68	1929.19
850.85	2138.08
851.01	1972.19
851.18	1990.63
851.35	1910.75
851.52	1937.38
851.69	2058.21
851.86	1900.52
852.03	1904.61
852.20	1988.58
852.37	1945.57
852.53	1773.54
852.70	1929.19
852.87	1998.82
853.04	1927.14
853.21	1927.14
853.38	2004.96
853.55	2021.35
853.72	2052.06
853.89	1865.70
854.05	1900.52
854.22	1910.75
854.39	2035.68
854.56	1957.86
854.73	2050.02
854.90	1877.99
855.07	1900.52
855.23	1857.51
855.40	1859.56
855.57	1990.63
855.74	1812.45
855.91	2133.98
856.08	1875.94
856.25	1873.89
856.41	1892.32
856.58	1869.80
856.75	1916.90
856.92	1925.09
857.09	2027.49
857.26	1875.94
857.42	1896.42
857.59	1988.58
857.76	1890.28
857.93	2021.35
858.10	2000.87
858.27	1923.04
858.43	1943.52
858.60	1949.67
858.77	1828.84
858.94	1939.43
859.11	1996.77
859.27	1914.85
859.44	1906.66
859.61	2066.40
859.78	2019.30
859.95	1947.62
860.12	1877.99
860.28	2066.40
860.45	2166.75
860.62	1900.52
860.79	1896.42
860.95	1984.48
861.12	1839.08
861.29	1961.95
861.46	1820.64
861.63	1959.91
861.79	1908.71
861.96	1820.64
862.13	1861.60
862.30	2064.35
862.47	1877.99
862.63	1925.09
862.80	1964.00
862.97	2013.15
863.14	1998.82
863.30	1978.34
863.47	1826.79
863.64	2148.32
863.81	1953.76
863.97	1978.34
864.14	1990.63
864.31	1910.75
864.48	1961.95
864.65	1972.19
864.81	2041.82
864.98	1951.71
865.15	2095.07
865.32	2031.58
865.48	2047.97
865.65	2084.83
865.82	1927.14
865.98	1994.72
866.15	2056.16
866.32	1959.91
866.49	2000.87
866.65	2023.39
866.82	1943.52
866.99	1945.57
867.16	1966.05
867.32	1873.89
867.49	1849.32
867.66	1841.12
867.83	1923.04
867.99	1912.80
868.16	1961.95
868.33	1861.60
868.49	2039.78
868.66	1892.32
868.83	2039.78
868.99	2015.20
869.16	1986.53
869.33	1998.82
869.50	2015.20
869.66	2013.15
869.83	1968.10
870.00	1853.41
870.16	1966.05
870.33	1978.34
870.50	2025.44
870.66	1910.75
870.83	2097.12
871.00	1949.67
871.17	1943.52
871.33	1996.77
871.50	1951.71
871.67	1945.57
871.83	1966.05
872.00	2002.91
872.17	1908.71
872.33	2160.61
872.50	2072.54
872.67	1974.24
872.83	1972.19
873.00	1998.82
873.17	2023.39
873.33	1955.81
873.50	1943.52
873.67	1900.52
873.83	1908.71
874.00	1996.77
874.16	1992.67
874.33	1937.38
874.50	1894.37
874.66	2052.06
874.83	1884.13
875.00	2115.55
875.16	2107.36
875.33	2064.35
875.50	1826.79
875.66	1933.28
875.83	1957.86
875.99	2009.06
876.16	1925.09
876.33	1875.94
876.49	1920.99
876.66	2017.25
876.83	1927.14
876.99	1822.69
877.16	1994.72
877.32	1947.62
877.49	1890.28
877.66	1959.91
877.82	2072.54
877.99	1951.71
878.15	2045.92
878.32	1972.19
878.49	1968.10
878.65	1951.71
878.82	1916.90
878.98	1929.19
879.15	2050.02
879.32	1988.58
879.48	2029.54
879.65	1980.39
879.81	1976.29
879.98	1957.86
880.15	1896.42
880.31	1998.82
880.48	1888.23
880.64	1972.19
880.81	1974.24
880.97	2084.83
881.14	1984.48
881.31	1896.42
881.47	2000.87
881.64	1906.66
881.80	1853.41
881.97	1978.34
882.13	2000.87
882.30	1898.47
882.47	1867.75
882.63	1906.66
882.80	1918.95
882.96	1882.08
883.13	2097.12
883.29	1873.89
883.46	1937.38
883.62	2103.26
883.79	1904.61
883.95	2039.78
884.12	1955.81
884.29	1906.66
884.45	2002.91
884.62	1982.43
884.78	1904.61
884.95	2039.78
885.11	1970.15
885.28	2031.58
885.44	1884.13
885.61	1972.19
885.77	2037.73
885.94	1988.58
886.10	1964.00
886.27	1947.62
886.43	2080.74
886.60	2084.83
886.76	1845.22
886.93	1888.23
887.09	1890.28
887.26	1882.08
887.42	1994.72
887.59	1994.72
887.75	2062.30
887.92	2103.26
888.08	1941.47
888.25	2074.59
888.41	2019.30
888.58	1955.81
888.74	1900.52
888.91	1955.81
>>>>>End Processed Spectral Data<<<<<
