SpectraSuite Data File
++++++++++++++++++++++++++++++++++++
Date: Wed May 04 22:45:25 CEST 2016
User: root
Dark Spectrum Present: No
Reference Spectrum Present: No
Number of Sampled Component Spectra: 1
Spectrometers: USB4C02835
Integration Time (usec): 100000 (USB4C02835)
Spectra Averaged: 1 (USB4C02835)
Boxcar Smoothing: 0 (USB4C02835)
Correct for Electrical Dark: No (USB4C02835)
Strobe/Lamp Enabled: No (USB4C02835)
Correct for Detector Non-linearity: No (USB4C02835)
Correct for Stray Light: No (USB4C02835)
Number of Pixels in Processed Spectrum: 3648
>>>>>Begin Processed Spectral Data<<<<<
177.47	1619.94
177.69	1619.94
177.91	1619.94
178.13	1576.94
178.36	1621.99
178.58	1886.18
178.80	2023.39
179.02	1869.80
179.24	1863.65
179.46	1884.13
179.68	2033.63
179.90	1916.90
180.13	1959.91
180.35	1931.23
180.57	1933.28
180.79	1992.67
181.01	1980.39
181.23	2023.39
181.45	2050.02
181.67	1953.76
181.90	2027.49
182.12	1841.12
182.34	1920.99
182.56	1974.24
182.78	1966.05
183.00	1925.09
183.22	1970.15
183.44	1908.71
183.66	2111.46
183.89	2058.21
184.11	1982.43
184.33	2007.01
184.55	1984.48
184.77	1976.29
184.99	1996.77
185.21	1914.85
185.43	2150.37
185.65	1916.90
185.87	1912.80
186.10	2144.22
186.32	2107.36
186.54	1949.67
186.76	1976.29
186.98	2111.46
187.20	1923.04
187.42	2002.91
187.64	1886.18
187.86	1978.34
188.08	1947.62
188.30	1832.93
188.52	1875.94
188.75	1990.63
188.97	2074.59
189.19	1888.23
189.41	1918.95
189.63	1951.71
189.85	1986.53
190.07	1832.93
190.29	1886.18
190.51	1996.77
190.73	1812.45
190.95	2039.78
191.17	1929.19
191.39	1918.95
191.61	1914.85
191.84	1984.48
192.06	1869.80
192.28	1769.44
192.50	2179.04
192.72	2027.49
192.94	1951.71
193.16	2041.82
193.38	1966.05
193.60	1890.28
193.82	1937.38
194.04	1949.67
194.26	1949.67
194.48	1916.90
194.70	1853.41
194.92	1953.76
195.14	2009.06
195.36	1931.23
195.58	1925.09
195.80	1949.67
196.02	1884.13
196.24	1857.51
196.46	1894.37
196.69	1898.47
196.91	2142.18
197.13	1931.23
197.35	1886.18
197.57	2076.64
197.79	2011.11
198.01	1964.00
198.23	1916.90
198.45	1925.09
198.67	1853.41
198.89	1855.46
199.11	1937.38
199.33	1859.56
199.55	1785.83
199.77	1906.66
199.99	1992.67
200.21	1974.24
200.43	2029.54
200.65	1851.36
200.87	1775.59
201.09	1978.34
201.31	1920.99
201.53	1966.05
201.75	1943.52
201.97	1957.86
202.19	2002.91
202.41	1955.81
202.63	2066.40
202.85	1959.91
203.07	1970.15
203.29	1970.15
203.51	1822.69
203.73	1869.80
203.95	2144.22
204.17	1966.05
204.39	1920.99
204.61	1972.19
204.83	1920.99
205.05	2056.16
205.27	1966.05
205.49	2166.75
205.71	1884.13
205.93	1857.51
206.15	1949.67
206.37	1908.71
206.59	1966.05
206.81	1865.70
207.03	1894.37
207.25	1906.66
207.47	1986.53
207.69	1961.95
207.91	2041.82
208.13	2019.30
208.34	1888.23
208.56	1902.56
208.78	1976.29
209.00	1939.43
209.22	1865.70
209.44	1945.57
209.66	1904.61
209.88	1992.67
210.10	1968.10
210.32	1951.71
210.54	2056.16
210.76	1982.43
210.98	1976.29
211.20	1814.50
211.42	1998.82
211.64	2078.69
211.86	1990.63
212.08	1923.04
212.30	1972.19
212.52	1980.39
212.74	1994.72
212.96	1951.71
213.17	2023.39
213.39	1925.09
213.61	2033.63
213.83	1970.15
214.05	1914.85
214.27	2025.44
214.49	1890.28
214.71	1865.70
214.93	2037.73
215.15	2029.54
215.37	1992.67
215.59	1847.27
215.81	2004.96
216.03	2070.50
216.24	1964.00
216.46	1986.53
216.68	1972.19
216.90	2011.11
217.12	2013.15
217.34	1984.48
217.56	1982.43
217.78	1982.43
218.00	1998.82
218.22	1988.58
218.44	2041.82
218.66	2056.16
218.87	2088.93
219.09	1914.85
219.31	2017.25
219.53	1996.77
219.75	1898.47
219.97	1931.23
220.19	1937.38
220.41	1984.48
220.63	2027.49
220.85	1974.24
221.06	1968.10
221.28	2115.55
221.50	2015.20
221.72	2004.96
221.94	1890.28
222.16	1902.56
222.38	1996.77
222.60	2023.39
222.82	1877.99
223.03	2002.91
223.25	1888.23
223.47	1927.14
223.69	2111.46
223.91	1974.24
224.13	1986.53
224.35	1943.52
224.57	2015.20
224.78	2004.96
225.00	1873.89
225.22	1908.71
225.44	1933.28
225.66	1996.77
225.88	1920.99
226.10	2000.87
226.32	1931.23
226.53	2095.07
226.75	1914.85
226.97	1923.04
227.19	1916.90
227.41	1943.52
227.63	1947.62
227.85	1841.12
228.06	1959.91
228.28	1949.67
228.50	2056.16
228.72	1869.80
228.94	1871.84
229.16	1812.45
229.37	1843.17
229.59	1923.04
229.81	2080.74
230.03	1875.94
230.25	1867.75
230.47	1869.80
230.69	1845.22
230.90	2115.55
231.12	1927.14
231.34	1964.00
231.56	2035.68
231.78	1771.49
232.00	1916.90
232.21	1974.24
232.43	1898.47
232.65	1859.56
232.87	1966.05
233.09	1914.85
233.30	1896.42
233.52	1966.05
233.74	2052.06
233.96	1867.75
234.18	1947.62
234.40	1951.71
234.61	2129.89
234.83	1873.89
235.05	1867.75
235.27	2099.17
235.49	2062.30
235.70	1966.05
235.92	1964.00
236.14	2047.97
236.36	2244.57
236.58	1902.56
236.79	1904.61
237.01	1925.09
237.23	1994.72
237.45	2064.35
237.67	1888.23
237.88	1982.43
238.10	2015.20
238.32	1908.71
238.54	1916.90
238.76	1959.91
238.97	1849.32
239.19	1845.22
239.41	2007.01
239.63	1990.63
239.85	1839.08
240.06	1908.71
240.28	1951.71
240.50	2064.35
240.72	1910.75
240.93	1898.47
241.15	2029.54
241.37	1955.81
241.59	2070.50
241.81	1964.00
242.02	1900.52
242.24	1966.05
242.46	1955.81
242.68	1877.99
242.89	1914.85
243.11	1994.72
243.33	1920.99
243.55	1910.75
243.76	1865.70
243.98	1945.57
244.20	1980.39
244.42	1957.86
244.64	1937.38
244.85	1853.41
245.07	1912.80
245.29	1976.29
245.51	1877.99
245.72	1961.95
245.94	2058.21
246.16	1896.42
246.38	1964.00
246.59	1863.65
246.81	1859.56
247.03	1896.42
247.24	1816.55
247.46	1931.23
247.68	2043.87
247.90	1957.86
248.11	1869.80
248.33	2015.20
248.55	1916.90
248.77	2002.91
248.98	2054.11
249.20	2093.02
249.42	1994.72
249.64	1976.29
249.85	1890.28
250.07	1863.65
250.29	1992.67
250.50	2050.02
250.72	1824.74
250.94	1972.19
251.16	2099.17
251.37	1949.67
251.59	1966.05
251.81	2052.06
252.02	2035.68
252.24	1933.28
252.46	2099.17
252.68	1916.90
252.89	1925.09
253.11	1863.65
253.33	1994.72
253.54	1998.82
253.76	1912.80
253.98	1947.62
254.20	1998.82
254.41	1816.55
254.63	1918.95
254.85	1810.40
255.06	1918.95
255.28	2015.20
255.50	2017.25
255.71	1822.69
255.93	1818.60
256.15	1898.47
256.36	2011.11
256.58	1929.19
256.80	1888.23
257.02	1869.80
257.23	1939.43
257.45	1990.63
257.67	1966.05
257.88	1978.34
258.10	1947.62
258.32	1933.28
258.53	1990.63
258.75	2031.58
258.97	1914.85
259.18	1949.67
259.40	2000.87
259.62	2115.55
259.83	2086.88
260.05	1943.52
260.27	2234.33
260.48	2039.78
260.70	1808.36
260.92	1949.67
261.13	1941.47
261.35	1996.77
261.57	1925.09
261.78	1826.79
262.00	1871.84
262.22	1974.24
262.43	1972.19
262.65	1873.89
262.86	1916.90
263.08	2127.84
263.30	1898.47
263.51	1904.61
263.73	1929.19
263.95	2113.50
264.16	1898.47
264.38	1898.47
264.60	1957.86
264.81	1935.33
265.03	2035.68
265.25	1982.43
265.46	1863.65
265.68	2015.20
265.89	2015.20
266.11	1763.30
266.33	1992.67
266.54	2045.92
266.76	1939.43
266.98	2033.63
267.19	2054.11
267.41	2009.06
267.62	1949.67
267.84	1828.84
268.06	1994.72
268.27	1933.28
268.49	2068.45
268.70	2029.54
268.92	1931.23
269.14	1888.23
269.35	1853.41
269.57	1949.67
269.79	1949.67
270.00	1902.56
270.22	2043.87
270.43	1886.18
270.65	1853.41
270.87	1937.38
271.08	2037.73
271.30	1957.86
271.51	1896.42
271.73	2007.01
271.95	2054.11
272.16	1929.19
272.38	1929.19
272.59	1832.93
272.81	1984.48
273.02	1902.56
273.24	1910.75
273.46	2045.92
273.67	1908.71
273.89	1949.67
274.10	1968.10
274.32	1964.00
274.54	1939.43
274.75	1996.77
274.97	1951.71
275.18	2074.59
275.40	2105.31
275.61	1970.15
275.83	1941.47
276.05	1865.70
276.26	1939.43
276.48	1951.71
276.69	1857.51
276.91	2002.91
277.12	2031.58
277.34	2090.98
277.55	2033.63
277.77	1902.56
277.99	1916.90
278.20	1875.94
278.42	1816.55
278.63	1855.46
278.85	1982.43
279.06	1841.12
279.28	2023.39
279.49	1984.48
279.71	1961.95
279.93	1871.84
280.14	1935.33
280.36	1912.80
280.57	1966.05
280.79	2043.87
281.00	1929.19
281.22	1824.74
281.43	2052.06
281.65	1779.68
281.86	1945.57
282.08	1996.77
282.29	2101.22
282.51	1834.98
282.73	1873.89
282.94	1920.99
283.16	2035.68
283.37	2107.36
283.59	1961.95
283.80	1941.47
284.02	2009.06
284.23	1941.47
284.45	1947.62
284.66	1826.79
284.88	1896.42
285.09	1980.39
285.31	1996.77
285.52	1966.05
285.74	1875.94
285.95	1974.24
286.17	2058.21
286.38	2009.06
286.60	1859.56
286.81	1873.89
287.03	1882.08
287.24	1966.05
287.46	1945.57
287.67	1949.67
287.89	2054.11
288.10	1957.86
288.32	1916.90
288.53	2119.65
288.75	1914.85
288.96	1978.34
289.18	1927.14
289.39	1990.63
289.61	1994.72
289.82	2111.46
290.04	2041.82
290.25	1851.36
290.47	1910.75
290.68	2023.39
290.90	2029.54
291.11	1841.12
291.33	1990.63
291.54	1898.47
291.76	1931.23
291.97	1933.28
292.18	2007.01
292.40	1918.95
292.61	1910.75
292.83	2142.18
293.04	1959.91
293.26	1953.76
293.47	1906.66
293.69	1875.94
293.90	1904.61
294.12	2009.06
294.33	2054.11
294.55	1910.75
294.76	2090.98
294.97	2093.02
295.19	2084.83
295.40	1873.89
295.62	1976.29
295.83	2060.26
296.05	1910.75
296.26	1984.48
296.48	1953.76
296.69	1968.10
296.90	1964.00
297.12	2058.21
297.33	2007.01
297.55	1943.52
297.76	1984.48
297.98	2099.17
298.19	1947.62
298.41	1966.05
298.62	1875.94
298.83	2000.87
299.05	1986.53
299.26	1908.71
299.48	1859.56
299.69	2002.91
299.90	1933.28
300.12	1865.70
300.33	2009.06
300.55	2013.15
300.76	2043.87
300.98	1837.03
301.19	1902.56
301.40	1953.76
301.62	1937.38
301.83	2039.78
302.05	1951.71
302.26	1914.85
302.47	2060.26
302.69	1916.90
302.90	2058.21
303.12	1832.93
303.33	2062.30
303.54	2138.08
303.76	1945.57
303.97	1937.38
304.19	2084.83
304.40	1890.28
304.61	1984.48
304.83	2099.17
305.04	1966.05
305.26	2039.78
305.47	1898.47
305.68	1947.62
305.90	1900.52
306.11	2004.96
306.33	1959.91
306.54	1929.19
306.75	1908.71
306.97	1865.70
307.18	1882.08
307.39	1925.09
307.61	1980.39
307.82	1890.28
308.04	1994.72
308.25	1912.80
308.46	1986.53
308.68	1937.38
308.89	1959.91
309.10	2013.15
309.32	1970.15
309.53	1941.47
309.74	2045.92
309.96	1871.84
310.17	2054.11
310.39	1875.94
310.60	1992.67
310.81	1923.04
311.03	1898.47
311.24	2052.06
311.45	1943.52
311.67	2062.30
311.88	1976.29
312.09	1937.38
312.31	1875.94
312.52	1984.48
312.73	1898.47
312.95	1853.41
313.16	1865.70
313.37	2058.21
313.59	2002.91
313.80	2050.02
314.01	2082.78
314.23	1935.33
314.44	1968.10
314.65	1898.47
314.87	1855.46
315.08	1994.72
315.29	1849.32
315.51	1910.75
315.72	1865.70
315.93	2119.65
316.15	2031.58
316.36	1935.33
316.57	1947.62
316.79	2031.58
317.00	1914.85
317.21	2017.25
317.43	1910.75
317.64	1957.86
317.85	1894.37
318.07	1941.47
318.28	2039.78
318.49	2117.60
318.70	2258.91
318.92	2115.55
319.13	2144.22
319.34	2187.23
319.56	2099.17
319.77	2093.02
319.98	2035.68
320.20	2004.96
320.41	2060.26
320.62	2093.02
320.83	1841.12
321.05	2160.61
321.26	1945.57
321.47	1972.19
321.69	2007.01
321.90	1890.28
322.11	1882.08
322.32	2007.01
322.54	2035.68
322.75	1957.86
322.96	2172.89
323.18	1845.22
323.39	1822.69
323.60	1892.32
323.81	2050.02
324.03	1929.19
324.24	1935.33
324.45	1918.95
324.66	2004.96
324.88	2058.21
325.09	2090.98
325.30	1925.09
325.52	1966.05
325.73	2000.87
325.94	1880.04
326.15	1802.21
326.37	1966.05
326.58	2019.30
326.79	1986.53
327.00	1798.12
327.22	2035.68
327.43	1933.28
327.64	1920.99
327.85	2078.69
328.07	1984.48
328.28	2062.30
328.49	1886.18
328.70	1904.61
328.92	1972.19
329.13	1935.33
329.34	1984.48
329.55	2119.65
329.76	1968.10
329.98	1945.57
330.19	2064.35
330.40	1959.91
330.61	2013.15
330.83	1955.81
331.04	1892.32
331.25	1970.15
331.46	1896.42
331.68	1814.50
331.89	2109.41
332.10	1884.13
332.31	1834.98
332.52	1996.77
332.74	2039.78
332.95	1867.75
333.16	1900.52
333.37	2021.35
333.58	1925.09
333.80	1996.77
334.01	1877.99
334.22	1888.23
334.43	1970.15
334.64	1882.08
334.86	1859.56
335.07	1996.77
335.28	2101.22
335.49	1814.50
335.70	2002.91
335.92	1990.63
336.13	2117.60
336.34	2050.02
336.55	1970.15
336.76	1931.23
336.98	1884.13
337.19	1935.33
337.40	2050.02
337.61	2105.31
337.82	1914.85
338.04	1955.81
338.25	1822.69
338.46	1886.18
338.67	1920.99
338.88	1880.04
339.09	1861.60
339.31	1974.24
339.52	1859.56
339.73	1841.12
339.94	1988.58
340.15	1943.52
340.36	1859.56
340.58	1933.28
340.79	1951.71
341.00	1943.52
341.21	1898.47
341.42	2056.16
341.63	1931.23
341.85	2064.35
342.06	1914.85
342.27	1882.08
342.48	2007.01
342.69	1875.94
342.90	1966.05
343.12	2011.11
343.33	1882.08
343.54	2017.25
343.75	2047.97
343.96	1935.33
344.17	1945.57
344.38	1951.71
344.60	1933.28
344.81	1884.13
345.02	1912.80
345.23	2062.30
345.44	2062.30
345.65	2070.50
345.86	1994.72
346.07	1955.81
346.29	1957.86
346.50	2037.73
346.71	1935.33
346.92	2023.39
347.13	2125.79
347.34	1964.00
347.55	1906.66
347.76	1988.58
347.98	1902.56
348.19	1943.52
348.40	2025.44
348.61	1966.05
348.82	2117.60
349.03	2013.15
349.24	1855.46
349.45	2179.04
349.66	1812.45
349.88	1957.86
350.09	1953.76
350.30	2058.21
350.51	2017.25
350.72	1947.62
350.93	1978.34
351.14	1966.05
351.35	2052.06
351.56	1923.04
351.77	1894.37
351.99	1929.19
352.20	2127.84
352.41	1974.24
352.62	1847.27
352.83	1923.04
353.04	1955.81
353.25	1839.08
353.46	2019.30
353.67	2060.26
353.88	1873.89
354.09	1990.63
354.30	1955.81
354.52	1945.57
354.73	1941.47
354.94	1900.52
355.15	1959.91
355.36	2050.02
355.57	1943.52
355.78	1953.76
355.99	1902.56
356.20	1976.29
356.41	1990.63
356.62	1988.58
356.83	1990.63
357.04	1994.72
357.25	1853.41
357.46	1935.33
357.68	1875.94
357.89	1898.47
358.10	1966.05
358.31	2015.20
358.52	1898.47
358.73	1867.75
358.94	1859.56
359.15	1929.19
359.36	2068.45
359.57	1880.04
359.78	1875.94
359.99	1982.43
360.20	1847.27
360.41	1945.57
360.62	1982.43
360.83	1908.71
361.04	1947.62
361.25	2007.01
361.46	2095.07
361.67	2068.45
361.88	1900.52
362.09	2052.06
362.30	2052.06
362.51	1908.71
362.72	1959.91
362.93	2041.82
363.14	1984.48
363.35	1988.58
363.56	1843.17
363.78	2029.54
363.99	2007.01
364.20	1845.22
364.41	1982.43
364.62	2107.36
364.83	1970.15
365.04	1824.74
365.25	1966.05
365.46	2103.26
365.67	1947.62
365.88	1959.91
366.09	1900.52
366.30	1925.09
366.51	2013.15
366.72	1834.98
366.93	1968.10
367.14	1964.00
367.35	1978.34
367.56	1929.19
367.77	2007.01
367.98	1953.76
368.18	1992.67
368.39	2000.87
368.60	1888.23
368.81	2035.68
369.02	1982.43
369.23	1931.23
369.44	1851.36
369.65	1974.24
369.86	2013.15
370.07	1929.19
370.28	1861.60
370.49	2029.54
370.70	1966.05
370.91	1802.21
371.12	1857.51
371.33	2031.58
371.54	1941.47
371.75	2090.98
371.96	1839.08
372.17	1947.62
372.38	1980.39
372.59	1970.15
372.80	1906.66
373.01	1908.71
373.22	1902.56
373.43	1920.99
373.64	1851.36
373.85	2070.50
374.06	2025.44
374.26	1982.43
374.47	1984.48
374.68	2011.11
374.89	1931.23
375.10	1918.95
375.31	1959.91
375.52	1939.43
375.73	1994.72
375.94	1814.50
376.15	2093.02
376.36	1912.80
376.57	1886.18
376.78	1902.56
376.99	2054.11
377.20	1982.43
377.40	1839.08
377.61	2127.84
377.82	1920.99
378.03	2074.59
378.24	2052.06
378.45	1896.42
378.66	1984.48
378.87	1822.69
379.08	1884.13
379.29	1988.58
379.50	1998.82
379.71	1961.95
379.91	2066.40
380.12	1972.19
380.33	1978.34
380.54	1914.85
380.75	1959.91
380.96	1890.28
381.17	1988.58
381.38	2029.54
381.59	1990.63
381.80	2023.39
382.00	2144.22
382.21	2039.78
382.42	2119.65
382.63	2211.81
382.84	2017.25
383.05	2056.16
383.26	2107.36
383.47	1978.34
383.68	2074.59
383.88	1996.77
384.09	1972.19
384.30	2066.40
384.51	2035.68
384.72	1869.80
384.93	1865.70
385.14	2037.73
385.35	2056.16
385.55	1812.45
385.76	2039.78
385.97	1978.34
386.18	1839.08
386.39	1869.80
386.60	1953.76
386.81	1925.09
387.02	1951.71
387.22	1839.08
387.43	2027.49
387.64	2021.35
387.85	2209.76
388.06	2240.48
388.27	4026.31
388.48	8572.80
388.68	12107.59
388.89	14513.95
389.10	15554.32
389.31	14229.29
389.52	11337.56
389.73	9662.32
389.93	8822.65
390.14	8021.89
390.35	7196.56
390.56	6453.15
390.77	5330.86
390.98	4122.56
391.18	3272.65
391.39	2588.63
391.60	2197.47
391.81	2144.22
392.02	1927.14
392.23	2105.31
392.43	1953.76
392.64	2076.64
392.85	1961.95
393.06	2002.91
393.27	2000.87
393.47	1959.91
393.68	2013.15
393.89	1900.52
394.10	2045.92
394.31	1880.04
394.52	1918.95
394.72	1880.04
394.93	2080.74
395.14	1906.66
395.35	2033.63
395.56	1951.71
395.76	1966.05
395.97	2021.35
396.18	2150.37
396.39	2119.65
396.60	2408.41
396.80	2117.60
397.01	2185.18
397.22	2217.95
397.43	2150.37
397.64	1890.28
397.84	2107.36
398.05	2193.37
398.26	2009.06
398.47	2088.93
398.67	1986.53
398.88	1988.58
399.09	2013.15
399.30	1931.23
399.51	1994.72
399.71	1837.03
399.92	1888.23
400.13	1957.86
400.34	1957.86
400.54	1914.85
400.75	2072.54
400.96	2017.25
401.17	2084.83
401.37	1935.33
401.58	2013.15
401.79	1933.28
402.00	2144.22
402.21	2318.30
402.41	2375.64
402.62	2322.40
402.83	2451.42
403.04	2398.17
403.24	2445.27
403.45	2176.99
403.66	2224.09
403.87	2166.75
404.07	2267.10
404.28	2236.38
404.49	2168.80
404.70	2105.31
404.90	2045.92
405.11	1974.24
405.32	2027.49
405.52	1914.85
405.73	1908.71
405.94	1964.00
406.15	2009.06
406.35	1970.15
406.56	2056.16
406.77	1929.19
406.98	1980.39
407.18	1959.91
407.39	2047.97
407.60	1906.66
407.80	2019.30
408.01	1873.89
408.22	1992.67
408.43	1941.47
408.63	2064.35
408.84	2033.63
409.05	2090.98
409.25	1912.80
409.46	1869.80
409.67	1925.09
409.88	1902.56
410.08	1982.43
410.29	1941.47
410.50	2000.87
410.70	1984.48
410.91	1875.94
411.12	1939.43
411.32	2031.58
411.53	1955.81
411.74	2101.22
411.95	2097.12
412.15	2078.69
412.36	2162.66
412.57	2029.54
412.77	2209.76
412.98	1920.99
413.19	1894.37
413.39	2029.54
413.60	2011.11
413.81	2039.78
414.01	1949.67
414.22	1949.67
414.43	1998.82
414.63	1970.15
414.84	1957.86
415.05	1931.23
415.25	1841.12
415.46	2056.16
415.67	1947.62
415.87	1992.67
416.08	1974.24
416.29	1912.80
416.49	2037.73
416.70	1929.19
416.91	1906.66
417.11	1933.28
417.32	2013.15
417.53	1984.48
417.73	2019.30
417.94	1892.32
418.15	1992.67
418.35	1914.85
418.56	2023.39
418.77	2150.37
418.97	2013.15
419.18	1976.29
419.38	1759.21
419.59	1957.86
419.80	2039.78
420.00	1910.75
420.21	2054.11
420.42	2090.98
420.62	1970.15
420.83	1959.91
421.04	1961.95
421.24	1976.29
421.45	2086.88
421.65	1978.34
421.86	1964.00
422.07	1988.58
422.27	1957.86
422.48	1929.19
422.69	1957.86
422.89	1896.42
423.10	1871.84
423.30	1916.90
423.51	1966.05
423.72	1949.67
423.92	2015.20
424.13	1943.52
424.33	1947.62
424.54	2007.01
424.75	1968.10
424.95	2117.60
425.16	1976.29
425.36	1900.52
425.57	2037.73
425.78	1972.19
425.98	2047.97
426.19	1943.52
426.39	1837.03
426.60	1968.10
426.81	2107.36
427.01	1955.81
427.22	1927.14
427.42	1841.12
427.63	1929.19
427.83	2076.64
428.04	2121.70
428.25	2064.35
428.45	2041.82
428.66	2021.35
428.86	1929.19
429.07	1927.14
429.28	1941.47
429.48	1955.81
429.69	1882.08
429.89	1931.23
430.10	1834.98
430.30	1998.82
430.51	2052.06
430.71	1896.42
430.92	1996.77
431.13	1953.76
431.33	1918.95
431.54	1951.71
431.74	2064.35
431.95	2084.83
432.15	1927.14
432.36	2009.06
432.56	2023.39
432.77	2074.59
432.98	2189.28
433.18	2000.87
433.39	1996.77
433.59	1964.00
433.80	2140.13
434.00	2123.74
434.21	1974.24
434.41	1931.23
434.62	2123.74
434.82	1943.52
435.03	1925.09
435.23	2004.96
435.44	1787.88
435.64	1933.28
435.85	1904.61
436.06	1978.34
436.26	2017.25
436.47	1925.09
436.67	1925.09
436.88	1933.28
437.08	2035.68
437.29	2113.50
437.49	1957.86
437.70	2060.26
437.90	2011.11
438.11	2123.74
438.31	2019.30
438.52	2097.12
438.72	2203.61
438.93	2258.91
439.13	2103.26
439.34	2056.16
439.54	2025.44
439.75	2088.93
439.95	2080.74
440.16	2007.01
440.36	2045.92
440.57	2021.35
440.77	1882.08
440.98	1961.95
441.18	1984.48
441.39	1908.71
441.59	1902.56
441.80	2074.59
442.00	2035.68
442.21	2043.87
442.41	1826.79
442.62	2074.59
442.82	1935.33
443.02	2004.96
443.23	1964.00
443.43	1880.04
443.64	2004.96
443.84	1970.15
444.05	2138.08
444.25	2027.49
444.46	1910.75
444.66	1986.53
444.87	2111.46
445.07	1851.36
445.28	2080.74
445.48	2111.46
445.69	2015.20
445.89	2101.22
446.09	1976.29
446.30	2222.05
446.50	2516.95
446.71	4276.16
446.91	5312.43
447.12	6145.95
447.32	6459.29
447.53	6047.65
447.73	4837.30
447.93	4243.39
448.14	3973.06
448.34	3796.93
448.55	3426.25
448.75	3407.82
448.96	3203.02
449.16	2908.12
449.36	2633.69
449.57	2392.03
449.77	2142.18
449.98	2013.15
450.18	2080.74
450.39	2119.65
450.59	2047.97
450.79	2041.82
451.00	2013.15
451.20	1964.00
451.41	1949.67
451.61	2052.06
451.81	1959.91
452.02	1939.43
452.22	1998.82
452.43	1949.67
452.63	1920.99
452.84	1933.28
453.04	1937.38
453.24	1998.82
453.45	1929.19
453.65	1916.90
453.86	2029.54
454.06	2029.54
454.26	1947.62
454.47	1904.61
454.67	2078.69
454.87	1998.82
455.08	1951.71
455.28	2197.47
455.49	1982.43
455.69	1959.91
455.89	2164.70
456.10	2199.52
456.30	1943.52
456.51	2021.35
456.71	1986.53
456.91	2017.25
457.12	1959.91
457.32	2002.91
457.52	1841.12
457.73	1964.00
457.93	2021.35
458.14	1996.77
458.34	1861.60
458.54	2041.82
458.75	1972.19
458.95	2041.82
459.15	2056.16
459.36	2033.63
459.56	2027.49
459.76	2107.36
459.97	2015.20
460.17	1980.39
460.37	2013.15
460.58	1929.19
460.78	2031.58
460.99	1908.71
461.19	2033.63
461.39	1906.66
461.60	1955.81
461.80	2076.64
462.00	1882.08
462.21	1955.81
462.41	1861.60
462.61	1931.23
462.82	1789.92
463.02	2043.87
463.22	1920.99
463.43	1998.82
463.63	1955.81
463.83	2047.97
464.04	2062.30
464.24	1964.00
464.44	1910.75
464.64	1990.63
464.85	2035.68
465.05	2002.91
465.25	2021.35
465.46	1916.90
465.66	2015.20
465.86	2004.96
466.07	1988.58
466.27	1972.19
466.47	1896.42
466.68	1828.84
466.88	2172.89
467.08	2080.74
467.29	2076.64
467.49	2039.78
467.69	1943.52
467.89	2072.54
468.10	1951.71
468.30	2062.30
468.50	2066.40
468.71	2027.49
468.91	1873.89
469.11	1998.82
469.31	2033.63
469.52	1974.24
469.72	2140.13
469.92	2152.42
470.13	1943.52
470.33	1976.29
470.53	2109.41
470.73	2412.51
470.94	2861.01
471.14	3080.14
471.34	3428.30
471.54	3276.75
471.75	2969.55
471.95	2676.70
472.15	2488.28
472.36	2602.97
472.56	2521.05
472.76	2394.08
472.96	2373.60
473.17	2310.11
473.37	2291.68
473.57	2133.98
473.77	2050.02
473.98	2033.63
474.18	1892.32
474.38	2275.29
474.58	2023.39
474.79	1937.38
474.99	1978.34
475.19	2072.54
475.39	1882.08
475.60	1984.48
475.80	1966.05
476.00	1992.67
476.20	1914.85
476.41	1955.81
476.61	2064.35
476.81	2015.20
477.01	1884.13
477.21	2066.40
477.42	2080.74
477.62	1882.08
477.82	2066.40
478.02	1953.76
478.23	1937.38
478.43	1875.94
478.63	1918.95
478.83	2021.35
479.03	1968.10
479.24	2037.73
479.44	2127.84
479.64	1908.71
479.84	1769.44
480.04	1882.08
480.25	1992.67
480.45	1923.04
480.65	1978.34
480.85	2058.21
481.06	1949.67
481.26	2045.92
481.46	2027.49
481.66	1998.82
481.86	1843.17
482.06	2007.01
482.27	1931.23
482.47	1996.77
482.67	2007.01
482.87	1908.71
483.07	2047.97
483.28	1953.76
483.48	1912.80
483.68	1888.23
483.88	1877.99
484.08	1882.08
484.29	1974.24
484.49	1955.81
484.69	1880.04
484.89	2093.02
485.09	2025.44
485.29	2004.96
485.50	1951.71
485.70	2000.87
485.90	2004.96
486.10	1982.43
486.30	1980.39
486.50	2011.11
486.71	2041.82
486.91	1980.39
487.11	2078.69
487.31	1888.23
487.51	1990.63
487.71	1884.13
487.91	1916.90
488.12	1902.56
488.32	1720.29
488.52	1877.99
488.72	1867.75
488.92	2009.06
489.12	2107.36
489.32	2076.64
489.53	1980.39
489.73	1925.09
489.93	2062.30
490.13	1882.08
490.33	1800.16
490.53	1918.95
490.73	2056.16
490.94	1867.75
491.14	2004.96
491.34	1978.34
491.54	2224.09
491.74	2881.49
491.94	3516.36
492.14	3792.84
492.34	3815.37
492.54	3581.90
492.75	2953.17
492.95	2922.45
493.15	2721.75
493.35	2652.12
493.55	2504.67
493.75	2459.61
493.95	2508.76
494.15	2303.96
494.35	2213.85
494.56	2076.64
494.76	2023.39
494.96	2127.84
495.16	2056.16
495.36	1996.77
495.56	2054.11
495.76	2011.11
495.96	1937.38
496.16	2007.01
496.36	2131.94
496.56	1972.19
496.77	2054.11
496.97	2043.87
497.17	2023.39
497.37	1853.41
497.57	2021.35
497.77	1986.53
497.97	1935.33
498.17	2015.20
498.37	1914.85
498.57	2080.74
498.77	1935.33
498.97	2004.96
499.17	2146.27
499.38	2033.63
499.58	2025.44
499.78	2009.06
499.98	2023.39
500.18	1957.86
500.38	1902.56
500.58	2187.23
500.78	2594.78
500.98	4800.44
501.18	7047.06
501.38	8818.55
501.58	9701.23
501.78	9551.73
501.98	7575.44
502.18	6258.59
502.38	5351.34
502.58	5025.72
502.78	4575.16
502.98	4384.70
503.18	4069.31
503.38	3712.97
503.59	3248.08
503.79	3051.47
503.99	2744.28
504.19	2568.15
504.39	2613.21
504.59	2686.94
504.79	2637.78
504.99	2682.84
505.19	2357.21
505.39	2252.77
505.59	2367.45
505.79	2191.33
505.99	2310.11
506.19	2103.26
506.39	2310.11
506.59	2033.63
506.79	2004.96
506.99	2084.83
507.19	2084.83
507.39	2074.59
507.59	1933.28
507.79	1877.99
507.99	1992.67
508.19	2045.92
508.39	1986.53
508.59	2031.58
508.79	2156.51
508.99	2148.32
509.19	1951.71
509.39	2027.49
509.59	1986.53
509.79	1957.86
509.99	1941.47
510.19	1980.39
510.39	2045.92
510.59	1955.81
510.79	2017.25
510.99	1923.04
511.19	1898.47
511.39	2195.42
511.59	2127.84
511.79	2101.22
511.99	1873.89
512.19	2129.89
512.38	1941.47
512.58	1920.99
512.78	1943.52
512.98	2047.97
513.18	2076.64
513.38	1957.86
513.58	2050.02
513.78	1949.67
513.98	1863.65
514.18	1964.00
514.38	1914.85
514.58	2025.44
514.78	1902.56
514.98	1970.15
515.18	2007.01
515.38	1982.43
515.58	2101.22
515.78	1912.80
515.98	2060.26
516.18	2058.21
516.38	1951.71
516.57	1910.75
516.77	1943.52
516.97	2017.25
517.17	1886.18
517.37	1808.36
517.57	2027.49
517.77	1927.14
517.97	1845.22
518.17	2017.25
518.37	1941.47
518.57	2019.30
518.77	2050.02
518.97	2019.30
519.16	1980.39
519.36	2029.54
519.56	1912.80
519.76	1964.00
519.96	2035.68
520.16	2021.35
520.36	1884.13
520.56	2095.07
520.76	1875.94
520.96	1939.43
521.16	2062.30
521.35	2117.60
521.55	2074.59
521.75	1867.75
521.95	1957.86
522.15	1900.52
522.35	1925.09
522.55	1955.81
522.75	1982.43
522.95	2013.15
523.14	1947.62
523.34	1931.23
523.54	1968.10
523.74	1992.67
523.94	1976.29
524.14	1851.36
524.34	2002.91
524.54	2054.11
524.73	1959.91
524.93	2054.11
525.13	1927.14
525.33	1959.91
525.53	2187.23
525.73	2043.87
525.93	1996.77
526.13	1914.85
526.32	1955.81
526.52	2056.16
526.72	2041.82
526.92	1988.58
527.12	1968.10
527.32	1873.89
527.52	2013.15
527.71	2105.31
527.91	1957.86
528.11	2021.35
528.31	1943.52
528.51	1894.37
528.71	1943.52
528.90	1933.28
529.10	2111.46
529.30	2047.97
529.50	1810.40
529.70	1931.23
529.90	1877.99
530.09	1937.38
530.29	1869.80
530.49	1906.66
530.69	2193.37
530.89	1984.48
531.09	2019.30
531.28	1986.53
531.48	2052.06
531.68	1945.57
531.88	2052.06
532.08	2088.93
532.28	1943.52
532.47	2136.03
532.67	2025.44
532.87	2029.54
533.07	1947.62
533.27	2115.55
533.46	2107.36
533.66	2037.73
533.86	2011.11
534.06	2019.30
534.26	2043.87
534.45	1906.66
534.65	2066.40
534.85	2068.45
535.05	1896.42
535.25	2029.54
535.44	1873.89
535.64	2041.82
535.84	1968.10
536.04	1935.33
536.24	1927.14
536.43	1888.23
536.63	2035.68
536.83	1996.77
537.03	1984.48
537.22	1933.28
537.42	1914.85
537.62	2037.73
537.82	1851.36
538.02	2113.50
538.21	1990.63
538.41	2310.11
538.61	1992.67
538.81	1931.23
539.00	2056.16
539.20	1910.75
539.40	1972.19
539.60	2021.35
539.79	2035.68
539.99	1914.85
540.19	1849.32
540.39	1966.05
540.58	2019.30
540.78	2033.63
540.98	2019.30
541.18	2103.26
541.37	2058.21
541.57	1988.58
541.77	2086.88
541.97	1925.09
542.16	1882.08
542.36	1939.43
542.56	1966.05
542.76	2072.54
542.95	2023.39
543.15	2000.87
543.35	2021.35
543.54	1880.04
543.74	1978.34
543.94	2113.50
544.14	1941.47
544.33	2035.68
544.53	2031.58
544.73	1933.28
544.93	1955.81
545.12	1990.63
545.32	1949.67
545.52	1988.58
545.71	1935.33
545.91	1978.34
546.11	1970.15
546.30	1898.47
546.50	1896.42
546.70	2004.96
546.90	2066.40
547.09	1826.79
547.29	1923.04
547.49	2074.59
547.68	1968.10
547.88	1974.24
548.08	2004.96
548.27	2445.27
548.47	1937.38
548.67	1935.33
548.87	2025.44
549.06	1976.29
549.26	2037.73
549.46	1998.82
549.65	2060.26
549.85	1970.15
550.05	2041.82
550.24	1910.75
550.44	1902.56
550.64	2009.06
550.83	1976.29
551.03	2074.59
551.23	2031.58
551.42	2062.30
551.62	1984.48
551.82	1996.77
552.01	1957.86
552.21	2084.83
552.41	1976.29
552.60	2105.31
552.80	2045.92
553.00	2013.15
553.19	2086.88
553.39	2111.46
553.59	1892.32
553.78	1992.67
553.98	1970.15
554.17	1912.80
554.37	1929.19
554.57	2047.97
554.76	1955.81
554.96	1920.99
555.16	1961.95
555.35	1984.48
555.55	2000.87
555.75	1976.29
555.94	2066.40
556.14	1869.80
556.33	1939.43
556.53	1980.39
556.73	1884.13
556.92	2086.88
557.12	2127.84
557.32	2158.56
557.51	2056.16
557.71	1974.24
557.90	2117.60
558.10	2080.74
558.30	1988.58
558.49	2000.87
558.69	1947.62
558.88	1988.58
559.08	2033.63
559.28	1996.77
559.47	1941.47
559.67	2045.92
559.86	2056.16
560.06	1892.32
560.26	2002.91
560.45	2023.39
560.65	1914.85
560.84	2109.41
561.04	1941.47
561.24	2031.58
561.43	1916.90
561.63	2058.21
561.82	2025.44
562.02	1941.47
562.22	1925.09
562.41	1886.18
562.61	1898.47
562.80	1865.70
563.00	2201.57
563.19	2007.01
563.39	2050.02
563.59	1984.48
563.78	1884.13
563.98	1892.32
564.17	1970.15
564.37	1865.70
564.56	1986.53
564.76	1906.66
564.96	2078.69
565.15	2015.20
565.35	2121.70
565.54	1929.19
565.74	2090.98
565.93	2045.92
566.13	1914.85
566.32	2086.88
566.52	2082.78
566.71	1949.67
566.91	2086.88
567.11	2045.92
567.30	1898.47
567.50	2047.97
567.69	1984.48
567.89	1904.61
568.08	1982.43
568.28	2031.58
568.47	1910.75
568.67	2007.01
568.86	2019.30
569.06	1966.05
569.25	2004.96
569.45	1978.34
569.64	1939.43
569.84	2013.15
570.04	1982.43
570.23	1916.90
570.43	1957.86
570.62	2004.96
570.82	2162.66
571.01	1900.52
571.21	1980.39
571.40	1996.77
571.60	2060.26
571.79	2035.68
571.99	2007.01
572.18	1961.95
572.38	1968.10
572.57	1910.75
572.77	2084.83
572.96	2193.37
573.16	2056.16
573.35	1941.47
573.55	2090.98
573.74	2054.11
573.94	1978.34
574.13	1937.38
574.33	2007.01
574.52	2131.94
574.71	2011.11
574.91	1964.00
575.10	1988.58
575.30	1939.43
575.49	2009.06
575.69	1968.10
575.88	2037.73
576.08	2056.16
576.27	2201.57
576.47	2045.92
576.66	2166.75
576.86	2035.68
577.05	1998.82
577.25	1984.48
577.44	2181.09
577.64	1998.82
577.83	2080.74
578.02	1978.34
578.22	2109.41
578.41	2129.89
578.61	1935.33
578.80	1920.99
579.00	1998.82
579.19	2000.87
579.39	2058.21
579.58	2076.64
579.77	1982.43
579.97	2129.89
580.16	2136.03
580.36	2101.22
580.55	2158.56
580.75	2080.74
580.94	2037.73
581.13	2162.66
581.33	2152.42
581.52	2027.49
581.72	2123.74
581.91	2260.96
582.11	2080.74
582.30	2117.60
582.49	2095.07
582.69	2140.13
582.88	2004.96
583.08	2027.49
583.27	2133.98
583.47	2072.54
583.66	1984.48
583.85	1910.75
584.05	1998.82
584.24	2050.02
584.44	2072.54
584.63	2097.12
584.82	2072.54
585.02	2197.47
585.21	2199.52
585.41	2201.57
585.60	2185.18
585.79	2252.77
585.99	2199.52
586.18	2115.55
586.37	2580.44
586.57	4108.23
586.76	11960.14
586.96	30449.20
587.15	44739.93
587.34	54645.95
587.54	59909.23
587.73	56118.44
587.93	40035.74
588.12	29941.30
588.31	23830.16
588.51	20823.75
588.70	18958.05
588.89	17215.23
589.09	15376.15
589.28	13131.58
589.47	10938.20
589.67	8578.94
589.86	6588.32
590.06	4847.54
590.25	3868.61
590.44	3166.16
590.64	2660.31
590.83	2430.94
591.02	2324.44
591.22	2209.76
591.41	2136.03
591.60	2015.20
591.80	2254.81
591.99	1976.29
592.18	2015.20
592.38	2090.98
592.57	1964.00
592.76	2031.58
592.96	2035.68
593.15	2099.17
593.34	2070.50
593.54	1959.91
593.73	2123.74
593.92	2140.13
594.12	2056.16
594.31	2066.40
594.50	2166.75
594.70	2144.22
594.89	2209.76
595.08	1927.14
595.28	2080.74
595.47	2224.09
595.66	2093.02
595.86	1923.04
596.05	2031.58
596.24	1982.43
596.43	2133.98
596.63	2136.03
596.82	2027.49
597.01	2035.68
597.21	2117.60
597.40	2050.02
597.59	1998.82
597.79	1998.82
597.98	2068.45
598.17	2062.30
598.36	2025.44
598.56	2021.35
598.75	1982.43
598.94	1978.34
599.14	2017.25
599.33	2056.16
599.52	2027.49
599.71	2043.87
599.91	2037.73
600.10	2084.83
600.29	2068.45
600.48	2023.39
600.68	2058.21
600.87	2088.93
601.06	1990.63
601.26	1992.67
601.45	2007.01
601.64	1972.19
601.83	2033.63
602.03	2002.91
602.22	1877.99
602.41	2047.97
602.60	2170.85
602.80	2084.83
602.99	2019.30
603.18	1955.81
603.37	1984.48
603.57	2037.73
603.76	1992.67
603.95	2052.06
604.14	1910.75
604.34	1937.38
604.53	1953.76
604.72	2056.16
604.91	2052.06
605.10	2021.35
605.30	1910.75
605.49	2193.37
605.68	1990.63
605.87	2058.21
606.07	1877.99
606.26	1906.66
606.45	2080.74
606.64	2000.87
606.84	1972.19
607.03	2015.20
607.22	2133.98
607.41	2033.63
607.60	2000.87
607.80	2084.83
607.99	1988.58
608.18	1992.67
608.37	1951.71
608.56	1974.24
608.76	2064.35
608.95	2183.13
609.14	2101.22
609.33	2129.89
609.52	2230.24
609.72	2052.06
609.91	2129.89
610.10	2058.21
610.29	2150.37
610.48	2047.97
610.68	2093.02
610.87	1988.58
611.06	2058.21
611.25	1929.19
611.44	2068.45
611.63	1964.00
611.83	2064.35
612.02	1828.84
612.21	2066.40
612.40	1859.56
612.59	1882.08
612.79	1933.28
612.98	2066.40
613.17	2125.79
613.36	1984.48
613.55	2138.08
613.74	2084.83
613.93	2080.74
614.13	2258.91
614.32	2285.53
614.51	2213.85
614.70	2084.83
614.89	2115.55
615.08	2047.97
615.28	2516.95
615.47	1966.05
615.66	2123.74
615.85	2058.21
616.04	2179.04
616.23	2066.40
616.42	1996.77
616.62	2109.41
616.81	2115.55
617.00	2019.30
617.19	2047.97
617.38	1945.57
617.57	2035.68
617.76	2033.63
617.95	2054.11
618.15	1994.72
618.34	2133.98
618.53	1855.46
618.72	2150.37
618.91	2093.02
619.10	2074.59
619.29	1988.58
619.48	1961.95
619.68	1914.85
619.87	1986.53
620.06	1927.14
620.25	2031.58
620.44	1968.10
620.63	1884.13
620.82	2082.78
621.01	2004.96
621.20	1978.34
621.39	1976.29
621.59	2072.54
621.78	2037.73
621.97	1935.33
622.16	2074.59
622.35	1970.15
622.54	2023.39
622.73	2099.17
622.92	1873.89
623.11	2056.16
623.30	1964.00
623.49	2027.49
623.68	1925.09
623.88	2025.44
624.07	1961.95
624.26	2021.35
624.45	2058.21
624.64	2015.20
624.83	1957.86
625.02	1892.32
625.21	1964.00
625.40	1882.08
625.59	2088.93
625.78	2011.11
625.97	2109.41
626.16	2162.66
626.35	2103.26
626.54	2086.88
626.74	2191.33
626.93	2099.17
627.12	2054.11
627.31	2047.97
627.50	2027.49
627.69	2023.39
627.88	1996.77
628.07	2011.11
628.26	1888.23
628.45	1955.81
628.64	1884.13
628.83	2058.21
629.02	1808.36
629.21	2162.66
629.40	1974.24
629.59	1931.23
629.78	1931.23
629.97	1970.15
630.16	1976.29
630.35	2015.20
630.54	1959.91
630.73	1966.05
630.92	2060.26
631.11	1953.76
631.30	2019.30
631.49	2019.30
631.68	1937.38
631.87	2013.15
632.06	1837.03
632.25	2181.09
632.44	1945.57
632.63	2080.74
632.82	2013.15
633.01	2090.98
633.20	2093.02
633.39	2074.59
633.58	2027.49
633.77	2160.61
633.96	2082.78
634.15	2072.54
634.34	1992.67
634.53	2060.26
634.72	1980.39
634.91	1892.32
635.10	2093.02
635.29	2021.35
635.48	2019.30
635.67	1873.89
635.86	1873.89
636.05	2123.74
636.24	2029.54
636.43	1957.86
636.62	2023.39
636.81	1847.27
637.00	1966.05
637.19	1966.05
637.38	2002.91
637.57	1877.99
637.76	2041.82
637.95	2176.99
638.14	2093.02
638.33	2117.60
638.52	2123.74
638.71	2000.87
638.89	1966.05
639.08	2150.37
639.27	2093.02
639.46	2258.91
639.65	2633.69
639.84	2598.87
640.03	2777.05
640.22	2711.51
640.41	2758.61
640.60	2289.63
640.79	2353.12
640.98	2303.96
641.17	2263.01
641.36	2220.00
641.55	2224.09
641.74	2031.58
641.92	2021.35
642.11	1943.52
642.30	1941.47
642.49	1982.43
642.68	2009.06
642.87	2023.39
643.06	1994.72
643.25	1914.85
643.44	1886.18
643.63	1961.95
643.82	2070.50
644.00	1933.28
644.19	1916.90
644.38	1843.17
644.57	2015.20
644.76	1968.10
644.95	1976.29
645.14	1957.86
645.33	1951.71
645.52	1945.57
645.71	1923.04
645.89	1912.80
646.08	1964.00
646.27	1990.63
646.46	2119.65
646.65	1867.75
646.84	1970.15
647.03	1855.46
647.22	2031.58
647.40	2025.44
647.59	2007.01
647.78	1843.17
647.97	1914.85
648.16	1902.56
648.35	2027.49
648.54	2078.69
648.73	1980.39
648.91	1996.77
649.10	1988.58
649.29	1957.86
649.48	1957.86
649.67	2058.21
649.86	2013.15
650.05	2060.26
650.23	2211.81
650.42	2033.63
650.61	2324.44
650.80	2158.56
650.99	2297.82
651.18	2140.13
651.36	2144.22
651.55	2007.01
651.74	2138.08
651.93	2047.97
652.12	2131.94
652.31	1992.67
652.49	1996.77
652.68	1959.91
652.87	2154.46
653.06	2066.40
653.25	2189.28
653.44	2025.44
653.62	2068.45
653.81	1927.14
654.00	1935.33
654.19	2078.69
654.38	2144.22
654.56	1955.81
654.75	1959.91
654.94	2052.06
655.13	2017.25
655.32	1929.19
655.51	2054.11
655.69	1902.56
655.88	2060.26
656.07	1976.29
656.26	2023.39
656.45	1869.80
656.63	1929.19
656.82	1994.72
657.01	2045.92
657.20	1904.61
657.38	2111.46
657.57	1994.72
657.76	1810.40
657.95	2035.68
658.14	1898.47
658.32	1974.24
658.51	1906.66
658.70	1939.43
658.89	2021.35
659.08	1959.91
659.26	2121.70
659.45	1970.15
659.64	2111.46
659.83	1966.05
660.01	2326.49
660.20	2066.40
660.39	2101.22
660.58	1888.23
660.76	2043.87
660.95	1884.13
661.14	2029.54
661.33	1888.23
661.51	1908.71
661.70	1980.39
661.89	2043.87
662.08	1959.91
662.26	1906.66
662.45	1845.22
662.64	2125.79
662.83	2009.06
663.01	1923.04
663.20	1920.99
663.39	2068.45
663.58	1959.91
663.76	2019.30
663.95	1986.53
664.14	1884.13
664.32	1968.10
664.51	1892.32
664.70	1916.90
664.89	2004.96
665.07	1859.56
665.26	2082.78
665.45	1953.76
665.64	1996.77
665.82	1984.48
666.01	2052.06
666.20	1970.15
666.38	2113.50
666.57	2127.84
666.76	2824.15
666.95	6705.05
667.13	15128.35
667.32	21274.30
667.51	25093.76
667.69	27022.95
667.88	26025.59
668.07	18530.02
668.25	14419.75
668.44	12025.67
668.63	10186.60
668.81	8796.03
669.00	7817.10
669.19	7051.16
669.38	6217.63
669.56	5175.22
669.75	4396.99
669.94	3672.01
670.12	3033.04
670.31	2617.30
670.50	2469.85
670.68	2344.92
670.87	2217.95
671.06	2062.30
671.24	2113.50
671.43	2176.99
671.62	2133.98
671.80	2058.21
671.99	2123.74
672.18	1988.58
672.36	2088.93
672.55	2023.39
672.74	2019.30
672.92	1916.90
673.11	2101.22
673.29	1916.90
673.48	2025.44
673.67	1953.76
673.85	2037.73
674.04	1935.33
674.23	1955.81
674.41	2093.02
674.60	1871.84
674.79	1796.07
674.97	1945.57
675.16	1945.57
675.34	2029.54
675.53	1937.38
675.72	2058.21
675.90	2068.45
676.09	1953.76
676.28	1933.28
676.46	1857.51
676.65	1953.76
676.83	1904.61
677.02	1941.47
677.21	1970.15
677.39	1992.67
677.58	1943.52
677.77	1941.47
677.95	1890.28
678.14	2002.91
678.32	1884.13
678.51	1939.43
678.70	2095.07
678.88	1890.28
679.07	1994.72
679.25	1910.75
679.44	1939.43
679.63	1908.71
679.81	1994.72
680.00	2056.16
680.18	1908.71
680.37	1998.82
680.55	1984.48
680.74	1894.37
680.93	1875.94
681.11	2004.96
681.30	1959.91
681.48	1990.63
681.67	2041.82
681.85	1970.15
682.04	1902.56
682.23	2009.06
682.41	1937.38
682.60	1935.33
682.78	1929.19
682.97	1892.32
683.15	1939.43
683.34	1972.19
683.53	2058.21
683.71	1904.61
683.90	2047.97
684.08	2127.84
684.27	1984.48
684.45	1986.53
684.64	2029.54
684.82	1853.41
685.01	2035.68
685.19	1882.08
685.38	2080.74
685.57	1931.23
685.75	1873.89
685.94	1906.66
686.12	1841.12
686.31	1906.66
686.49	2086.88
686.68	1875.94
686.86	2002.91
687.05	1925.09
687.23	2074.59
687.42	1925.09
687.60	1834.98
687.79	1957.86
687.97	2045.92
688.16	2023.39
688.34	2047.97
688.53	1826.79
688.71	1976.29
688.90	2045.92
689.08	1980.39
689.27	1927.14
689.45	1998.82
689.64	2033.63
689.82	2029.54
690.01	2050.02
690.19	1974.24
690.38	1970.15
690.56	2078.69
690.75	1896.42
690.93	1955.81
691.12	1982.43
691.30	1978.34
691.49	1978.34
691.67	1970.15
691.86	2090.98
692.04	1957.86
692.23	1980.39
692.41	2013.15
692.60	2176.99
692.78	2052.06
692.97	2086.88
693.15	2095.07
693.34	2164.70
693.52	2060.26
693.71	1959.91
693.89	1925.09
694.08	1818.60
694.26	2107.36
694.44	2064.35
694.63	2011.11
694.81	1873.89
695.00	1972.19
695.18	2093.02
695.37	2093.02
695.55	2002.91
695.74	1859.56
695.92	1873.89
696.10	2101.22
696.29	1875.94
696.47	1947.62
696.66	1886.18
696.84	1904.61
697.03	1923.04
697.21	2148.32
697.40	2731.99
697.58	2097.12
697.76	1886.18
697.95	1910.75
698.13	1834.98
698.32	1929.19
698.50	1937.38
698.68	2019.30
698.87	1957.86
699.05	2117.60
699.24	1923.04
699.42	1927.14
699.61	1869.80
699.79	1941.47
699.97	2002.91
700.16	1918.95
700.34	1918.95
700.53	2041.82
700.71	2035.68
700.89	2054.11
701.08	1925.09
701.26	1916.90
701.45	2449.37
701.63	1972.19
701.81	1939.43
702.00	1990.63
702.18	1976.29
702.37	1994.72
702.55	2138.08
702.73	2101.22
702.92	2152.42
703.10	2310.11
703.28	2344.92
703.47	2035.68
703.65	2224.09
703.84	2076.64
704.02	2004.96
704.20	2162.66
704.39	2056.16
704.57	1988.58
704.75	2172.89
704.94	2144.22
705.12	2023.39
705.30	2279.39
705.49	3692.49
705.67	9414.51
705.86	18806.50
706.04	23893.65
706.22	27479.64
706.41	29384.26
706.59	26467.95
706.77	18632.42
706.96	14843.68
707.14	12783.42
707.32	11263.83
707.51	9942.89
707.69	8316.80
707.87	6813.59
708.06	5337.01
708.24	4212.67
708.42	3282.89
708.61	2815.96
708.79	2377.69
708.97	2240.48
709.16	2164.70
709.34	2140.13
709.52	1994.72
709.71	2035.68
709.89	2078.69
710.07	1933.28
710.26	1929.19
710.44	1982.43
710.62	1964.00
710.80	1990.63
710.99	2097.12
711.17	2068.45
711.35	1904.61
711.54	1933.28
711.72	2131.94
711.90	2103.26
712.09	1884.13
712.27	1933.28
712.45	1949.67
712.63	1937.38
712.82	1949.67
713.00	1990.63
713.18	1980.39
713.37	2068.45
713.55	2019.30
713.73	1943.52
713.91	2011.11
714.10	1937.38
714.28	1961.95
714.46	1984.48
714.65	1923.04
714.83	1908.71
715.01	1935.33
715.19	1964.00
715.38	1908.71
715.56	1998.82
715.74	1832.93
715.92	1912.80
716.11	2019.30
716.29	1851.36
716.47	1970.15
716.65	1935.33
716.84	1923.04
717.02	2050.02
717.20	1863.65
717.38	1820.64
717.57	1982.43
717.75	1982.43
717.93	1898.47
718.11	2078.69
718.30	1929.19
718.48	1957.86
718.66	2099.17
718.84	2019.30
719.03	1978.34
719.21	1802.21
719.39	2070.50
719.57	1992.67
719.75	2080.74
719.94	1912.80
720.12	1847.27
720.30	2009.06
720.48	2058.21
720.67	1904.61
720.85	1865.70
721.03	1900.52
721.21	1849.32
721.39	1984.48
721.58	2015.20
721.76	1927.14
721.94	1935.33
722.12	1986.53
722.30	2068.45
722.49	1972.19
722.67	2011.11
722.85	2017.25
723.03	1816.55
723.21	1896.42
723.40	1992.67
723.58	2015.20
723.76	2099.17
723.94	2086.88
724.12	2025.44
724.30	2162.66
724.49	2172.89
724.67	1992.67
724.85	2133.98
725.03	1994.72
725.21	2058.21
725.40	2142.18
725.58	1861.60
725.76	2078.69
725.94	2009.06
726.12	1925.09
726.30	1935.33
726.49	2025.44
726.67	1939.43
726.85	2019.30
727.03	2193.37
727.21	3149.78
727.39	4968.37
727.57	6191.01
727.76	6883.22
727.94	7337.87
728.12	7284.62
728.30	6055.84
728.48	4896.69
728.66	4460.48
728.84	3846.09
729.03	3354.57
729.21	2957.27
729.39	2641.88
729.57	2279.39
729.75	2142.18
729.93	2150.37
730.11	1986.53
730.30	1935.33
730.48	1951.71
730.66	2004.96
730.84	2058.21
731.02	1894.37
731.20	1830.88
731.38	1947.62
731.56	1898.47
731.74	1912.80
731.93	2017.25
732.11	2037.73
732.29	1996.77
732.47	2029.54
732.65	2050.02
732.83	2033.63
733.01	2060.26
733.19	1884.13
733.37	1986.53
733.56	1953.76
733.74	1894.37
733.92	2093.02
734.10	1945.57
734.28	2039.78
734.46	1855.46
734.64	1945.57
734.82	1869.80
735.00	1955.81
735.18	1898.47
735.36	1912.80
735.54	1978.34
735.73	1957.86
735.91	1990.63
736.09	1994.72
736.27	1980.39
736.45	2009.06
736.63	1828.84
736.81	1978.34
736.99	2117.60
737.17	2027.49
737.35	1884.13
737.53	1980.39
737.71	1996.77
737.89	2000.87
738.07	1890.28
738.25	1884.13
738.43	1839.08
738.61	1933.28
738.80	1884.13
738.98	1869.80
739.16	1890.28
739.34	1933.28
739.52	2107.36
739.70	1925.09
739.88	1976.29
740.06	1996.77
740.24	1855.46
740.42	2107.36
740.60	1882.08
740.78	1888.23
740.96	1839.08
741.14	1902.56
741.32	1961.95
741.50	1871.84
741.68	2168.80
741.86	2043.87
742.04	1968.10
742.22	1888.23
742.40	1996.77
742.58	1894.37
742.76	1877.99
742.94	1996.77
743.12	1867.75
743.30	2058.21
743.48	1959.91
743.66	1877.99
743.84	1996.77
744.02	1937.38
744.20	2043.87
744.38	1908.71
744.56	1959.91
744.74	2103.26
744.92	2004.96
745.10	2068.45
745.28	2035.68
745.46	1972.19
745.64	1912.80
745.82	2031.58
746.00	1951.71
746.18	1990.63
746.36	1871.84
746.54	1964.00
746.72	1906.66
746.90	1914.85
747.08	2045.92
747.26	1916.90
747.44	2039.78
747.62	2029.54
747.80	1992.67
747.98	2058.21
748.15	1970.15
748.33	2076.64
748.51	2004.96
748.69	2064.35
748.87	1898.47
749.05	1941.47
749.23	1957.86
749.41	1998.82
749.59	1875.94
749.77	2017.25
749.95	1959.91
750.13	1867.75
750.31	2031.58
750.49	1898.47
750.67	1972.19
750.85	2015.20
751.03	1898.47
751.20	2176.99
751.38	2015.20
751.56	1920.99
751.74	1972.19
751.92	1955.81
752.10	1845.22
752.28	1970.15
752.46	1968.10
752.64	1935.33
752.82	1959.91
753.00	2115.55
753.18	1941.47
753.35	1953.76
753.53	1902.56
753.71	1912.80
753.89	2041.82
754.07	2019.30
754.25	2056.16
754.43	1968.10
754.61	1861.60
754.79	2056.16
754.97	1996.77
755.14	2050.02
755.32	1890.28
755.50	1951.71
755.68	1988.58
755.86	1873.89
756.04	1937.38
756.22	1810.40
756.40	2027.49
756.57	2070.50
756.75	1914.85
756.93	2019.30
757.11	1992.67
757.29	1871.84
757.47	1886.18
757.65	1789.92
757.82	1810.40
758.00	1955.81
758.18	1945.57
758.36	1949.67
758.54	2066.40
758.72	1865.70
758.90	1998.82
759.07	1923.04
759.25	1886.18
759.43	1976.29
759.61	1964.00
759.79	2617.30
759.97	2004.96
760.15	1984.48
760.32	1949.67
760.50	1972.19
760.68	2084.83
760.86	1873.89
761.04	2099.17
761.22	1972.19
761.39	1978.34
761.57	2043.87
761.75	1877.99
761.93	1992.67
762.11	1886.18
762.28	1949.67
762.46	1855.46
762.64	1992.67
762.82	1853.41
763.00	1906.66
763.18	2052.06
763.35	1896.42
763.53	1920.99
763.71	1888.23
763.89	1890.28
764.07	1939.43
764.24	1976.29
764.42	1978.34
764.60	2009.06
764.78	1923.04
764.96	2072.54
765.13	2004.96
765.31	1974.24
765.49	1988.58
765.67	1951.71
765.84	1890.28
766.02	1912.80
766.20	1818.60
766.38	1968.10
766.56	2037.73
766.73	2015.20
766.91	1968.10
767.09	2050.02
767.27	2031.58
767.44	1865.70
767.62	2015.20
767.80	1998.82
767.98	2047.97
768.15	1953.76
768.33	2002.91
768.51	2021.35
768.69	1992.67
768.87	1943.52
769.04	1869.80
769.22	2148.32
769.40	2052.06
769.58	2090.98
769.75	1951.71
769.93	2052.06
770.11	1912.80
770.28	1945.57
770.46	2062.30
770.64	2000.87
770.82	1908.71
770.99	1996.77
771.17	1945.57
771.35	1843.17
771.53	1925.09
771.70	1912.80
771.88	1904.61
772.06	1871.84
772.23	1964.00
772.41	1968.10
772.59	2017.25
772.77	1816.55
772.94	1992.67
773.12	1986.53
773.30	1914.85
773.47	1974.24
773.65	1953.76
773.83	2072.54
774.01	1912.80
774.18	1863.65
774.36	1974.24
774.54	1920.99
774.71	2033.63
774.89	1910.75
775.07	1959.91
775.24	1908.71
775.42	1886.18
775.60	2070.50
775.78	1896.42
775.95	1910.75
776.13	1800.16
776.31	1828.84
776.48	1939.43
776.66	2050.02
776.84	1970.15
777.01	1937.38
777.19	1939.43
777.37	1904.61
777.54	1992.67
777.72	2070.50
777.90	1914.85
778.07	1906.66
778.25	2142.18
778.43	2015.20
778.60	1890.28
778.78	1998.82
778.96	1943.52
779.13	1880.04
779.31	1972.19
779.49	1875.94
779.66	1982.43
779.84	1937.38
780.01	1964.00
780.19	1867.75
780.37	2043.87
780.54	2035.68
780.72	1943.52
780.90	1943.52
781.07	1945.57
781.25	1892.32
781.43	1996.77
781.60	1904.61
781.78	2068.45
781.95	1929.19
782.13	1898.47
782.31	1998.82
782.48	1789.92
782.66	1974.24
782.83	2056.16
783.01	2004.96
783.19	2097.12
783.36	1900.52
783.54	1832.93
783.72	1998.82
783.89	1957.86
784.07	2050.02
784.24	1972.19
784.42	2095.07
784.60	2050.02
784.77	1994.72
784.95	1861.60
785.12	1951.71
785.30	1955.81
785.47	1949.67
785.65	1953.76
785.83	1939.43
786.00	1912.80
786.18	1966.05
786.35	1882.08
786.53	1845.22
786.71	2045.92
786.88	1920.99
787.06	2025.44
787.23	1908.71
787.41	1912.80
787.58	1953.76
787.76	1794.02
787.94	1970.15
788.11	1937.38
788.29	1894.37
788.46	1826.79
788.64	1834.98
788.81	1964.00
788.99	1925.09
789.16	1890.28
789.34	1904.61
789.52	1912.80
789.69	1990.63
789.87	1796.07
790.04	1896.42
790.22	2031.58
790.39	2090.98
790.57	1841.12
790.74	1869.80
790.92	1966.05
791.09	1837.03
791.27	1966.05
791.44	2017.25
791.62	2002.91
791.79	1961.95
791.97	1931.23
792.15	2217.95
792.32	1925.09
792.50	2054.11
792.67	2111.46
792.85	2074.59
793.02	1951.71
793.20	1955.81
793.37	1814.50
793.55	1920.99
793.72	1867.75
793.90	2015.20
794.07	1888.23
794.25	1900.52
794.42	1945.57
794.60	1941.47
794.77	2015.20
794.95	2013.15
795.12	1902.56
795.30	1929.19
795.47	1896.42
795.65	2197.47
795.82	1970.15
796.00	1949.67
796.17	1920.99
796.34	2007.01
796.52	1945.57
796.69	2047.97
796.87	2066.40
797.04	1953.76
797.22	1992.67
797.39	1970.15
797.57	2033.63
797.74	1951.71
797.92	1959.91
798.09	1925.09
798.27	2074.59
798.44	1863.65
798.62	1970.15
798.79	1976.29
798.96	1957.86
799.14	1961.95
799.31	2166.75
799.49	1949.67
799.66	1966.05
799.84	1966.05
800.01	1775.59
800.19	2017.25
800.36	1812.45
800.53	1970.15
800.71	2041.82
800.88	2115.55
801.06	1914.85
801.23	1877.99
801.41	1927.14
801.58	1841.12
801.75	1875.94
801.93	1982.43
802.10	1984.48
802.28	1947.62
802.45	1904.61
802.63	2029.54
802.80	2056.16
802.97	1908.71
803.15	1949.67
803.32	1998.82
803.50	1966.05
803.67	1863.65
803.84	1916.90
804.02	1980.39
804.19	1920.99
804.37	1794.02
804.54	1822.69
804.71	1904.61
804.89	1947.62
805.06	1937.38
805.24	1851.36
805.41	1904.61
805.58	1994.72
805.76	2099.17
805.93	2052.06
806.10	2054.11
806.28	1955.81
806.45	1986.53
806.63	1982.43
806.80	1988.58
806.97	2056.16
807.15	1968.10
807.32	1957.86
807.49	1976.29
807.67	1900.52
807.84	1951.71
808.01	1877.99
808.19	2070.50
808.36	2113.50
808.54	1929.19
808.71	1955.81
808.88	1935.33
809.06	1953.76
809.23	2095.07
809.40	1845.22
809.58	2060.26
809.75	1931.23
809.92	1871.84
810.10	2084.83
810.27	1972.19
810.44	1943.52
810.62	1945.57
810.79	2019.30
810.96	1959.91
811.14	1918.95
811.31	1953.76
811.48	1920.99
811.66	1898.47
811.83	2037.73
812.00	2035.68
812.18	1937.38
812.35	2084.83
812.52	1910.75
812.69	1935.33
812.87	1892.32
813.04	1968.10
813.21	2017.25
813.39	1880.04
813.56	1820.64
813.73	2009.06
813.91	1937.38
814.08	1949.67
814.25	1959.91
814.42	1892.32
814.60	1941.47
814.77	1916.90
814.94	1986.53
815.12	1902.56
815.29	2015.20
815.46	1808.36
815.63	1923.04
815.81	1912.80
815.98	1955.81
816.15	1910.75
816.33	1964.00
816.50	1968.10
816.67	1939.43
816.84	1980.39
817.02	1830.88
817.19	1898.47
817.36	1918.95
817.53	1941.47
817.71	1888.23
817.88	2050.02
818.05	1888.23
818.22	1914.85
818.40	2076.64
818.57	1951.71
818.74	2027.49
818.91	1890.28
819.09	1972.19
819.26	1982.43
819.43	1898.47
819.60	1886.18
819.78	2002.91
819.95	1986.53
820.12	1925.09
820.29	2078.69
820.47	2064.35
820.64	1916.90
820.81	1832.93
820.98	1904.61
821.15	1945.57
821.33	2052.06
821.50	1824.74
821.67	2002.91
821.84	1988.58
822.02	2047.97
822.19	2068.45
822.36	1890.28
822.53	1892.32
822.70	1906.66
822.88	1976.29
823.05	2097.12
823.22	1935.33
823.39	1996.77
823.56	1970.15
823.74	2121.70
823.91	1882.08
824.08	1810.40
824.25	1818.60
824.42	2117.60
824.60	1871.84
824.77	1986.53
824.94	1961.95
825.11	2064.35
825.28	1822.69
825.45	1945.57
825.63	1949.67
825.80	1949.67
825.97	2039.78
826.14	1992.67
826.31	1904.61
826.48	1984.48
826.66	1857.51
826.83	1896.42
827.00	1908.71
827.17	1904.61
827.34	2015.20
827.51	1863.65
827.69	1939.43
827.86	1877.99
828.03	1910.75
828.20	2019.30
828.37	1892.32
828.54	2050.02
828.71	1943.52
828.89	2056.16
829.06	2037.73
829.23	2158.56
829.40	1939.43
829.57	1894.37
829.74	2013.15
829.91	1923.04
830.09	1882.08
830.26	1994.72
830.43	2056.16
830.60	1920.99
830.77	1992.67
830.94	2084.83
831.11	2035.68
831.28	1968.10
831.46	2023.39
831.63	1910.75
831.80	1986.53
831.97	1951.71
832.14	1908.71
832.31	2009.06
832.48	1935.33
832.65	1990.63
832.82	2027.49
832.99	1908.71
833.17	1865.70
833.34	2140.13
833.51	1976.29
833.68	1810.40
833.85	1970.15
834.02	1894.37
834.19	1863.65
834.36	1920.99
834.53	1943.52
834.70	1978.34
834.87	2009.06
835.04	1918.95
835.22	1824.74
835.39	2007.01
835.56	1884.13
835.73	1902.56
835.90	2129.89
836.07	1880.04
836.24	2031.58
836.41	1863.65
836.58	1794.02
836.75	2021.35
836.92	2047.97
837.09	1884.13
837.26	1966.05
837.43	1972.19
837.60	1978.34
837.77	1918.95
837.94	1990.63
838.12	2056.16
838.29	1984.48
838.46	1832.93
838.63	1857.51
838.80	2148.32
838.97	2009.06
839.14	1931.23
839.31	1949.67
839.48	2019.30
839.65	1925.09
839.82	1912.80
839.99	1959.91
840.16	1982.43
840.33	1982.43
840.50	1945.57
840.67	1859.56
840.84	1740.77
841.01	1951.71
841.18	1949.67
841.35	1941.47
841.52	2013.15
841.69	2086.88
841.86	1898.47
842.03	1929.19
842.20	2019.30
842.37	1849.32
842.54	1869.80
842.71	1998.82
842.88	1816.55
843.05	1937.38
843.22	1949.67
843.39	2002.91
843.56	1812.45
843.73	1949.67
843.90	1898.47
844.07	1966.05
844.24	2002.91
844.41	1945.57
844.58	1945.57
844.75	1925.09
844.92	2004.96
845.09	1968.10
845.26	1923.04
845.43	1951.71
845.60	1886.18
845.77	1980.39
845.94	1916.90
846.10	1970.15
846.27	1847.27
846.44	1880.04
846.61	1828.84
846.78	1988.58
846.95	1976.29
847.12	1972.19
847.29	1937.38
847.46	1851.36
847.63	2004.96
847.80	1951.71
847.97	1916.90
848.14	2131.94
848.31	1929.19
848.48	1859.56
848.65	1996.77
848.82	1957.86
848.98	2174.94
849.15	1920.99
849.32	2011.11
849.49	2043.87
849.66	1912.80
849.83	1931.23
850.00	1841.12
850.17	2068.45
850.34	1900.52
850.51	1863.65
850.68	1855.46
850.85	2123.74
851.01	1947.62
851.18	1943.52
851.35	1998.82
851.52	1986.53
851.69	2019.30
851.86	1871.84
852.03	1933.28
852.20	1986.53
852.37	2015.20
852.53	1843.17
852.70	1931.23
852.87	1953.76
853.04	2041.82
853.21	1908.71
853.38	2080.74
853.55	1980.39
853.72	2000.87
853.89	1996.77
854.05	1953.76
854.22	1898.47
854.39	1923.04
854.56	1933.28
854.73	2027.49
854.90	1890.28
855.07	1943.52
855.23	1877.99
855.40	1964.00
855.57	1914.85
855.74	1798.12
855.91	2129.89
856.08	1857.51
856.25	1890.28
856.41	1916.90
856.58	1861.60
856.75	1978.34
856.92	1853.41
857.09	2017.25
857.26	1814.50
857.42	1910.75
857.59	1966.05
857.76	1880.04
857.93	1925.09
858.10	1898.47
858.27	1859.56
858.43	1986.53
858.60	1851.36
858.77	1859.56
858.94	1902.56
859.11	1980.39
859.27	1904.61
859.44	1974.24
859.61	2105.31
859.78	2054.11
859.95	1937.38
860.12	1916.90
860.28	2088.93
860.45	2082.78
860.62	1931.23
860.79	1953.76
860.95	1945.57
861.12	1882.08
861.29	1869.80
861.46	1843.17
861.63	1978.34
861.79	1984.48
861.96	1798.12
862.13	1886.18
862.30	2041.82
862.47	1923.04
862.63	1871.84
862.80	2052.06
862.97	2050.02
863.14	1976.29
863.30	1966.05
863.47	1865.70
863.64	2074.59
863.81	1968.10
863.97	1910.75
864.14	1880.04
864.31	1910.75
864.48	1990.63
864.65	1951.71
864.81	1941.47
864.98	1984.48
865.15	1943.52
865.32	1914.85
865.48	2043.87
865.65	2144.22
865.82	1847.27
865.98	1992.67
866.15	1974.24
866.32	1970.15
866.49	1904.61
866.65	2029.54
866.82	1830.88
866.99	1949.67
867.16	1912.80
867.32	1902.56
867.49	1906.66
867.66	2007.01
867.83	1978.34
867.99	1961.95
868.16	1900.52
868.33	1888.23
868.49	1920.99
868.66	1947.62
868.83	2074.59
868.99	1976.29
869.16	1980.39
869.33	1974.24
869.50	2082.78
869.66	1929.19
869.83	1947.62
870.00	1920.99
870.16	1953.76
870.33	1908.71
870.50	1955.81
870.66	1964.00
870.83	2084.83
871.00	1978.34
871.17	2015.20
871.33	1966.05
871.50	1986.53
871.67	1953.76
871.83	1951.71
872.00	2019.30
872.17	1953.76
872.33	2031.58
872.50	2004.96
872.67	1988.58
872.83	1925.09
873.00	1974.24
873.17	2013.15
873.33	1990.63
873.50	1902.56
873.67	1898.47
873.83	1859.56
874.00	1976.29
874.16	2025.44
874.33	1955.81
874.50	1910.75
874.66	2045.92
874.83	1959.91
875.00	1986.53
875.16	1992.67
875.33	2021.35
875.50	1839.08
875.66	1929.19
875.83	1894.37
875.99	1984.48
876.16	1939.43
876.33	1865.70
876.49	1970.15
876.66	1961.95
876.83	1957.86
876.99	1812.45
877.16	2002.91
877.32	1904.61
877.49	1914.85
877.66	1964.00
877.82	2007.01
877.99	1937.38
878.15	2117.60
878.32	1947.62
878.49	1945.57
878.65	1908.71
878.82	2035.68
878.98	1908.71
879.15	2095.07
879.32	2039.78
879.48	2027.49
879.65	1910.75
879.81	1888.23
879.98	1925.09
880.15	1908.71
880.31	2002.91
880.48	1855.46
880.64	2000.87
880.81	1970.15
880.97	2121.70
881.14	1984.48
881.31	1832.93
881.47	2068.45
881.64	2037.73
881.80	1814.50
881.97	1929.19
882.13	1990.63
882.30	1972.19
882.47	1929.19
882.63	1814.50
882.80	1902.56
882.96	1943.52
883.13	2090.98
883.29	1929.19
883.46	1941.47
883.62	2093.02
883.79	2009.06
883.95	2011.11
884.12	1918.95
884.29	1988.58
884.45	1959.91
884.62	1974.24
884.78	1863.65
884.95	2009.06
885.11	1894.37
885.28	2015.20
885.44	1906.66
885.61	2060.26
885.77	1996.77
885.94	1972.19
886.10	1978.34
886.27	2013.15
886.43	2129.89
886.60	2011.11
886.76	1925.09
886.93	1902.56
887.09	2009.06
887.26	1869.80
887.42	1964.00
887.59	2050.02
887.75	2011.11
887.92	1957.86
888.08	2066.40
888.25	2146.27
888.41	2025.44
888.58	1959.91
888.74	1906.66
888.91	1947.62
>>>>>End Processed Spectral Data<<<<<
