SpectraSuite Data File
++++++++++++++++++++++++++++++++++++
Date: Wed May 04 22:46:07 CEST 2016
User: root
Dark Spectrum Present: No
Reference Spectrum Present: No
Number of Sampled Component Spectra: 1
Spectrometers: USB4C02835
Integration Time (usec): 100000 (USB4C02835)
Spectra Averaged: 1 (USB4C02835)
Boxcar Smoothing: 0 (USB4C02835)
Correct for Electrical Dark: No (USB4C02835)
Strobe/Lamp Enabled: No (USB4C02835)
Correct for Detector Non-linearity: No (USB4C02835)
Correct for Stray Light: No (USB4C02835)
Number of Pixels in Processed Spectrum: 3648
>>>>>Begin Processed Spectral Data<<<<<
177.47	1660.90
177.69	1660.90
177.91	1660.90
178.13	1595.37
178.36	1660.90
178.58	1912.80
178.80	1886.18
179.02	1923.04
179.24	1935.33
179.46	1941.47
179.68	1992.67
179.90	1898.47
180.13	2041.82
180.35	1873.89
180.57	1925.09
180.79	2064.35
181.01	1931.23
181.23	1982.43
181.45	2031.58
181.67	1955.81
181.90	2013.15
182.12	1830.88
182.34	1847.27
182.56	2007.01
182.78	1980.39
183.00	1943.52
183.22	1892.32
183.44	1826.79
183.66	2068.45
183.89	2076.64
184.11	2043.87
184.33	1986.53
184.55	2023.39
184.77	1920.99
184.99	1933.28
185.21	1906.66
185.43	2179.04
185.65	1859.56
185.87	1959.91
186.10	2080.74
186.32	2084.83
186.54	1908.71
186.76	2033.63
186.98	2070.50
187.20	1882.08
187.42	1837.03
187.64	1937.38
187.86	2004.96
188.08	2035.68
188.30	1892.32
188.52	1953.76
188.75	2021.35
188.97	2084.83
189.19	1912.80
189.41	1867.75
189.63	2027.49
189.85	1970.15
190.07	1767.40
190.29	1847.27
190.51	1935.33
190.73	1943.52
190.95	1986.53
191.17	1920.99
191.39	1857.51
191.61	1988.58
191.84	1898.47
192.06	1986.53
192.28	1822.69
192.50	2082.78
192.72	1918.95
192.94	1923.04
193.16	1986.53
193.38	1994.72
193.60	1914.85
193.82	1873.89
194.04	2019.30
194.26	1990.63
194.48	1996.77
194.70	1902.56
194.92	1894.37
195.14	1890.28
195.36	1908.71
195.58	1939.43
195.80	2023.39
196.02	1906.66
196.24	1966.05
196.46	1900.52
196.69	1875.94
196.91	2127.84
197.13	1945.57
197.35	1906.66
197.57	2047.97
197.79	1966.05
198.01	1943.52
198.23	1996.77
198.45	1988.58
198.67	1892.32
198.89	1927.14
199.11	1980.39
199.33	1974.24
199.55	1765.35
199.77	1933.28
199.99	2076.64
200.21	2004.96
200.43	2000.87
200.65	1861.60
200.87	1796.07
201.09	2058.21
201.31	1961.95
201.53	1935.33
201.75	1947.62
201.97	1939.43
202.19	2011.11
202.41	1992.67
202.63	2172.89
202.85	1953.76
203.07	2050.02
203.29	1847.27
203.51	1892.32
203.73	1892.32
203.95	2146.27
204.17	1980.39
204.39	2021.35
204.61	1896.42
204.83	1890.28
205.05	1974.24
205.27	1978.34
205.49	2056.16
205.71	1888.23
205.93	1890.28
206.15	1916.90
206.37	1929.19
206.59	1949.67
206.81	1884.13
207.03	1834.98
207.25	1808.36
207.47	1916.90
207.69	1896.42
207.91	2019.30
208.13	2007.01
208.34	1966.05
208.56	1931.23
208.78	1988.58
209.00	1980.39
209.22	1828.84
209.44	1935.33
209.66	1859.56
209.88	1923.04
210.10	1982.43
210.32	1925.09
210.54	1990.63
210.76	1976.29
210.98	2035.68
211.20	1763.30
211.42	1935.33
211.64	2086.88
211.86	1927.14
212.08	1910.75
212.30	1869.80
212.52	1968.10
212.74	1951.71
212.96	1945.57
213.17	1935.33
213.39	1941.47
213.61	2039.78
213.83	1939.43
214.05	1931.23
214.27	2009.06
214.49	1898.47
214.71	1851.36
214.93	2017.25
215.15	1908.71
215.37	2105.31
215.59	1828.84
215.81	2013.15
216.03	2023.39
216.24	1994.72
216.46	1970.15
216.68	2025.44
216.90	1992.67
217.12	1982.43
217.34	1978.34
217.56	1998.82
217.78	2111.46
218.00	1980.39
218.22	2037.73
218.44	1974.24
218.66	1853.41
218.87	2119.65
219.09	1923.04
219.31	1990.63
219.53	2004.96
219.75	1941.47
219.97	1957.86
220.19	1951.71
220.41	1902.56
220.63	1986.53
220.85	1988.58
221.06	1882.08
221.28	2086.88
221.50	1929.19
221.72	1931.23
221.94	1935.33
222.16	1980.39
222.38	2033.63
222.60	1941.47
222.82	1937.38
223.03	2056.16
223.25	1853.41
223.47	1964.00
223.69	2133.98
223.91	2017.25
224.13	1908.71
224.35	1857.51
224.57	2031.58
224.78	2043.87
225.00	1959.91
225.22	1916.90
225.44	1974.24
225.66	2072.54
225.88	1970.15
226.10	1982.43
226.32	2000.87
226.53	2109.41
226.75	1894.37
226.97	1892.32
227.19	2007.01
227.41	1945.57
227.63	1949.67
227.85	1828.84
228.06	1923.04
228.28	1996.77
228.50	1970.15
228.72	1859.56
228.94	1918.95
229.16	1816.55
229.37	1845.22
229.59	1873.89
229.81	2039.78
230.03	1923.04
230.25	1914.85
230.47	1808.36
230.69	1910.75
230.90	1978.34
231.12	1904.61
231.34	1972.19
231.56	1998.82
231.78	1859.56
232.00	1882.08
232.21	1925.09
232.43	1894.37
232.65	1890.28
232.87	2009.06
233.09	1886.18
233.30	1877.99
233.52	2037.73
233.74	1941.47
233.96	1877.99
234.18	1974.24
234.40	1961.95
234.61	2076.64
234.83	1845.22
235.05	1841.12
235.27	2107.36
235.49	2097.12
235.70	1912.80
235.92	2101.22
236.14	1990.63
236.36	2150.37
236.58	1859.56
236.79	1933.28
237.01	1990.63
237.23	1961.95
237.45	2142.18
237.67	1880.04
237.88	1970.15
238.10	2164.70
238.32	1931.23
238.54	1945.57
238.76	1970.15
238.97	1826.79
239.19	1847.27
239.41	1976.29
239.63	2047.97
239.85	1882.08
240.06	2000.87
240.28	1888.23
240.50	1978.34
240.72	1935.33
240.93	1970.15
241.15	2017.25
241.37	2007.01
241.59	1947.62
241.81	1892.32
242.02	1937.38
242.24	2019.30
242.46	1992.67
242.68	1798.12
242.89	1886.18
243.11	2058.21
243.33	1931.23
243.55	1918.95
243.76	1941.47
243.98	1873.89
244.20	1943.52
244.42	1957.86
244.64	1943.52
244.85	1931.23
245.07	1966.05
245.29	1986.53
245.51	1920.99
245.72	1925.09
245.94	2017.25
246.16	1959.91
246.38	1964.00
246.59	1914.85
246.81	1888.23
247.03	1914.85
247.24	1732.58
247.46	1904.61
247.68	1945.57
247.90	1859.56
248.11	1884.13
248.33	1994.72
248.55	2041.82
248.77	1933.28
248.98	1986.53
249.20	2082.78
249.42	1980.39
249.64	2009.06
249.85	1947.62
250.07	1888.23
250.29	1978.34
250.50	2023.39
250.72	1865.70
250.94	1970.15
251.16	2144.22
251.37	1966.05
251.59	1968.10
251.81	2068.45
252.02	2074.59
252.24	1927.14
252.46	2086.88
252.68	1834.98
252.89	1882.08
253.11	1837.03
253.33	2011.11
253.54	2095.07
253.76	1800.16
253.98	1877.99
254.20	1847.27
254.41	1882.08
254.63	1923.04
254.85	1894.37
255.06	1794.02
255.28	1976.29
255.50	1916.90
255.71	1964.00
255.93	1818.60
256.15	1880.04
256.36	1992.67
256.58	1851.36
256.80	1943.52
257.02	1935.33
257.23	1906.66
257.45	1925.09
257.67	2002.91
257.88	1923.04
258.10	2039.78
258.32	1923.04
258.53	1984.48
258.75	1970.15
258.97	1900.52
259.18	1871.84
259.40	1959.91
259.62	2062.30
259.83	2043.87
260.05	2035.68
260.27	2295.77
260.48	1998.82
260.70	1875.94
260.92	1900.52
261.13	1974.24
261.35	1964.00
261.57	2004.96
261.78	1804.26
262.00	1861.60
262.22	2068.45
262.43	1970.15
262.65	1957.86
262.86	1918.95
263.08	2244.57
263.30	1906.66
263.51	1802.21
263.73	1918.95
263.95	2029.54
264.16	1974.24
264.38	1892.32
264.60	1955.81
264.81	1964.00
265.03	2052.06
265.25	1998.82
265.46	1931.23
265.68	1964.00
265.89	1966.05
266.11	1902.56
266.33	1937.38
266.54	2060.26
266.76	1986.53
266.98	1943.52
267.19	2017.25
267.41	2035.68
267.62	1957.86
267.84	1775.59
268.06	1966.05
268.27	2056.16
268.49	1984.48
268.70	1998.82
268.92	1925.09
269.14	1896.42
269.35	1857.51
269.57	1988.58
269.79	2023.39
270.00	1939.43
270.22	2103.26
270.43	1863.65
270.65	1828.84
270.87	1982.43
271.08	1931.23
271.30	1964.00
271.51	2013.15
271.73	1939.43
271.95	2076.64
272.16	1943.52
272.38	1970.15
272.59	1974.24
272.81	2033.63
273.02	1927.14
273.24	2011.11
273.46	2007.01
273.67	1894.37
273.89	1935.33
274.10	1890.28
274.32	2035.68
274.54	1984.48
274.75	1914.85
274.97	1935.33
275.18	1996.77
275.40	1974.24
275.61	1925.09
275.83	1929.19
276.05	1914.85
276.26	1982.43
276.48	2050.02
276.69	1920.99
276.91	1929.19
277.12	2125.79
277.34	1970.15
277.55	1978.34
277.77	1986.53
277.99	1961.95
278.20	1933.28
278.42	1820.64
278.63	1900.52
278.85	1941.47
279.06	1873.89
279.28	2015.20
279.49	1996.77
279.71	1947.62
279.93	1988.58
280.14	1982.43
280.36	1884.13
280.57	2148.32
280.79	2047.97
281.00	1908.71
281.22	1834.98
281.43	2107.36
281.65	1806.31
281.86	1824.74
282.08	2019.30
282.29	2127.84
282.51	1904.61
282.73	1918.95
282.94	1933.28
283.16	2007.01
283.37	2064.35
283.59	1927.14
283.80	1929.19
284.02	1923.04
284.23	1933.28
284.45	1898.47
284.66	1914.85
284.88	1861.60
285.09	1929.19
285.31	1984.48
285.52	2047.97
285.74	1847.27
285.95	1976.29
286.17	1980.39
286.38	2002.91
286.60	1943.52
286.81	1898.47
287.03	1970.15
287.24	1986.53
287.46	1984.48
287.67	1925.09
287.89	2166.75
288.10	1927.14
288.32	1988.58
288.53	2039.78
288.75	1929.19
288.96	2002.91
289.18	1873.89
289.39	1970.15
289.61	2031.58
289.82	2127.84
290.04	2103.26
290.25	1884.13
290.47	1910.75
290.68	1976.29
290.90	1984.48
291.11	1892.32
291.33	2060.26
291.54	1859.56
291.76	1882.08
291.97	1861.60
292.18	1959.91
292.40	1949.67
292.61	1804.26
292.83	2164.70
293.04	1947.62
293.26	1867.75
293.47	1988.58
293.69	1898.47
293.90	2002.91
294.12	2050.02
294.33	1951.71
294.55	1968.10
294.76	1990.63
294.97	2035.68
295.19	2156.51
295.40	1972.19
295.62	1996.77
295.83	2029.54
296.05	1908.71
296.26	2056.16
296.48	1939.43
296.69	2043.87
296.90	1923.04
297.12	1992.67
297.33	2078.69
297.55	1945.57
297.76	2052.06
297.98	2000.87
298.19	1982.43
298.41	1959.91
298.62	1955.81
298.83	2054.11
299.05	1914.85
299.26	1912.80
299.48	1994.72
299.69	2004.96
299.90	1982.43
300.12	1851.36
300.33	1982.43
300.55	1953.76
300.76	1953.76
300.98	1767.40
301.19	2023.39
301.40	2021.35
301.62	1898.47
301.83	2007.01
302.05	2004.96
302.26	2027.49
302.47	1980.39
302.69	1888.23
302.90	1914.85
303.12	1826.79
303.33	1984.48
303.54	2121.70
303.76	1863.65
303.97	1988.58
304.19	2068.45
304.40	1855.46
304.61	1994.72
304.83	2074.59
305.04	2029.54
305.26	1996.77
305.47	1888.23
305.68	1994.72
305.90	1853.41
306.11	2078.69
306.33	1927.14
306.54	1886.18
306.75	1890.28
306.97	1880.04
307.18	1861.60
307.39	1871.84
307.61	2027.49
307.82	1966.05
308.04	1976.29
308.25	1925.09
308.46	2017.25
308.68	1953.76
308.89	1996.77
309.10	1996.77
309.32	2002.91
309.53	1998.82
309.74	1994.72
309.96	1943.52
310.17	2037.73
310.39	1951.71
310.60	1937.38
310.81	1912.80
311.03	1859.56
311.24	2039.78
311.45	1937.38
311.67	2125.79
311.88	1951.71
312.09	1968.10
312.31	1939.43
312.52	2007.01
312.73	1918.95
312.95	1818.60
313.16	1945.57
313.37	2025.44
313.59	1964.00
313.80	1990.63
314.01	2009.06
314.23	1906.66
314.44	1843.17
314.65	1880.04
314.87	1859.56
315.08	1898.47
315.29	1970.15
315.51	1880.04
315.72	1890.28
315.93	2058.21
316.15	1939.43
316.36	1961.95
316.57	2017.25
316.79	1976.29
317.00	1894.37
317.21	1964.00
317.43	1945.57
317.64	1964.00
317.85	1943.52
318.07	1826.79
318.28	1949.67
318.49	2015.20
318.70	2254.81
318.92	2154.46
319.13	2172.89
319.34	2215.90
319.56	2064.35
319.77	2039.78
319.98	2138.08
320.20	2037.73
320.41	2082.78
320.62	2013.15
320.83	1970.15
321.05	2127.84
321.26	2000.87
321.47	2045.92
321.69	2031.58
321.90	1837.03
322.11	1855.46
322.32	1937.38
322.54	2062.30
322.75	1949.67
322.96	2090.98
323.18	1898.47
323.39	1837.03
323.60	1949.67
323.81	2070.50
324.03	1863.65
324.24	1961.95
324.45	1961.95
324.66	2033.63
324.88	2064.35
325.09	2021.35
325.30	1875.94
325.52	1964.00
325.73	1943.52
325.94	1892.32
326.15	1869.80
326.37	1865.70
326.58	2009.06
326.79	2062.30
327.00	1918.95
327.22	1929.19
327.43	2007.01
327.64	1882.08
327.85	2039.78
328.07	2011.11
328.28	2043.87
328.49	1814.50
328.70	1972.19
328.92	1906.66
329.13	1920.99
329.34	1986.53
329.55	2113.50
329.76	2037.73
329.98	1935.33
330.19	2086.88
330.40	1925.09
330.61	2033.63
330.83	1959.91
331.04	1837.03
331.25	1945.57
331.46	1923.04
331.68	1892.32
331.89	1984.48
332.10	1978.34
332.31	1877.99
332.52	1978.34
332.74	2009.06
332.95	1841.12
333.16	1886.18
333.37	1925.09
333.58	1968.10
333.80	1923.04
334.01	1853.41
334.22	1978.34
334.43	1953.76
334.64	1873.89
334.86	1853.41
335.07	1859.56
335.28	2064.35
335.49	1855.46
335.70	1959.91
335.92	2060.26
336.13	2103.26
336.34	1939.43
336.55	1966.05
336.76	1945.57
336.98	1875.94
337.19	1961.95
337.40	2082.78
337.61	2039.78
337.82	1890.28
338.04	1984.48
338.25	1830.88
338.46	1966.05
338.67	2013.15
338.88	1904.61
339.09	1968.10
339.31	1918.95
339.52	1800.16
339.73	1943.52
339.94	1894.37
340.15	2062.30
340.36	1953.76
340.58	1959.91
340.79	1906.66
341.00	2000.87
341.21	1843.17
341.42	2060.26
341.63	1912.80
341.85	2095.07
342.06	1961.95
342.27	1912.80
342.48	1968.10
342.69	1871.84
342.90	1910.75
343.12	2031.58
343.33	1865.70
343.54	1923.04
343.75	2084.83
343.96	1939.43
344.17	1869.80
344.38	1912.80
344.60	1955.81
344.81	1927.14
345.02	1892.32
345.23	2021.35
345.44	2156.51
345.65	1990.63
345.86	1941.47
346.07	1998.82
346.29	1871.84
346.50	2007.01
346.71	2004.96
346.92	2029.54
347.13	2113.50
347.34	1949.67
347.55	1976.29
347.76	2011.11
347.98	1906.66
348.19	1918.95
348.40	2041.82
348.61	1933.28
348.82	2078.69
349.03	2002.91
349.24	1931.23
349.45	2013.15
349.66	1810.40
349.88	2011.11
350.09	1945.57
350.30	1966.05
350.51	2031.58
350.72	1988.58
350.93	2011.11
351.14	1855.46
351.35	1980.39
351.56	1914.85
351.77	2023.39
351.99	2025.44
352.20	2136.03
352.41	2039.78
352.62	1851.36
352.83	1918.95
353.04	1968.10
353.25	1943.52
353.46	1927.14
353.67	2056.16
353.88	1822.69
354.09	1929.19
354.30	1904.61
354.52	1974.24
354.73	1984.48
354.94	1898.47
355.15	1968.10
355.36	2103.26
355.57	1855.46
355.78	2004.96
355.99	1933.28
356.20	1984.48
356.41	2029.54
356.62	2015.20
356.83	1914.85
357.04	2066.40
357.25	1882.08
357.46	1925.09
357.68	1898.47
357.89	1957.86
358.10	1947.62
358.31	1972.19
358.52	1972.19
358.73	1925.09
358.94	1867.75
359.15	1966.05
359.36	1974.24
359.57	1929.19
359.78	2037.73
359.99	1992.67
360.20	1906.66
360.41	1947.62
360.62	2029.54
360.83	1912.80
361.04	2000.87
361.25	1976.29
361.46	1986.53
361.67	1972.19
361.88	2033.63
362.09	2099.17
362.30	1996.77
362.51	1863.65
362.72	1996.77
362.93	2072.54
363.14	2015.20
363.35	1939.43
363.56	1912.80
363.78	2070.50
363.99	2093.02
364.20	1882.08
364.41	2007.01
364.62	2170.85
364.83	1949.67
365.04	1916.90
365.25	1959.91
365.46	2166.75
365.67	1906.66
365.88	1898.47
366.09	1925.09
366.30	1935.33
366.51	1964.00
366.72	1888.23
366.93	1933.28
367.14	2013.15
367.35	2039.78
367.56	1945.57
367.77	2103.26
367.98	1951.71
368.18	1976.29
368.39	2039.78
368.60	1933.28
368.81	2027.49
369.02	2023.39
369.23	1892.32
369.44	1845.22
369.65	1896.42
369.86	2039.78
370.07	2037.73
370.28	1916.90
370.49	1976.29
370.70	2027.49
370.91	1923.04
371.12	1785.83
371.33	2035.68
371.54	1861.60
371.75	2168.80
371.96	1761.25
372.17	1914.85
372.38	1916.90
372.59	1955.81
372.80	1957.86
373.01	1945.57
373.22	2033.63
373.43	1949.67
373.64	1920.99
373.85	2072.54
374.06	2039.78
374.26	2011.11
374.47	1953.76
374.68	2076.64
374.89	2004.96
375.10	1945.57
375.31	1970.15
375.52	1953.76
375.73	2004.96
375.94	1841.12
376.15	2123.74
376.36	1918.95
376.57	1978.34
376.78	1900.52
376.99	2019.30
377.20	2043.87
377.40	1982.43
377.61	2072.54
377.82	2000.87
378.03	2023.39
378.24	1951.71
378.45	1968.10
378.66	1955.81
378.87	1767.40
379.08	1818.60
379.29	1906.66
379.50	2074.59
379.71	1953.76
379.91	1988.58
380.12	1937.38
380.33	1992.67
380.54	1953.76
380.75	1941.47
380.96	1949.67
381.17	2160.61
381.38	2031.58
381.59	1986.53
381.80	1990.63
382.00	2127.84
382.21	2019.30
382.42	2148.32
382.63	2125.79
382.84	1994.72
383.05	2045.92
383.26	2064.35
383.47	1976.29
383.68	1957.86
383.88	1957.86
384.09	1941.47
384.30	2174.94
384.51	2078.69
384.72	1906.66
384.93	1882.08
385.14	1978.34
385.35	1990.63
385.55	1814.50
385.76	2041.82
385.97	1912.80
386.18	1931.23
386.39	1894.37
386.60	1949.67
386.81	1972.19
387.02	1927.14
387.22	1916.90
387.43	1996.77
387.64	2035.68
387.85	2097.12
388.06	2279.39
388.27	3868.61
388.48	8576.89
388.68	11915.08
388.89	14319.40
389.10	15533.84
389.31	13903.66
389.52	10966.87
389.73	9574.25
389.93	8626.04
390.14	8105.86
390.35	7161.75
390.56	6358.94
390.77	5279.66
390.98	3987.40
391.18	3125.20
391.39	2568.15
391.60	2162.66
391.81	2086.88
392.02	1976.29
392.23	2117.60
392.43	1972.19
392.64	2113.50
392.85	1990.63
393.06	2070.50
393.27	1996.77
393.47	1824.74
393.68	1996.77
393.89	1912.80
394.10	2123.74
394.31	1855.46
394.52	1920.99
394.72	1884.13
394.93	2105.31
395.14	1906.66
395.35	2000.87
395.56	1900.52
395.76	1961.95
395.97	1982.43
396.18	2148.32
396.39	2172.89
396.60	2406.36
396.80	2330.59
397.01	2146.27
397.22	2111.46
397.43	2107.36
397.64	2035.68
397.84	2066.40
398.05	2174.94
398.26	1984.48
398.47	2072.54
398.67	2123.74
398.88	1980.39
399.09	1988.58
399.30	1908.71
399.51	1941.47
399.71	1927.14
399.92	1892.32
400.13	1986.53
400.34	1947.62
400.54	2019.30
400.75	2062.30
400.96	2041.82
401.17	2101.22
401.37	2015.20
401.58	1947.62
401.79	2037.73
402.00	2080.74
402.21	2340.83
402.41	2260.96
402.62	2285.53
402.83	2463.71
403.04	2349.02
403.24	2418.65
403.45	2125.79
403.66	2263.01
403.87	2176.99
404.07	2265.05
404.28	2142.18
404.49	2172.89
404.70	2097.12
404.90	2090.98
405.11	2093.02
405.32	2007.01
405.52	1959.91
405.73	1947.62
405.94	1873.89
406.15	2013.15
406.35	2021.35
406.56	2084.83
406.77	1937.38
406.98	2011.11
407.18	1923.04
407.39	2054.11
407.60	1904.61
407.80	1994.72
408.01	1957.86
408.22	1996.77
408.43	1935.33
408.63	1947.62
408.84	2072.54
409.05	2072.54
409.25	1882.08
409.46	1898.47
409.67	1929.19
409.88	1873.89
410.08	1957.86
410.29	1953.76
410.50	1966.05
410.70	1980.39
410.91	1904.61
411.12	1941.47
411.32	1900.52
411.53	1867.75
411.74	2099.17
411.95	2068.45
412.15	2017.25
412.36	2121.70
412.57	2078.69
412.77	2068.45
412.98	2017.25
413.19	1894.37
413.39	1961.95
413.60	2031.58
413.81	2043.87
414.01	1869.80
414.22	2056.16
414.43	2064.35
414.63	1937.38
414.84	2062.30
415.05	1974.24
415.25	1843.17
415.46	1964.00
415.67	1916.90
415.87	2033.63
416.08	1957.86
416.29	2000.87
416.49	1980.39
416.70	1912.80
416.91	1996.77
417.11	1900.52
417.32	2054.11
417.53	2045.92
417.73	2002.91
417.94	1961.95
418.15	1908.71
418.35	1949.67
418.56	1910.75
418.77	2129.89
418.97	1910.75
419.18	1898.47
419.38	1794.02
419.59	1964.00
419.80	2107.36
420.00	1945.57
420.21	2007.01
420.42	2054.11
420.62	1996.77
420.83	1964.00
421.04	1837.03
421.24	1890.28
421.45	2000.87
421.65	1988.58
421.86	1904.61
422.07	2066.40
422.27	1986.53
422.48	1972.19
422.69	1884.13
422.89	1894.37
423.10	1875.94
423.30	1947.62
423.51	2054.11
423.72	2047.97
423.92	2058.21
424.13	1861.60
424.33	2035.68
424.54	1992.67
424.75	1996.77
424.95	2101.22
425.16	1992.67
425.36	1951.71
425.57	1968.10
425.78	2041.82
425.98	2033.63
426.19	1927.14
426.39	1880.04
426.60	1957.86
426.81	2078.69
427.01	1996.77
427.22	1900.52
427.42	1828.84
427.63	1923.04
427.83	1994.72
428.04	2037.73
428.25	2054.11
428.45	2070.50
428.66	2035.68
428.86	1974.24
429.07	1949.67
429.28	1951.71
429.48	1884.13
429.69	1939.43
429.89	1933.28
430.10	1804.26
430.30	2023.39
430.51	2031.58
430.71	1871.84
430.92	1970.15
431.13	1949.67
431.33	1978.34
431.54	2007.01
431.74	2062.30
431.95	2154.46
432.15	1927.14
432.36	1970.15
432.56	2023.39
432.77	2156.51
432.98	2140.13
433.18	1961.95
433.39	1984.48
433.59	1912.80
433.80	2095.07
434.00	2158.56
434.21	1939.43
434.41	1931.23
434.62	2162.66
434.82	1875.94
435.03	1904.61
435.23	1982.43
435.44	1816.55
435.64	1935.33
435.85	1996.77
436.06	2052.06
436.26	2050.02
436.47	1961.95
436.67	1865.70
436.88	1871.84
437.08	2039.78
437.29	2066.40
437.49	1937.38
437.70	2043.87
437.90	1984.48
438.11	2146.27
438.31	2041.82
438.52	2195.42
438.72	2164.70
438.93	2215.90
439.13	2133.98
439.34	2129.89
439.54	1976.29
439.75	2127.84
439.95	2050.02
440.16	1880.04
440.36	2007.01
440.57	2009.06
440.77	1992.67
440.98	1992.67
441.18	1959.91
441.39	1923.04
441.59	1773.54
441.80	2154.46
442.00	2000.87
442.21	2015.20
442.41	1920.99
442.62	2002.91
442.82	1871.84
443.02	1927.14
443.23	2021.35
443.43	1951.71
443.64	2099.17
443.84	1910.75
444.05	2035.68
444.25	2047.97
444.46	1912.80
444.66	2019.30
444.87	2101.22
445.07	1873.89
445.28	1976.29
445.48	2043.87
445.69	2013.15
445.89	2152.42
446.09	2033.63
446.30	2303.96
446.50	2688.98
446.71	4161.47
446.91	5365.68
447.12	6148.00
447.32	6641.56
447.53	6025.12
447.73	4886.45
447.93	4403.13
448.14	4046.79
448.34	3807.17
448.55	3323.85
448.75	3274.70
448.96	3176.40
449.16	2891.73
449.36	2590.68
449.57	2252.77
449.77	2148.32
449.98	2039.78
450.18	2058.21
450.39	2060.26
450.59	2000.87
450.79	2000.87
451.00	1982.43
451.20	2090.98
451.41	1929.19
451.61	2027.49
451.81	2035.68
452.02	1978.34
452.22	2000.87
452.43	1906.66
452.63	1906.66
452.84	1966.05
453.04	1988.58
453.24	2011.11
453.45	1955.81
453.65	1986.53
453.86	1939.43
454.06	1998.82
454.26	2068.45
454.47	1964.00
454.67	2097.12
454.87	2017.25
455.08	2009.06
455.28	2183.13
455.49	2058.21
455.69	1968.10
455.89	2181.09
456.10	2047.97
456.30	1968.10
456.51	2062.30
456.71	1980.39
456.91	2019.30
457.12	2074.59
457.32	1976.29
457.52	1892.32
457.73	2025.44
457.93	2127.84
458.14	1892.32
458.34	1853.41
458.54	1906.66
458.75	1918.95
458.95	1994.72
459.15	1974.24
459.36	1986.53
459.56	2002.91
459.76	2150.37
459.97	1947.62
460.17	1990.63
460.37	2033.63
460.58	1974.24
460.78	2011.11
460.99	1941.47
461.19	1880.04
461.39	1949.67
461.60	1937.38
461.80	2015.20
462.00	1923.04
462.21	1986.53
462.41	1988.58
462.61	1849.32
462.82	1884.13
463.02	1984.48
463.22	1959.91
463.43	2033.63
463.63	1996.77
463.83	2050.02
464.04	1974.24
464.24	1961.95
464.44	1892.32
464.64	1929.19
464.85	2035.68
465.05	2052.06
465.25	1951.71
465.46	1945.57
465.66	2000.87
465.86	2050.02
466.07	2004.96
466.27	1941.47
466.47	1855.46
466.68	1914.85
466.88	2115.55
467.08	2035.68
467.29	2035.68
467.49	2004.96
467.69	1955.81
467.89	1951.71
468.10	1968.10
468.30	2007.01
468.50	2113.50
468.71	2037.73
468.91	1914.85
469.11	2160.61
469.31	1992.67
469.52	1902.56
469.72	2052.06
469.92	2090.98
470.13	1957.86
470.33	1966.05
470.53	2050.02
470.73	2402.27
470.94	2805.72
471.14	3020.75
471.34	3397.58
471.54	3213.26
471.75	3010.51
471.95	2684.89
472.15	2545.63
472.36	2467.80
472.56	2504.67
472.76	2396.12
472.96	2369.50
473.17	2281.44
473.37	2131.94
473.57	2013.15
473.77	2090.98
473.98	2052.06
474.18	1941.47
474.38	2205.66
474.58	1900.52
474.79	1890.28
474.99	2064.35
475.19	2076.64
475.39	1892.32
475.60	2015.20
475.80	1964.00
476.00	1968.10
476.20	1916.90
476.41	2002.91
476.61	2133.98
476.81	2037.73
477.01	1947.62
477.21	2174.94
477.42	2027.49
477.62	1933.28
477.82	2105.31
478.02	1914.85
478.23	1986.53
478.43	1896.42
478.63	1898.47
478.83	1945.57
479.03	1931.23
479.24	2004.96
479.44	2072.54
479.64	1970.15
479.84	1761.25
480.04	1931.23
480.25	1982.43
480.45	1982.43
480.65	2019.30
480.85	2136.03
481.06	1992.67
481.26	2004.96
481.46	2009.06
481.66	2023.39
481.86	1834.98
482.06	2052.06
482.27	1910.75
482.47	1968.10
482.67	2043.87
482.87	1970.15
483.07	2019.30
483.28	1947.62
483.48	1931.23
483.68	1937.38
483.88	1880.04
484.08	1814.50
484.29	1880.04
484.49	1929.19
484.69	1828.84
484.89	2131.94
485.09	2070.50
485.29	1998.82
485.50	1978.34
485.70	1970.15
485.90	2007.01
486.10	1970.15
486.30	2025.44
486.50	2060.26
486.71	1964.00
486.91	2058.21
487.11	2084.83
487.31	1839.08
487.51	1949.67
487.71	1880.04
487.91	1849.32
488.12	1918.95
488.32	1697.77
488.52	1873.89
488.72	1800.16
488.92	1998.82
489.12	1992.67
489.32	2060.26
489.53	1945.57
489.73	1908.71
489.93	2127.84
490.13	1896.42
490.33	1886.18
490.53	1957.86
490.73	1982.43
490.94	1890.28
491.14	2068.45
491.34	2080.74
491.54	2240.48
491.74	2893.78
491.94	3545.03
492.14	3729.35
492.34	3852.23
492.54	3518.41
492.75	3012.56
492.95	2979.79
493.15	2707.41
493.35	2672.60
493.55	2625.50
493.75	2480.09
493.95	2457.56
494.15	2357.21
494.35	2164.70
494.56	2078.69
494.76	1968.10
494.96	2037.73
495.16	2088.93
495.36	2017.25
495.56	2021.35
495.76	2047.97
495.96	1970.15
496.16	1886.18
496.36	2101.22
496.56	1984.48
496.77	2007.01
496.97	1949.67
497.17	2095.07
497.37	1877.99
497.57	1972.19
497.77	1964.00
497.97	1871.84
498.17	1978.34
498.37	1961.95
498.57	2064.35
498.77	1992.67
498.97	2078.69
499.17	2041.82
499.38	1947.62
499.58	2011.11
499.78	2117.60
499.98	2070.50
500.18	1998.82
500.38	1941.47
500.58	2254.81
500.78	2555.86
500.98	4741.05
501.18	7053.20
501.38	8714.11
501.58	9475.95
501.78	9578.35
501.98	7577.48
502.18	6168.48
502.38	5269.42
502.58	4956.08
502.78	4462.52
502.98	4274.11
503.18	4145.09
503.38	3565.51
503.59	3264.46
503.79	3039.19
503.99	2760.66
504.19	2592.73
504.39	2576.34
504.59	2668.50
504.79	2627.54
504.99	2605.02
505.19	2271.20
505.39	2256.86
505.59	2355.16
505.79	2226.14
505.99	2144.22
506.19	2088.93
506.39	2244.57
506.59	2021.35
506.79	2007.01
506.99	2009.06
507.19	2080.74
507.39	2068.45
507.59	1884.13
507.79	1910.75
507.99	1914.85
508.19	1949.67
508.39	1968.10
508.59	2033.63
508.79	2123.74
508.99	2189.28
509.19	1914.85
509.39	1976.29
509.59	1910.75
509.79	1972.19
509.99	1929.19
510.19	2013.15
510.39	2088.93
510.59	1959.91
510.79	1982.43
510.99	2004.96
511.19	1931.23
511.39	2113.50
511.59	1974.24
511.79	2052.06
511.99	1959.91
512.19	2113.50
512.38	1925.09
512.58	1863.65
512.78	1976.29
512.98	2076.64
513.18	2068.45
513.38	1837.03
513.58	2068.45
513.78	1949.67
513.98	1943.52
514.18	1994.72
514.38	1933.28
514.58	2101.22
514.78	1953.76
514.98	2011.11
515.18	2011.11
515.38	1900.52
515.58	2041.82
515.78	1890.28
515.98	1945.57
516.18	2058.21
516.38	1986.53
516.57	1957.86
516.77	1896.42
516.97	2054.11
517.17	1869.80
517.37	1773.54
517.57	2060.26
517.77	2041.82
517.97	1943.52
518.17	2101.22
518.37	1892.32
518.57	1957.86
518.77	1986.53
518.97	1949.67
519.16	2045.92
519.36	2060.26
519.56	2033.63
519.76	2007.01
519.96	1955.81
520.16	2125.79
520.36	1802.21
520.56	2064.35
520.76	1976.29
520.96	1996.77
521.16	2099.17
521.35	2103.26
521.55	2013.15
521.75	2013.15
521.95	1953.76
522.15	1910.75
522.35	1861.60
522.55	2011.11
522.75	1980.39
522.95	1941.47
523.14	1959.91
523.34	1935.33
523.54	1908.71
523.74	1994.72
523.94	2011.11
524.14	1863.65
524.34	1929.19
524.54	2107.36
524.73	1904.61
524.93	1945.57
525.13	1976.29
525.33	1910.75
525.53	2183.13
525.73	1998.82
525.93	2031.58
526.13	1925.09
526.32	1968.10
526.52	2027.49
526.72	2037.73
526.92	1961.95
527.12	1947.62
527.32	1918.95
527.52	2062.30
527.71	2043.87
527.91	2000.87
528.11	1982.43
528.31	2062.30
528.51	1939.43
528.71	2000.87
528.90	2041.82
529.10	2154.46
529.30	2066.40
529.50	1947.62
529.70	1953.76
529.90	1961.95
530.09	2002.91
530.29	1914.85
530.49	1857.51
530.69	2191.33
530.89	1970.15
531.09	2041.82
531.28	1961.95
531.48	2113.50
531.68	2013.15
531.88	1994.72
532.08	2023.39
532.28	1970.15
532.47	2121.70
532.67	2000.87
532.87	1968.10
533.07	1964.00
533.27	1990.63
533.46	2062.30
533.66	2013.15
533.86	1982.43
534.06	1931.23
534.26	2068.45
534.45	2033.63
534.65	2015.20
534.85	1994.72
535.05	1968.10
535.25	2068.45
535.44	1869.80
535.64	2062.30
535.84	1976.29
536.04	1961.95
536.24	1886.18
536.43	1916.90
536.63	2023.39
536.83	1916.90
537.03	1943.52
537.22	1830.88
537.42	1890.28
537.62	1947.62
537.82	1910.75
538.02	2082.78
538.21	2043.87
538.41	2164.70
538.61	2066.40
538.81	1896.42
539.00	2099.17
539.20	1890.28
539.40	1992.67
539.60	2039.78
539.79	2082.78
539.99	2011.11
540.19	1884.13
540.39	2015.20
540.58	1966.05
540.78	2088.93
540.98	1970.15
541.18	2058.21
541.37	2035.68
541.57	1978.34
541.77	2068.45
541.97	1955.81
542.16	1910.75
542.36	1976.29
542.56	1964.00
542.76	2136.03
542.95	2031.58
543.15	1972.19
543.35	2004.96
543.54	1931.23
543.74	1972.19
543.94	2035.68
544.14	1972.19
544.33	2023.39
544.53	2035.68
544.73	1945.57
544.93	1914.85
545.12	1916.90
545.32	1943.52
545.52	1949.67
545.71	1875.94
545.91	1904.61
546.11	1953.76
546.30	1896.42
546.50	1988.58
546.70	2017.25
546.90	1986.53
547.09	1822.69
547.29	2019.30
547.49	2021.35
547.68	1974.24
547.88	1933.28
548.08	2000.87
548.27	2459.61
548.47	1937.38
548.67	1959.91
548.87	2002.91
549.06	1912.80
549.26	1927.14
549.46	2033.63
549.65	1927.14
549.85	2000.87
550.05	2011.11
550.24	1974.24
550.44	1984.48
550.64	1984.48
550.83	2047.97
551.03	2056.16
551.23	2052.06
551.42	2031.58
551.62	1933.28
551.82	1984.48
552.01	1935.33
552.21	2138.08
552.41	1984.48
552.60	2033.63
552.80	1996.77
553.00	1951.71
553.19	1982.43
553.39	2095.07
553.59	1888.23
553.78	1994.72
553.98	1986.53
554.17	1941.47
554.37	2013.15
554.57	1998.82
554.76	1918.95
554.96	1945.57
555.16	1957.86
555.35	1986.53
555.55	2011.11
555.75	2011.11
555.94	2037.73
556.14	1863.65
556.33	1984.48
556.53	1996.77
556.73	1966.05
556.92	2062.30
557.12	2015.20
557.32	2129.89
557.51	2037.73
557.71	2101.22
557.90	2166.75
558.10	2019.30
558.30	1998.82
558.49	1933.28
558.69	2007.01
558.88	2162.66
559.08	1961.95
559.28	1933.28
559.47	2009.06
559.67	2050.02
559.86	2121.70
560.06	2025.44
560.26	1974.24
560.45	2054.11
560.65	2029.54
560.84	2060.26
561.04	1865.70
561.24	2070.50
561.43	1957.86
561.63	2107.36
561.82	2011.11
562.02	2011.11
562.22	1925.09
562.41	1912.80
562.61	1900.52
562.80	1935.33
563.00	2234.33
563.19	1925.09
563.39	1931.23
563.59	2047.97
563.78	1923.04
563.98	1849.32
564.17	1943.52
564.37	1912.80
564.56	1976.29
564.76	1880.04
564.96	2086.88
565.15	1873.89
565.35	2074.59
565.54	1908.71
565.74	1986.53
565.93	2088.93
566.13	1966.05
566.32	1988.58
566.52	1988.58
566.71	1937.38
566.91	2127.84
567.11	1959.91
567.30	1925.09
567.50	2029.54
567.69	1996.77
567.89	1982.43
568.08	1867.75
568.28	2025.44
568.47	1873.89
568.67	1992.67
568.86	1945.57
569.06	2058.21
569.25	1976.29
569.45	1906.66
569.64	1957.86
569.84	1964.00
570.04	2031.58
570.23	1951.71
570.43	1976.29
570.62	1996.77
570.82	2080.74
571.01	2019.30
571.21	2029.54
571.40	1886.18
571.60	2015.20
571.79	1986.53
571.99	2025.44
572.18	1939.43
572.38	1970.15
572.57	1929.19
572.77	2066.40
572.96	2195.42
573.16	2027.49
573.35	1941.47
573.55	2019.30
573.74	2039.78
573.94	2007.01
574.13	1947.62
574.33	2062.30
574.52	2031.58
574.71	1988.58
574.91	2004.96
575.10	1927.14
575.30	1935.33
575.49	1832.93
575.69	1886.18
575.88	2062.30
576.08	1984.48
576.27	2119.65
576.47	2050.02
576.66	2168.80
576.86	2062.30
577.05	2142.18
577.25	2086.88
577.44	2242.53
577.64	2000.87
577.83	2056.16
578.02	1984.48
578.22	2150.37
578.41	2215.90
578.61	1910.75
578.80	1892.32
579.00	1998.82
579.19	1947.62
579.39	2074.59
579.58	2066.40
579.77	1998.82
579.97	2099.17
580.16	2107.36
580.36	2054.11
580.55	2142.18
580.75	2142.18
580.94	2070.50
581.13	2224.09
581.33	2146.27
581.52	2002.91
581.72	2224.09
581.91	2146.27
582.11	2052.06
582.30	2115.55
582.49	2064.35
582.69	2127.84
582.88	2064.35
583.08	2062.30
583.27	2095.07
583.47	1970.15
583.66	1986.53
583.85	1894.37
584.05	2035.68
584.24	2176.99
584.44	2158.56
584.63	2133.98
584.82	2228.19
585.02	2187.23
585.21	2203.61
585.41	2217.95
585.60	2140.13
585.79	2293.72
585.99	2164.70
586.18	2121.70
586.37	2596.82
586.57	4022.21
586.76	11786.06
586.96	30692.91
587.15	45219.15
587.34	54506.69
587.54	60390.50
587.73	56634.53
587.93	40162.72
588.12	29937.21
588.31	23994.00
588.51	20690.63
588.70	18966.24
588.89	17485.56
589.09	15298.33
589.28	13084.47
589.47	10760.03
589.67	8636.28
589.86	6588.32
590.06	4865.97
590.25	3872.71
590.44	3153.87
590.64	2686.94
590.83	2332.64
591.02	2308.06
591.22	2154.46
591.41	2117.60
591.60	2117.60
591.80	2230.24
591.99	1984.48
592.18	1996.77
592.38	2140.13
592.57	2007.01
592.76	2045.92
592.96	2123.74
593.15	2093.02
593.34	2062.30
593.54	2017.25
593.73	2045.92
593.92	2103.26
594.12	2062.30
594.31	2111.46
594.50	2140.13
594.70	2150.37
594.89	2287.58
595.08	1955.81
595.28	2095.07
595.47	2293.72
595.66	2107.36
595.86	1935.33
596.05	2060.26
596.24	2002.91
596.43	2160.61
596.63	2121.70
596.82	1986.53
597.01	2043.87
597.21	2131.94
597.40	2037.73
597.59	2056.16
597.79	2070.50
597.98	2039.78
598.17	2035.68
598.36	2127.84
598.56	2076.64
598.75	1996.77
598.94	2041.82
599.14	2009.06
599.33	2015.20
599.52	2136.03
599.71	1939.43
599.91	2115.55
600.10	2084.83
600.29	2047.97
600.48	2002.91
600.68	1992.67
600.87	1998.82
601.06	1851.36
601.26	1943.52
601.45	2019.30
601.64	2000.87
601.83	2025.44
602.03	1980.39
602.22	1986.53
602.41	2035.68
602.60	2174.94
602.80	2101.22
602.99	2035.68
603.18	2011.11
603.37	2052.06
603.57	2004.96
603.76	1984.48
603.95	2047.97
604.14	1998.82
604.34	1964.00
604.53	1953.76
604.72	1953.76
604.91	2072.54
605.10	2017.25
605.30	1914.85
605.49	2086.88
605.68	2027.49
605.87	2076.64
606.07	1982.43
606.26	1988.58
606.45	2060.26
606.64	1996.77
606.84	2027.49
607.03	2084.83
607.22	2152.42
607.41	2058.21
607.60	2031.58
607.80	2050.02
607.99	2019.30
608.18	1988.58
608.37	2015.20
608.56	1937.38
608.76	2107.36
608.95	2197.47
609.14	2074.59
609.33	2193.37
609.52	2154.46
609.72	2084.83
609.91	2080.74
610.10	1968.10
610.29	2140.13
610.48	2119.65
610.68	2058.21
610.87	2015.20
611.06	2035.68
611.25	1949.67
611.44	2199.52
611.63	1996.77
611.83	2156.51
612.02	1877.99
612.21	2064.35
612.40	1851.36
612.59	1984.48
612.79	1861.60
612.98	2007.01
613.17	2074.59
613.36	2007.01
613.55	2117.60
613.74	2080.74
613.93	2119.65
614.13	2199.52
614.32	2162.66
614.51	2232.29
614.70	2088.93
614.89	1984.48
615.08	2090.98
615.28	2428.89
615.47	1918.95
615.66	2084.83
615.85	2086.88
616.04	2244.57
616.23	2082.78
616.42	2095.07
616.62	2097.12
616.81	2029.54
617.00	2023.39
617.19	1974.24
617.38	1920.99
617.57	2088.93
617.76	2086.88
617.95	1955.81
618.15	2060.26
618.34	2070.50
618.53	1843.17
618.72	2103.26
618.91	2086.88
619.10	2140.13
619.29	1974.24
619.48	1976.29
619.68	1863.65
619.87	1947.62
620.06	1945.57
620.25	2000.87
620.44	1966.05
620.63	2011.11
620.82	1998.82
621.01	1974.24
621.20	1925.09
621.39	2037.73
621.59	2037.73
621.78	1970.15
621.97	2011.11
622.16	2023.39
622.35	2080.74
622.54	2019.30
622.73	2072.54
622.92	1851.36
623.11	2068.45
623.30	1910.75
623.49	2056.16
623.68	1949.67
623.88	2082.78
624.07	2015.20
624.26	1974.24
624.45	1998.82
624.64	2019.30
624.83	1994.72
625.02	1896.42
625.21	1949.67
625.40	1947.62
625.59	2068.45
625.78	1955.81
625.97	2070.50
626.16	2148.32
626.35	2144.22
626.54	2004.96
626.74	2174.94
626.93	2037.73
627.12	1935.33
627.31	2080.74
627.50	2117.60
627.69	2045.92
627.88	1970.15
628.07	1966.05
628.26	1882.08
628.45	1902.56
628.64	1949.67
628.83	1959.91
629.02	1871.84
629.21	2037.73
629.40	2027.49
629.59	2070.50
629.78	1902.56
629.97	1964.00
630.16	2029.54
630.35	1982.43
630.54	2041.82
630.73	1935.33
630.92	2070.50
631.11	1941.47
631.30	2011.11
631.49	2097.12
631.68	1966.05
631.87	2035.68
632.06	1918.95
632.25	2105.31
632.44	2052.06
632.63	2068.45
632.82	2004.96
633.01	2031.58
633.20	2082.78
633.39	1894.37
633.58	2004.96
633.77	2052.06
633.96	2084.83
634.15	2043.87
634.34	1988.58
634.53	2111.46
634.72	2045.92
634.91	1918.95
635.10	2029.54
635.29	2039.78
635.48	1955.81
635.67	1933.28
635.86	1867.75
636.05	1984.48
636.24	2033.63
636.43	1992.67
636.62	1970.15
636.81	1783.78
637.00	1939.43
637.19	1947.62
637.38	1916.90
637.57	1953.76
637.76	2058.21
637.95	2127.84
638.14	2090.98
638.33	2123.74
638.52	2058.21
638.71	1937.38
638.89	1855.46
639.08	2172.89
639.27	2197.47
639.46	2289.63
639.65	2619.35
639.84	2654.17
640.03	2789.33
640.22	2678.74
640.41	2670.55
640.60	2455.51
640.79	2312.16
640.98	2164.70
641.17	2197.47
641.36	2213.85
641.55	2101.22
641.74	2035.68
641.92	2017.25
642.11	1961.95
642.30	1992.67
642.49	2002.91
642.68	2033.63
642.87	2027.49
643.06	1982.43
643.25	1957.86
643.44	1920.99
643.63	1941.47
643.82	1974.24
644.00	1943.52
644.19	1937.38
644.38	1902.56
644.57	2025.44
644.76	1943.52
644.95	1910.75
645.14	1961.95
645.33	1953.76
645.52	1964.00
645.71	1890.28
645.89	1890.28
646.08	1914.85
646.27	1912.80
646.46	2152.42
646.65	1918.95
646.84	1931.23
647.03	1927.14
647.22	2043.87
647.40	2023.39
647.59	1914.85
647.78	1841.12
647.97	1955.81
648.16	1828.84
648.35	2058.21
648.54	2039.78
648.73	1947.62
648.91	2082.78
649.10	1996.77
649.29	1923.04
649.48	1949.67
649.67	2007.01
649.86	2080.74
650.05	2058.21
650.23	2176.99
650.42	2070.50
650.61	2217.95
650.80	2250.72
650.99	2269.15
651.18	2054.11
651.36	2050.02
651.55	1982.43
651.74	2072.54
651.93	1941.47
652.12	2013.15
652.31	2056.16
652.49	2045.92
652.68	1988.58
652.87	2113.50
653.06	2041.82
653.25	2103.26
653.44	1923.04
653.62	2103.26
653.81	1945.57
654.00	1998.82
654.19	2011.11
654.38	2205.66
654.56	1996.77
654.75	2015.20
654.94	2123.74
655.13	2015.20
655.32	1941.47
655.51	2066.40
655.69	1984.48
655.88	2043.87
656.07	1873.89
656.26	1959.91
656.45	1906.66
656.63	2033.63
656.82	2062.30
657.01	2011.11
657.20	1908.71
657.38	2146.27
657.57	1980.39
657.76	1857.51
657.95	1959.91
658.14	1966.05
658.32	2013.15
658.51	1859.56
658.70	1992.67
658.89	2090.98
659.08	2031.58
659.26	2066.40
659.45	1888.23
659.64	2037.73
659.83	1970.15
660.01	2312.16
660.20	1982.43
660.39	2093.02
660.58	1853.41
660.76	2099.17
660.95	1916.90
661.14	1992.67
661.33	1865.70
661.51	1988.58
661.70	1920.99
661.89	1959.91
662.08	1955.81
662.26	1898.47
662.45	1900.52
662.64	2088.93
662.83	2019.30
663.01	1892.32
663.20	2011.11
663.39	2082.78
663.58	1923.04
663.76	1961.95
663.95	2025.44
664.14	1896.42
664.32	1980.39
664.51	1886.18
664.70	1863.65
664.89	2050.02
665.07	1871.84
665.26	2070.50
665.45	1857.51
665.64	1961.95
665.82	1880.04
666.01	2031.58
666.20	1910.75
666.38	2138.08
666.57	2127.84
666.76	2736.09
666.95	6750.10
667.13	15081.24
667.32	20770.50
667.51	24843.91
667.69	26709.61
667.88	25675.38
668.07	18673.38
668.25	14391.08
668.44	11732.81
668.63	10131.30
668.81	8935.29
669.00	7747.47
669.19	7055.25
669.38	6219.68
669.56	5255.09
669.75	4335.55
669.94	3596.23
670.12	3127.25
670.31	2668.50
670.50	2443.23
670.68	2269.15
670.87	2230.24
671.06	2017.25
671.24	2142.18
671.43	2230.24
671.62	2150.37
671.80	2043.87
671.99	2105.31
672.18	1984.48
672.36	2080.74
672.55	2054.11
672.74	2029.54
672.92	1968.10
673.11	2056.16
673.29	1957.86
673.48	2080.74
673.67	1916.90
673.85	2056.16
674.04	2009.06
674.23	1986.53
674.41	2109.41
674.60	1902.56
674.79	1839.08
674.97	1820.64
675.16	2002.91
675.34	2023.39
675.53	1904.61
675.72	1970.15
675.90	2015.20
676.09	1933.28
676.28	1994.72
676.46	1828.84
676.65	2107.36
676.83	1929.19
677.02	1976.29
677.21	1951.71
677.39	2021.35
677.58	1900.52
677.77	1947.62
677.95	1900.52
678.14	1990.63
678.32	1968.10
678.51	1931.23
678.70	2174.94
678.88	1990.63
679.07	1953.76
679.25	1978.34
679.44	2011.11
679.63	1912.80
679.81	1945.57
680.00	1972.19
680.18	2025.44
680.37	2045.92
680.55	1939.43
680.74	1941.47
680.93	1822.69
681.11	1955.81
681.30	1933.28
681.48	2031.58
681.67	1974.24
681.85	1996.77
682.04	1941.47
682.23	2037.73
682.41	2033.63
682.60	1918.95
682.78	1994.72
682.97	1863.65
683.15	2021.35
683.34	1947.62
683.53	1984.48
683.71	1861.60
683.90	2113.50
684.08	2099.17
684.27	1949.67
684.45	2078.69
684.64	2045.92
684.82	1927.14
685.01	2017.25
685.19	1931.23
685.38	2179.04
685.57	2021.35
685.75	1970.15
685.94	1916.90
686.12	1880.04
686.31	1910.75
686.49	2115.55
686.68	1794.02
686.86	2021.35
687.05	1931.23
687.23	2072.54
687.42	1957.86
687.60	1851.36
687.79	2004.96
687.97	2121.70
688.16	2035.68
688.34	2011.11
688.53	1781.73
688.71	2039.78
688.90	2045.92
689.08	1898.47
689.27	1865.70
689.45	1955.81
689.64	2041.82
689.82	1982.43
690.01	1988.58
690.19	2047.97
690.38	2015.20
690.56	2023.39
690.75	1886.18
690.93	1986.53
691.12	1791.97
691.30	1916.90
691.49	1953.76
691.67	1933.28
691.86	2074.59
692.04	1974.24
692.23	1968.10
692.41	1992.67
692.60	2144.22
692.78	2082.78
692.97	2027.49
693.15	2054.11
693.34	2162.66
693.52	2129.89
693.71	1966.05
693.89	1978.34
694.08	1900.52
694.26	2066.40
694.44	1982.43
694.63	1972.19
694.81	1916.90
695.00	1982.43
695.18	2027.49
695.37	2121.70
695.55	1916.90
695.74	1964.00
695.92	1933.28
696.10	2072.54
696.29	1906.66
696.47	1888.23
696.66	1851.36
696.84	1918.95
697.03	2011.11
697.21	2160.61
697.40	2764.76
697.58	2035.68
697.76	1941.47
697.95	2033.63
698.13	1904.61
698.32	1853.41
698.50	1976.29
698.68	1990.63
698.87	1976.29
699.05	2011.11
699.24	1998.82
699.42	1896.42
699.61	2009.06
699.79	1990.63
699.97	1970.15
700.16	1884.13
700.34	1908.71
700.53	1968.10
700.71	2074.59
700.89	2015.20
701.08	1918.95
701.26	1964.00
701.45	2400.22
701.63	1837.03
701.81	2000.87
702.00	1867.75
702.18	1902.56
702.37	1990.63
702.55	2222.05
702.73	2256.86
702.92	2187.23
703.10	2281.44
703.28	2189.28
703.47	2017.25
703.65	2228.19
703.84	2133.98
704.02	2072.54
704.20	2183.13
704.39	2033.63
704.57	1972.19
704.75	2039.78
704.94	2099.17
705.12	2072.54
705.30	2254.81
705.49	3647.43
705.67	8916.86
705.86	18407.14
706.04	22916.77
706.22	27035.24
706.41	28245.58
706.59	25468.54
706.77	18112.24
706.96	14358.31
707.14	12803.90
707.32	10880.86
707.51	9553.77
707.69	8046.47
707.87	6522.78
708.06	5171.12
708.24	4186.05
708.42	3219.41
708.61	2795.48
708.79	2318.30
708.97	2213.85
709.16	2125.79
709.34	2082.78
709.52	2004.96
709.71	1982.43
709.89	2043.87
710.07	1990.63
710.26	1920.99
710.44	2054.11
710.62	2015.20
710.80	2068.45
710.99	2025.44
711.17	2011.11
711.35	1841.12
711.54	1912.80
711.72	2062.30
711.90	2045.92
712.09	2000.87
712.27	1900.52
712.45	2009.06
712.63	1912.80
712.82	1988.58
713.00	2007.01
713.18	1984.48
713.37	1982.43
713.55	2045.92
713.73	1972.19
713.91	2009.06
714.10	1986.53
714.28	2007.01
714.46	1943.52
714.65	1937.38
714.83	1949.67
715.01	1976.29
715.19	2007.01
715.38	1912.80
715.56	1972.19
715.74	1912.80
715.92	1867.75
716.11	2007.01
716.29	1791.97
716.47	1992.67
716.65	1939.43
716.84	1847.27
717.02	2078.69
717.20	1880.04
717.38	1968.10
717.57	1955.81
717.75	1978.34
717.93	1855.46
718.11	2125.79
718.30	1882.08
718.48	1896.42
718.66	1986.53
718.84	2090.98
719.03	1994.72
719.21	1890.28
719.39	2125.79
719.57	1943.52
719.75	2088.93
719.94	1900.52
720.12	1933.28
720.30	1933.28
720.48	2023.39
720.67	1918.95
720.85	1947.62
721.03	1986.53
721.21	1837.03
721.39	2041.82
721.58	2037.73
721.76	1959.91
721.94	2021.35
722.12	1929.19
722.30	2068.45
722.49	1898.47
722.67	1966.05
722.85	1970.15
723.03	1839.08
723.21	1927.14
723.40	1916.90
723.58	2070.50
723.76	2035.68
723.94	2117.60
724.12	2045.92
724.30	2062.30
724.49	2107.36
724.67	1892.32
724.85	2113.50
725.03	1871.84
725.21	2033.63
725.40	2109.41
725.58	1931.23
725.76	1984.48
725.94	1933.28
726.12	1925.09
726.30	1941.47
726.49	2002.91
726.67	1966.05
726.85	1961.95
727.03	2201.57
727.21	3184.59
727.39	4702.14
727.57	6018.98
727.76	6743.96
727.94	7255.95
728.12	7176.08
728.30	5640.11
728.48	4605.88
728.66	4440.00
728.84	3823.56
729.03	3389.39
729.21	2973.65
729.39	2562.01
729.57	2340.83
729.75	2256.86
729.93	2144.22
730.11	1984.48
730.30	2002.91
730.48	1992.67
730.66	2156.51
730.84	2035.68
731.02	1898.47
731.20	1918.95
731.38	1949.67
731.56	1972.19
731.74	1929.19
731.93	2019.30
732.11	1937.38
732.29	1949.67
732.47	1992.67
732.65	2002.91
732.83	2058.21
733.01	2004.96
733.19	1853.41
733.37	2041.82
733.56	2023.39
733.74	1875.94
733.92	2056.16
734.10	1929.19
734.28	1941.47
734.46	1853.41
734.64	1943.52
734.82	1955.81
735.00	1908.71
735.18	1873.89
735.36	1906.66
735.54	1951.71
735.73	1998.82
735.91	1970.15
736.09	1951.71
736.27	1916.90
736.45	1966.05
736.63	1837.03
736.81	1943.52
736.99	2037.73
737.17	2086.88
737.35	1865.70
737.53	1988.58
737.71	1970.15
737.89	2099.17
738.07	1871.84
738.25	1898.47
738.43	1933.28
738.61	1873.89
738.80	1861.60
738.98	1906.66
739.16	1888.23
739.34	1906.66
739.52	2076.64
739.70	2017.25
739.88	2054.11
740.06	2041.82
740.24	1816.55
740.42	2062.30
740.60	1892.32
740.78	1865.70
740.96	1933.28
741.14	1906.66
741.32	2009.06
741.50	1920.99
741.68	2115.55
741.86	2025.44
742.04	1847.27
742.22	1834.98
742.40	1949.67
742.58	2062.30
742.76	1900.52
742.94	1988.58
743.12	1916.90
743.30	2027.49
743.48	2033.63
743.66	1955.81
743.84	2037.73
744.02	1935.33
744.20	1953.76
744.38	1884.13
744.56	1871.84
744.74	2099.17
744.92	1984.48
745.10	2074.59
745.28	2015.20
745.46	2047.97
745.64	1914.85
745.82	1988.58
746.00	1988.58
746.18	1914.85
746.36	1861.60
746.54	1976.29
746.72	1945.57
746.90	1931.23
747.08	2056.16
747.26	1906.66
747.44	2056.16
747.62	2023.39
747.80	1939.43
747.98	1996.77
748.15	1970.15
748.33	2142.18
748.51	1914.85
748.69	2117.60
748.87	1927.14
749.05	1914.85
749.23	1892.32
749.41	2007.01
749.59	1923.04
749.77	2070.50
749.95	1886.18
750.13	1916.90
750.31	2054.11
750.49	1910.75
750.67	2037.73
750.85	2088.93
751.03	2023.39
751.20	2140.13
751.38	1898.47
751.56	1941.47
751.74	1957.86
751.92	2023.39
752.10	1884.13
752.28	2009.06
752.46	1976.29
752.64	1980.39
752.82	1906.66
753.00	2025.44
753.18	1888.23
753.35	1931.23
753.53	1951.71
753.71	1902.56
753.89	1984.48
754.07	2013.15
754.25	1994.72
754.43	2009.06
754.61	1871.84
754.79	1951.71
754.97	1927.14
755.14	2056.16
755.32	1886.18
755.50	1939.43
755.68	1986.53
755.86	1857.51
756.04	1845.22
756.22	1888.23
756.40	1998.82
756.57	2119.65
756.75	1937.38
756.93	1998.82
757.11	1984.48
757.29	1826.79
757.47	1906.66
757.65	1830.88
757.82	1779.68
758.00	1857.51
758.18	1859.56
758.36	1867.75
758.54	2095.07
758.72	1886.18
758.90	2076.64
759.07	1974.24
759.25	1906.66
759.43	2033.63
759.61	1863.65
759.79	2668.50
759.97	1988.58
760.15	1898.47
760.32	2029.54
760.50	2011.11
760.68	2127.84
760.86	1834.98
761.04	2050.02
761.22	2066.40
761.39	1945.57
761.57	1925.09
761.75	1982.43
761.93	2002.91
762.11	1869.80
762.28	1955.81
762.46	1920.99
762.64	2023.39
762.82	1951.71
763.00	1941.47
763.18	1996.77
763.35	1955.81
763.53	1984.48
763.71	1929.19
763.89	1937.38
764.07	1980.39
764.24	1886.18
764.42	2011.11
764.60	1959.91
764.78	1900.52
764.96	1998.82
765.13	2097.12
765.31	1953.76
765.49	1949.67
765.67	1861.60
765.84	1914.85
766.02	1937.38
766.20	1880.04
766.38	1988.58
766.56	2013.15
766.73	2011.11
766.91	1910.75
767.09	1994.72
767.27	2015.20
767.44	1869.80
767.62	2127.84
767.80	1980.39
767.98	1939.43
768.15	1906.66
768.33	2031.58
768.51	1978.34
768.69	2043.87
768.87	1955.81
769.04	1986.53
769.22	2154.46
769.40	2058.21
769.58	2263.01
769.75	1968.10
769.93	2097.12
770.11	1900.52
770.28	1912.80
770.46	2021.35
770.64	1941.47
770.82	1957.86
770.99	1920.99
771.17	1988.58
771.35	1959.91
771.53	1886.18
771.70	1972.19
771.88	1912.80
772.06	1996.77
772.23	1972.19
772.41	1994.72
772.59	1929.19
772.77	1966.05
772.94	1939.43
773.12	1994.72
773.30	1898.47
773.47	2000.87
773.65	1875.94
773.83	2015.20
774.01	1978.34
774.18	1779.68
774.36	1978.34
774.54	1923.04
774.71	1970.15
774.89	1837.03
775.07	1902.56
775.24	1890.28
775.42	1935.33
775.60	2070.50
775.78	1988.58
775.95	1791.97
776.13	1771.49
776.31	1708.01
776.48	1968.10
776.66	2045.92
776.84	1939.43
777.01	1853.41
777.19	1910.75
777.37	1904.61
777.54	2064.35
777.72	2062.30
777.90	1906.66
778.07	1908.71
778.25	2148.32
778.43	2000.87
778.60	1900.52
778.78	2037.73
778.96	2072.54
779.13	1873.89
779.31	1972.19
779.49	1970.15
779.66	1898.47
779.84	1974.24
780.01	1927.14
780.19	1828.84
780.37	2039.78
780.54	2031.58
780.72	1920.99
780.90	1914.85
781.07	1925.09
781.25	1882.08
781.43	2007.01
781.60	1984.48
781.78	2047.97
781.95	2023.39
782.13	1941.47
782.31	1968.10
782.48	1820.64
782.66	1966.05
782.83	2041.82
783.01	2041.82
783.19	1998.82
783.36	1935.33
783.54	1894.37
783.72	2078.69
783.89	1982.43
784.07	1968.10
784.24	1970.15
784.42	2093.02
784.60	2035.68
784.77	1947.62
784.95	1841.12
785.12	1855.46
785.30	2000.87
785.47	1888.23
785.65	1832.93
785.83	1929.19
786.00	1916.90
786.18	2013.15
786.35	1892.32
786.53	1904.61
786.71	1957.86
786.88	2054.11
787.06	1976.29
787.23	1947.62
787.41	1863.65
787.58	1951.71
787.76	1877.99
787.94	1980.39
788.11	1914.85
788.29	1927.14
788.46	1888.23
788.64	1902.56
788.81	1916.90
788.99	1894.37
789.16	1906.66
789.34	1980.39
789.52	1908.71
789.69	1923.04
789.87	1796.07
790.04	1935.33
790.22	1964.00
790.39	2095.07
790.57	1925.09
790.74	1914.85
790.92	1931.23
791.09	1849.32
791.27	1972.19
791.44	2023.39
791.62	1861.60
791.79	2017.25
791.97	1951.71
792.15	2201.57
792.32	2015.20
792.50	2058.21
792.67	2080.74
792.85	2062.30
793.02	1976.29
793.20	1933.28
793.37	1818.60
793.55	1912.80
793.72	1808.36
793.90	2007.01
794.07	1933.28
794.25	1947.62
794.42	1931.23
794.60	1857.51
794.77	2013.15
794.95	2041.82
795.12	2007.01
795.30	1931.23
795.47	1818.60
795.65	2263.01
795.82	2060.26
796.00	1849.32
796.17	1988.58
796.34	1927.14
796.52	2029.54
796.69	2000.87
796.87	2047.97
797.04	1937.38
797.22	2019.30
797.39	1959.91
797.57	2045.92
797.74	1994.72
797.92	1982.43
798.09	1847.27
798.27	2035.68
798.44	1966.05
798.62	1867.75
798.79	2056.16
798.96	1939.43
799.14	1904.61
799.31	2093.02
799.49	1875.94
799.66	1935.33
799.84	2015.20
800.01	1900.52
800.19	2045.92
800.36	1882.08
800.53	1920.99
800.71	2111.46
800.88	2078.69
801.06	1918.95
801.23	1898.47
801.41	1902.56
801.58	1937.38
801.75	1828.84
801.93	1988.58
802.10	2027.49
802.28	1884.13
802.45	1916.90
802.63	2041.82
802.80	2062.30
802.97	1974.24
803.15	2021.35
803.32	1900.52
803.50	1927.14
803.67	1916.90
803.84	1841.12
804.02	1894.37
804.19	1943.52
804.37	1818.60
804.54	1855.46
804.71	1843.17
804.89	1920.99
805.06	1892.32
805.24	1884.13
805.41	1898.47
805.58	1839.08
805.76	2084.83
805.93	1996.77
806.10	2043.87
806.28	2015.20
806.45	1916.90
806.63	1994.72
806.80	2025.44
806.97	1992.67
807.15	2060.26
807.32	1953.76
807.49	1941.47
807.67	1898.47
807.84	1994.72
808.01	1873.89
808.19	2185.18
808.36	2105.31
808.54	1935.33
808.71	1904.61
808.88	1953.76
809.06	1988.58
809.23	2056.16
809.40	1900.52
809.58	2037.73
809.75	1947.62
809.92	1939.43
810.10	2064.35
810.27	1884.13
810.44	1990.63
810.62	1916.90
810.79	1978.34
810.96	1900.52
811.14	1900.52
811.31	1964.00
811.48	2103.26
811.66	1945.57
811.83	2013.15
812.00	1964.00
812.18	2015.20
812.35	2058.21
812.52	1841.12
812.69	1873.89
812.87	2029.54
813.04	1904.61
813.21	1869.80
813.39	1916.90
813.56	1871.84
813.73	2025.44
813.91	1802.21
814.08	1988.58
814.25	1880.04
814.42	1837.03
814.60	1931.23
814.77	2017.25
814.94	1961.95
815.12	1857.51
815.29	2056.16
815.46	1984.48
815.63	1998.82
815.81	1990.63
815.98	1937.38
816.15	1923.04
816.33	1920.99
816.50	1929.19
816.67	2017.25
816.84	1927.14
817.02	1914.85
817.19	1937.38
817.36	1918.95
817.53	1964.00
817.71	1837.03
817.88	1947.62
818.05	1908.71
818.22	1898.47
818.40	2037.73
818.57	1890.28
818.74	2000.87
818.91	1912.80
819.09	2009.06
819.26	1976.29
819.43	1923.04
819.60	1857.51
819.78	1894.37
819.95	2056.16
820.12	1972.19
820.29	2068.45
820.47	2045.92
820.64	1943.52
820.81	1824.74
820.98	1820.64
821.15	1916.90
821.33	2023.39
821.50	1824.74
821.67	2050.02
821.84	1892.32
822.02	1953.76
822.19	2095.07
822.36	1886.18
822.53	1923.04
822.70	1882.08
822.88	1939.43
823.05	2043.87
823.22	1875.94
823.39	1986.53
823.56	1961.95
823.74	2121.70
823.91	1918.95
824.08	1888.23
824.25	1877.99
824.42	2082.78
824.60	1880.04
824.77	2013.15
824.94	1961.95
825.11	1929.19
825.28	1847.27
825.45	1966.05
825.63	1943.52
825.80	1937.38
825.97	2029.54
826.14	1953.76
826.31	1863.65
826.48	1970.15
826.66	1931.23
826.83	1877.99
827.00	1976.29
827.17	1966.05
827.34	1953.76
827.51	1873.89
827.69	1994.72
827.86	1900.52
828.03	2007.01
828.20	1984.48
828.37	1916.90
828.54	1964.00
828.71	1959.91
828.89	2117.60
829.06	1992.67
829.23	2002.91
829.40	1884.13
829.57	1925.09
829.74	2062.30
829.91	1855.46
830.09	1892.32
830.26	1966.05
830.43	2090.98
830.60	1970.15
830.77	2070.50
830.94	2021.35
831.11	2021.35
831.28	1964.00
831.46	2031.58
831.63	1849.32
831.80	1964.00
831.97	1908.71
832.14	1914.85
832.31	1980.39
832.48	1990.63
832.65	2109.41
832.82	1976.29
832.99	1982.43
833.17	1832.93
833.34	2017.25
833.51	1953.76
833.68	1853.41
833.85	1974.24
834.02	1882.08
834.19	1884.13
834.36	1920.99
834.53	1961.95
834.70	1992.67
834.87	1990.63
835.04	1933.28
835.22	1941.47
835.39	1908.71
835.56	1906.66
835.73	1898.47
835.90	2047.97
836.07	1894.37
836.24	1939.43
836.41	1877.99
836.58	1828.84
836.75	2017.25
836.92	1990.63
837.09	1927.14
837.26	1947.62
837.43	2027.49
837.60	1929.19
837.77	1992.67
837.94	1964.00
838.12	2101.22
838.29	1968.10
838.46	1892.32
838.63	1898.47
838.80	2095.07
838.97	2017.25
839.14	1931.23
839.31	1996.77
839.48	2009.06
839.65	1925.09
839.82	1996.77
839.99	2007.01
840.16	1943.52
840.33	1986.53
840.50	1933.28
840.67	1933.28
840.84	1841.12
841.01	1920.99
841.18	1933.28
841.35	1976.29
841.52	2007.01
841.69	2115.55
841.86	1988.58
842.03	1875.94
842.20	1978.34
842.37	1918.95
842.54	1957.86
842.71	1896.42
842.88	1894.37
843.05	1970.15
843.22	1959.91
843.39	2060.26
843.56	1970.15
843.73	1933.28
843.90	1939.43
844.07	1900.52
844.24	1931.23
844.41	2064.35
844.58	1961.95
844.75	1951.71
844.92	1984.48
845.09	1904.61
845.26	1927.14
845.43	1964.00
845.60	1957.86
845.77	2056.16
845.94	1935.33
846.10	2009.06
846.27	1767.40
846.44	1941.47
846.61	1892.32
846.78	1957.86
846.95	1972.19
847.12	1898.47
847.29	1884.13
847.46	1886.18
847.63	2035.68
847.80	1853.41
847.97	1984.48
848.14	2179.04
848.31	1908.71
848.48	1900.52
848.65	1980.39
848.82	1923.04
848.98	2174.94
849.15	1982.43
849.32	2058.21
849.49	2064.35
849.66	1931.23
849.83	1966.05
850.00	1869.80
850.17	2007.01
850.34	1859.56
850.51	1920.99
850.68	1853.41
850.85	2105.31
851.01	1916.90
851.18	2007.01
851.35	1974.24
851.52	1957.86
851.69	2095.07
851.86	1839.08
852.03	1896.42
852.20	2082.78
852.37	2009.06
852.53	1832.93
852.70	1929.19
852.87	1943.52
853.04	2039.78
853.21	1920.99
853.38	2027.49
853.55	2111.46
853.72	1996.77
853.89	1896.42
854.05	1900.52
854.22	1947.62
854.39	1906.66
854.56	1896.42
854.73	1951.71
854.90	1910.75
855.07	1939.43
855.23	1880.04
855.40	1884.13
855.57	1886.18
855.74	1814.50
855.91	2174.94
856.08	1859.56
856.25	1865.70
856.41	1941.47
856.58	1931.23
856.75	1955.81
856.92	1830.88
857.09	2025.44
857.26	1875.94
857.42	1871.84
857.59	2002.91
857.76	1982.43
857.93	1964.00
858.10	1925.09
858.27	1875.94
858.43	1959.91
858.60	1855.46
858.77	1877.99
858.94	1908.71
859.11	2070.50
859.27	1855.46
859.44	1943.52
859.61	2062.30
859.78	1970.15
859.95	1910.75
860.12	1875.94
860.28	2093.02
860.45	2041.82
860.62	1951.71
860.79	2007.01
860.95	1957.86
861.12	1929.19
861.29	1957.86
861.46	1929.19
861.63	2015.20
861.79	1920.99
861.96	1861.60
862.13	1910.75
862.30	2000.87
862.47	1837.03
862.63	1886.18
862.80	2017.25
862.97	1994.72
863.14	1943.52
863.30	1947.62
863.47	1828.84
863.64	2068.45
863.81	1994.72
863.97	1867.75
864.14	1998.82
864.31	1966.05
864.48	1953.76
864.65	1984.48
864.81	1976.29
864.98	1968.10
865.15	2021.35
865.32	2047.97
865.48	2039.78
865.65	2123.74
865.82	1900.52
865.98	2007.01
866.15	2011.11
866.32	1933.28
866.49	1888.23
866.65	2013.15
866.82	1923.04
866.99	2002.91
867.16	1851.36
867.32	1875.94
867.49	1910.75
867.66	1912.80
867.83	1904.61
867.99	1859.56
868.16	2009.06
868.33	1882.08
868.49	1916.90
868.66	1910.75
868.83	2035.68
868.99	1933.28
869.16	2041.82
869.33	2025.44
869.50	1978.34
869.66	2009.06
869.83	2002.91
870.00	1865.70
870.16	2013.15
870.33	1947.62
870.50	2015.20
870.66	1966.05
870.83	1994.72
871.00	1910.75
871.17	1966.05
871.33	1916.90
871.50	1943.52
871.67	1892.32
871.83	1847.27
872.00	2062.30
872.17	1949.67
872.33	2088.93
872.50	2027.49
872.67	1937.38
872.83	1961.95
873.00	2002.91
873.17	1986.53
873.33	2064.35
873.50	2037.73
873.67	1853.41
873.83	1914.85
874.00	1908.71
874.16	2007.01
874.33	1976.29
874.50	1916.90
874.66	2021.35
874.83	1875.94
875.00	2043.87
875.16	1998.82
875.33	2035.68
875.50	1769.44
875.66	1873.89
875.83	1974.24
875.99	1970.15
876.16	1941.47
876.33	1898.47
876.49	1904.61
876.66	1918.95
876.83	1849.32
876.99	1843.17
877.16	1912.80
877.32	1927.14
877.49	1955.81
877.66	1900.52
877.82	2070.50
877.99	1964.00
878.15	1994.72
878.32	2025.44
878.49	2025.44
878.65	1980.39
878.82	2072.54
878.98	1910.75
879.15	2021.35
879.32	1978.34
879.48	1972.19
879.65	1910.75
879.81	1843.17
879.98	1925.09
880.15	1925.09
880.31	2009.06
880.48	1906.66
880.64	2045.92
880.81	1970.15
880.97	2043.87
881.14	2039.78
881.31	1791.97
881.47	2162.66
881.64	1916.90
881.80	1871.84
881.97	1998.82
882.13	1984.48
882.30	1910.75
882.47	1918.95
882.63	1947.62
882.80	1890.28
882.96	1951.71
883.13	2080.74
883.29	1961.95
883.46	1935.33
883.62	2105.31
883.79	1951.71
883.95	2023.39
884.12	1882.08
884.29	2058.21
884.45	1951.71
884.62	1931.23
884.78	1837.03
884.95	2115.55
885.11	1929.19
885.28	2031.58
885.44	1923.04
885.61	1923.04
885.77	2064.35
885.94	2007.01
886.10	1939.43
886.27	1925.09
886.43	2099.17
886.60	2054.11
886.76	1908.71
886.93	1884.13
887.09	2027.49
887.26	1826.79
887.42	1925.09
887.59	2047.97
887.75	2113.50
887.92	2007.01
888.08	2050.02
888.25	2123.74
888.41	2015.20
888.58	1898.47
888.74	1855.46
888.91	1984.48
>>>>>End Processed Spectral Data<<<<<
