SpectraSuite Data File
++++++++++++++++++++++++++++++++++++
Date: Wed May 04 22:45:48 CEST 2016
User: root
Dark Spectrum Present: No
Reference Spectrum Present: No
Number of Sampled Component Spectra: 1
Spectrometers: USB4C02835
Integration Time (usec): 100000 (USB4C02835)
Spectra Averaged: 1 (USB4C02835)
Boxcar Smoothing: 0 (USB4C02835)
Correct for Electrical Dark: No (USB4C02835)
Strobe/Lamp Enabled: No (USB4C02835)
Correct for Detector Non-linearity: No (USB4C02835)
Correct for Stray Light: No (USB4C02835)
Number of Pixels in Processed Spectrum: 3648
>>>>>Begin Processed Spectral Data<<<<<
177.47	1558.50
177.69	1558.50
177.91	1558.50
178.13	1609.70
178.36	1662.95
178.58	1796.07
178.80	1931.23
179.02	1890.28
179.24	1900.52
179.46	1904.61
179.68	1925.09
179.90	1953.76
180.13	1947.62
180.35	1826.79
180.57	1931.23
180.79	1980.39
181.01	1957.86
181.23	1978.34
181.45	2033.63
181.67	2021.35
181.90	1959.91
182.12	1918.95
182.34	1867.75
182.56	2066.40
182.78	2009.06
183.00	1865.70
183.22	1966.05
183.44	1830.88
183.66	2176.99
183.89	2037.73
184.11	1839.08
184.33	2021.35
184.55	2045.92
184.77	1982.43
184.99	1968.10
185.21	1859.56
185.43	2121.70
185.65	1857.51
185.87	1869.80
186.10	2133.98
186.32	2088.93
186.54	2019.30
186.76	1988.58
186.98	1976.29
187.20	1927.14
187.42	1890.28
187.64	1992.67
187.86	1937.38
188.08	2066.40
188.30	1945.57
188.52	1929.19
188.75	2050.02
188.97	2035.68
189.19	1869.80
189.41	1910.75
189.63	1984.48
189.85	1974.24
190.07	1828.84
190.29	1798.12
190.51	1875.94
190.73	1857.51
190.95	2062.30
191.17	1996.77
191.39	1830.88
191.61	2035.68
191.84	1890.28
192.06	1982.43
192.28	1859.56
192.50	2213.85
192.72	1955.81
192.94	1953.76
193.16	2058.21
193.38	1974.24
193.60	1957.86
193.82	1935.33
194.04	2088.93
194.26	1998.82
194.48	1916.90
194.70	1892.32
194.92	1863.65
195.14	2011.11
195.36	1910.75
195.58	1990.63
195.80	1912.80
196.02	1976.29
196.24	1964.00
196.46	1904.61
196.69	1927.14
196.91	2144.22
197.13	1882.08
197.35	1918.95
197.57	2103.26
197.79	1931.23
198.01	1943.52
198.23	1953.76
198.45	2021.35
198.67	1832.93
198.89	1974.24
199.11	1949.67
199.33	1841.12
199.55	1857.51
199.77	1978.34
199.99	2009.06
200.21	1923.04
200.43	1875.94
200.65	1884.13
200.87	1906.66
201.09	1918.95
201.31	1941.47
201.53	1949.67
201.75	2011.11
201.97	1978.34
202.19	1970.15
202.41	2021.35
202.63	2109.41
202.85	1949.67
203.07	1966.05
203.29	1890.28
203.51	1877.99
203.73	1892.32
203.95	2209.76
204.17	1988.58
204.39	2093.02
204.61	1918.95
204.83	1834.98
205.05	1959.91
205.27	2035.68
205.49	2062.30
205.71	1972.19
205.93	1867.75
206.15	1912.80
206.37	1904.61
206.59	2004.96
206.81	1853.41
207.03	1841.12
207.25	1896.42
207.47	2011.11
207.69	1943.52
207.91	2007.01
208.13	2064.35
208.34	1943.52
208.56	1904.61
208.78	1988.58
209.00	1861.60
209.22	1937.38
209.44	1972.19
209.66	1841.12
209.88	1982.43
210.10	1994.72
210.32	1937.38
210.54	2023.39
210.76	1980.39
210.98	1994.72
211.20	1769.44
211.42	1867.75
211.64	2084.83
211.86	2019.30
212.08	1970.15
212.30	1953.76
212.52	1898.47
212.74	1986.53
212.96	1984.48
213.17	1964.00
213.39	2037.73
213.61	2054.11
213.83	1900.52
214.05	1945.57
214.27	1980.39
214.49	1882.08
214.71	1953.76
214.93	1998.82
215.15	1943.52
215.37	2015.20
215.59	1857.51
215.81	2004.96
216.03	2045.92
216.24	2000.87
216.46	1925.09
216.68	1964.00
216.90	2009.06
217.12	1986.53
217.34	1933.28
217.56	1976.29
217.78	2011.11
218.00	1966.05
218.22	2009.06
218.44	2011.11
218.66	2004.96
218.87	2144.22
219.09	1884.13
219.31	1951.71
219.53	2019.30
219.75	1949.67
219.97	1880.04
220.19	1906.66
220.41	1877.99
220.63	2099.17
220.85	1939.43
221.06	1902.56
221.28	1996.77
221.50	1996.77
221.72	1882.08
221.94	1888.23
222.16	1947.62
222.38	2025.44
222.60	1937.38
222.82	1949.67
223.03	2043.87
223.25	1832.93
223.47	1986.53
223.69	2097.12
223.91	1972.19
224.13	1904.61
224.35	1961.95
224.57	2050.02
224.78	2037.73
225.00	1906.66
225.22	1992.67
225.44	1892.32
225.66	2050.02
225.88	1908.71
226.10	2047.97
226.32	1978.34
226.53	2105.31
226.75	1898.47
226.97	1927.14
227.19	1914.85
227.41	1877.99
227.63	1910.75
227.85	1818.60
228.06	1894.37
228.28	1953.76
228.50	1982.43
228.72	1794.02
228.94	1884.13
229.16	1828.84
229.37	1890.28
229.59	1832.93
229.81	2025.44
230.03	1931.23
230.25	1849.32
230.47	1861.60
230.69	1837.03
230.90	1945.57
231.12	1902.56
231.34	1947.62
231.56	2043.87
231.78	1861.60
232.00	1957.86
232.21	1861.60
232.43	1910.75
232.65	1865.70
232.87	1990.63
233.09	1871.84
233.30	1937.38
233.52	1982.43
233.74	1918.95
233.96	1863.65
234.18	1931.23
234.40	1947.62
234.61	2082.78
234.83	1865.70
235.05	1828.84
235.27	2183.13
235.49	2043.87
235.70	1943.52
235.92	1990.63
236.14	1939.43
236.36	2052.06
236.58	1927.14
236.79	1937.38
237.01	1961.95
237.23	1904.61
237.45	2105.31
237.67	1904.61
237.88	1896.42
238.10	2136.03
238.32	1886.18
238.54	1955.81
238.76	1972.19
238.97	1888.23
239.19	1904.61
239.41	2009.06
239.63	2093.02
239.85	1923.04
240.06	1923.04
240.28	1875.94
240.50	2011.11
240.72	1955.81
240.93	1886.18
241.15	2107.36
241.37	1976.29
241.59	1986.53
241.81	1929.19
242.02	1978.34
242.24	2029.54
242.46	1968.10
242.68	1857.51
242.89	1937.38
243.11	2017.25
243.33	2013.15
243.55	1957.86
243.76	1968.10
243.98	1966.05
244.20	1931.23
244.42	1855.46
244.64	1964.00
244.85	1826.79
245.07	1834.98
245.29	1927.14
245.51	1980.39
245.72	2009.06
245.94	2113.50
246.16	1867.75
246.38	2013.15
246.59	1920.99
246.81	1900.52
247.03	1918.95
247.24	1843.17
247.46	1910.75
247.68	1951.71
247.90	1914.85
248.11	1800.16
248.33	2004.96
248.55	1892.32
248.77	2004.96
248.98	2050.02
249.20	2029.54
249.42	1943.52
249.64	1974.24
249.85	1925.09
250.07	1925.09
250.29	2039.78
250.50	1929.19
250.72	1794.02
250.94	1931.23
251.16	2164.70
251.37	1964.00
251.59	1904.61
251.81	1947.62
252.02	2002.91
252.24	1882.08
252.46	1978.34
252.68	1898.47
252.89	1839.08
253.11	1818.60
253.33	2043.87
253.54	2093.02
253.76	1877.99
253.98	1884.13
254.20	1896.42
254.41	1859.56
254.63	1978.34
254.85	1804.26
255.06	2009.06
255.28	2062.30
255.50	1871.84
255.71	1882.08
255.93	1871.84
256.15	1914.85
256.36	2002.91
256.58	1867.75
256.80	1949.67
257.02	1966.05
257.23	1945.57
257.45	1964.00
257.67	1998.82
257.88	1841.12
258.10	1880.04
258.32	1937.38
258.53	1871.84
258.75	2095.07
258.97	1935.33
259.18	1961.95
259.40	1945.57
259.62	2080.74
259.83	2045.92
260.05	2025.44
260.27	2291.68
260.48	1957.86
260.70	1951.71
260.92	1912.80
261.13	1970.15
261.35	1996.77
261.57	1951.71
261.78	1867.75
262.00	1892.32
262.22	1966.05
262.43	1927.14
262.65	2000.87
262.86	1923.04
263.08	2172.89
263.30	1978.34
263.51	1804.26
263.73	1925.09
263.95	2050.02
264.16	1933.28
264.38	1857.51
264.60	1882.08
264.81	1873.89
265.03	2025.44
265.25	1996.77
265.46	1949.67
265.68	2113.50
265.89	2017.25
266.11	1806.31
266.33	1875.94
266.54	2062.30
266.76	1961.95
266.98	2035.68
267.19	2009.06
267.41	2045.92
267.62	1970.15
267.84	1888.23
268.06	1988.58
268.27	2027.49
268.49	1978.34
268.70	1943.52
268.92	1914.85
269.14	1869.80
269.35	1798.12
269.57	1966.05
269.79	1843.17
270.00	2002.91
270.22	2045.92
270.43	1910.75
270.65	1820.64
270.87	1941.47
271.08	2000.87
271.30	1990.63
271.51	1923.04
271.73	1988.58
271.95	1980.39
272.16	1923.04
272.38	2037.73
272.59	1902.56
272.81	1986.53
273.02	1906.66
273.24	1882.08
273.46	2084.83
273.67	1857.51
273.89	1834.98
274.10	1904.61
274.32	2002.91
274.54	1990.63
274.75	1882.08
274.97	1837.03
275.18	1959.91
275.40	1929.19
275.61	1947.62
275.83	2007.01
276.05	1920.99
276.26	1886.18
276.48	1986.53
276.69	2017.25
276.91	1857.51
277.12	2037.73
277.34	2002.91
277.55	1943.52
277.77	1994.72
277.99	1910.75
278.20	1865.70
278.42	1771.49
278.63	1841.12
278.85	1923.04
279.06	1880.04
279.28	1988.58
279.49	1986.53
279.71	1970.15
279.93	1906.66
280.14	1867.75
280.36	1941.47
280.57	1988.58
280.79	1982.43
281.00	1892.32
281.22	1875.94
281.43	2084.83
281.65	1728.49
281.86	1933.28
282.08	1933.28
282.29	2121.70
282.51	1857.51
282.73	1951.71
282.94	1925.09
283.16	2009.06
283.37	2084.83
283.59	1892.32
283.80	1988.58
284.02	2007.01
284.23	2037.73
284.45	1867.75
284.66	1908.71
284.88	1873.89
285.09	2007.01
285.31	2015.20
285.52	2002.91
285.74	1865.70
285.95	2002.91
286.17	2002.91
286.38	2078.69
286.60	1966.05
286.81	1923.04
287.03	1902.56
287.24	1904.61
287.46	1904.61
287.67	2045.92
287.89	2072.54
288.10	1904.61
288.32	1955.81
288.53	2019.30
288.75	1990.63
288.96	2027.49
289.18	1937.38
289.39	1961.95
289.61	1984.48
289.82	2095.07
290.04	2068.45
290.25	1865.70
290.47	1906.66
290.68	1974.24
290.90	2017.25
291.11	1898.47
291.33	1943.52
291.54	1955.81
291.76	1902.56
291.97	2002.91
292.18	2009.06
292.40	1904.61
292.61	1865.70
292.83	2103.26
293.04	2013.15
293.26	1972.19
293.47	1918.95
293.69	1880.04
293.90	1941.47
294.12	2023.39
294.33	1957.86
294.55	1886.18
294.76	1986.53
294.97	2027.49
295.19	2095.07
295.40	1890.28
295.62	2029.54
295.83	2064.35
296.05	1914.85
296.26	2045.92
296.48	2017.25
296.69	1925.09
296.90	1939.43
297.12	2021.35
297.33	2047.97
297.55	1959.91
297.76	2045.92
297.98	1988.58
298.19	1918.95
298.41	1945.57
298.62	1871.84
298.83	2047.97
299.05	1974.24
299.26	1914.85
299.48	1824.74
299.69	1984.48
299.90	1978.34
300.12	1873.89
300.33	2023.39
300.55	1994.72
300.76	2002.91
300.98	1892.32
301.19	2023.39
301.40	1996.77
301.62	1968.10
301.83	1980.39
302.05	1910.75
302.26	1925.09
302.47	1945.57
302.69	1871.84
302.90	1927.14
303.12	1816.55
303.33	2002.91
303.54	2093.02
303.76	1910.75
303.97	1986.53
304.19	2019.30
304.40	1863.65
304.61	2007.01
304.83	2095.07
305.04	2019.30
305.26	1947.62
305.47	1986.53
305.68	1980.39
305.90	1910.75
306.11	1959.91
306.33	1945.57
306.54	2009.06
306.75	1888.23
306.97	1857.51
307.18	1886.18
307.39	1978.34
307.61	2041.82
307.82	1943.52
308.04	1961.95
308.25	1916.90
308.46	1949.67
308.68	1920.99
308.89	1953.76
309.10	2031.58
309.32	1923.04
309.53	1906.66
309.74	1994.72
309.96	2009.06
310.17	2004.96
310.39	1875.94
310.60	1943.52
310.81	1953.76
311.03	1847.27
311.24	1966.05
311.45	1974.24
311.67	2107.36
311.88	1961.95
312.09	1933.28
312.31	1882.08
312.52	1970.15
312.73	1943.52
312.95	1923.04
313.16	1957.86
313.37	2041.82
313.59	1994.72
313.80	1957.86
314.01	2082.78
314.23	1892.32
314.44	1953.76
314.65	1898.47
314.87	1873.89
315.08	1986.53
315.29	1929.19
315.51	1933.28
315.72	1818.60
315.93	2080.74
316.15	1951.71
316.36	1929.19
316.57	1986.53
316.79	1927.14
317.00	1943.52
317.21	1996.77
317.43	1890.28
317.64	1988.58
317.85	1910.75
318.07	1910.75
318.28	1931.23
318.49	2080.74
318.70	2158.56
318.92	2181.09
319.13	2205.66
319.34	2240.48
319.56	2056.16
319.77	2086.88
319.98	2078.69
320.20	2080.74
320.41	2080.74
320.62	2099.17
320.83	1910.75
321.05	2191.33
321.26	1939.43
321.47	1953.76
321.69	2015.20
321.90	1912.80
322.11	1916.90
322.32	2007.01
322.54	2013.15
322.75	1914.85
322.96	2133.98
323.18	1865.70
323.39	1834.98
323.60	1912.80
323.81	2027.49
324.03	1994.72
324.24	1976.29
324.45	1982.43
324.66	1927.14
324.88	2045.92
325.09	2066.40
325.30	1957.86
325.52	1996.77
325.73	2039.78
325.94	1867.75
326.15	1892.32
326.37	1859.56
326.58	2054.11
326.79	2054.11
327.00	1828.84
327.22	1966.05
327.43	1945.57
327.64	1880.04
327.85	1920.99
328.07	1927.14
328.28	2066.40
328.49	1886.18
328.70	1914.85
328.92	1923.04
329.13	1953.76
329.34	1939.43
329.55	2095.07
329.76	1976.29
329.98	1849.32
330.19	2070.50
330.40	1990.63
330.61	1912.80
330.83	2011.11
331.04	1910.75
331.25	2021.35
331.46	1896.42
331.68	1875.94
331.89	2027.49
332.10	1939.43
332.31	1871.84
332.52	1935.33
332.74	2068.45
332.95	1925.09
333.16	1957.86
333.37	2045.92
333.58	1859.56
333.80	2007.01
334.01	1867.75
334.22	1933.28
334.43	1886.18
334.64	1953.76
334.86	1865.70
335.07	1824.74
335.28	2084.83
335.49	1869.80
335.70	2002.91
335.92	1947.62
336.13	2172.89
336.34	2019.30
336.55	1955.81
336.76	1953.76
336.98	1748.97
337.19	1964.00
337.40	2043.87
337.61	2127.84
337.82	1886.18
338.04	2027.49
338.25	1812.45
338.46	1884.13
338.67	1980.39
338.88	1884.13
339.09	1873.89
339.31	1910.75
339.52	1822.69
339.73	1834.98
339.94	1929.19
340.15	1978.34
340.36	1966.05
340.58	1945.57
340.79	1918.95
341.00	1937.38
341.21	1882.08
341.42	2121.70
341.63	1964.00
341.85	1945.57
342.06	1943.52
342.27	1884.13
342.48	1984.48
342.69	1871.84
342.90	1974.24
343.12	2037.73
343.33	1939.43
343.54	2023.39
343.75	2033.63
343.96	1966.05
344.17	1880.04
344.38	1923.04
344.60	1902.56
344.81	1863.65
345.02	1982.43
345.23	2023.39
345.44	2199.52
345.65	2021.35
345.86	1992.67
346.07	2007.01
346.29	1951.71
346.50	2017.25
346.71	2056.16
346.92	2142.18
347.13	2193.37
347.34	1972.19
347.55	1904.61
347.76	1972.19
347.98	1826.79
348.19	1976.29
348.40	2027.49
348.61	1908.71
348.82	2027.49
349.03	1984.48
349.24	1882.08
349.45	2121.70
349.66	1859.56
349.88	1918.95
350.09	1920.99
350.30	2011.11
350.51	2033.63
350.72	1980.39
350.93	1906.66
351.14	1912.80
351.35	2023.39
351.56	1918.95
351.77	2027.49
351.99	1978.34
352.20	2021.35
352.41	2072.54
352.62	1826.79
352.83	1957.86
353.04	1947.62
353.25	1953.76
353.46	2033.63
353.67	1949.67
353.88	1769.44
354.09	1914.85
354.30	1978.34
354.52	2021.35
354.73	1923.04
354.94	1931.23
355.15	1914.85
355.36	2125.79
355.57	1910.75
355.78	1920.99
355.99	1892.32
356.20	1982.43
356.41	2015.20
356.62	1927.14
356.83	1933.28
357.04	2090.98
357.25	1845.22
357.46	1904.61
357.68	1877.99
357.89	1849.32
358.10	1914.85
358.31	1937.38
358.52	1947.62
358.73	1855.46
358.94	1863.65
359.15	1982.43
359.36	2023.39
359.57	1959.91
359.78	1941.47
359.99	2013.15
360.20	1957.86
360.41	1972.19
360.62	1982.43
360.83	1964.00
361.04	1935.33
361.25	1986.53
361.46	2029.54
361.67	2037.73
361.88	2007.01
362.09	2060.26
362.30	1992.67
362.51	1882.08
362.72	1955.81
362.93	2029.54
363.14	1998.82
363.35	2007.01
363.56	1947.62
363.78	1970.15
363.99	1988.58
364.20	1992.67
364.41	1945.57
364.62	2150.37
364.83	1992.67
365.04	1880.04
365.25	1945.57
365.46	2076.64
365.67	1882.08
365.88	1957.86
366.09	1966.05
366.30	1890.28
366.51	1961.95
366.72	1894.37
366.93	1906.66
367.14	1937.38
367.35	2086.88
367.56	1988.58
367.77	2062.30
367.98	1941.47
368.18	2013.15
368.39	1953.76
368.60	1867.75
368.81	1972.19
369.02	1912.80
369.23	1925.09
369.44	1877.99
369.65	1933.28
369.86	1927.14
370.07	1933.28
370.28	1865.70
370.49	2062.30
370.70	1972.19
370.91	1810.40
371.12	1886.18
371.33	1976.29
371.54	1890.28
371.75	2004.96
371.96	1771.49
372.17	1943.52
372.38	1920.99
372.59	1996.77
372.80	1998.82
373.01	1953.76
373.22	1988.58
373.43	1968.10
373.64	1920.99
373.85	2115.55
374.06	2045.92
374.26	2045.92
374.47	2015.20
374.68	2031.58
374.89	1904.61
375.10	1959.91
375.31	2035.68
375.52	1970.15
375.73	1947.62
375.94	1908.71
376.15	2027.49
376.36	1857.51
376.57	1906.66
376.78	1945.57
376.99	1976.29
377.20	2023.39
377.40	1955.81
377.61	2097.12
377.82	1861.60
378.03	2019.30
378.24	1957.86
378.45	1951.71
378.66	1920.99
378.87	1871.84
379.08	1875.94
379.29	1900.52
379.50	2037.73
379.71	1953.76
379.91	2004.96
380.12	1927.14
380.33	1914.85
380.54	1945.57
380.75	2009.06
380.96	1916.90
381.17	2058.21
381.38	1955.81
381.59	1947.62
381.80	1929.19
382.00	2111.46
382.21	2029.54
382.42	2090.98
382.63	2172.89
382.84	2033.63
383.05	2058.21
383.26	2072.54
383.47	1972.19
383.68	1972.19
383.88	1976.29
384.09	1951.71
384.30	2129.89
384.51	1992.67
384.72	1988.58
384.93	1824.74
385.14	1998.82
385.35	2004.96
385.55	1906.66
385.76	2070.50
385.97	1986.53
386.18	1951.71
386.39	1957.86
386.60	1916.90
386.81	1947.62
387.02	1884.13
387.22	1900.52
387.43	2103.26
387.64	2080.74
387.85	2080.74
388.06	2236.38
388.27	4001.73
388.48	8710.01
388.68	11992.90
388.89	14417.70
389.10	15200.02
389.31	14137.13
389.52	10862.43
389.73	9647.98
389.93	8712.06
390.14	7937.93
390.35	7165.84
390.56	6342.56
390.77	5222.32
390.98	4110.27
391.18	3239.89
391.39	2504.67
391.60	2189.28
391.81	2131.94
392.02	1808.36
392.23	2146.27
392.43	1964.00
392.64	1968.10
392.85	2015.20
393.06	2119.65
393.27	1986.53
393.47	1941.47
393.68	1986.53
393.89	1957.86
394.10	2078.69
394.31	1953.76
394.52	1941.47
394.72	1927.14
394.93	2043.87
395.14	1912.80
395.35	1992.67
395.56	1914.85
395.76	1966.05
395.97	2123.74
396.18	2123.74
396.39	2113.50
396.60	2406.36
396.80	2224.09
397.01	2131.94
397.22	2140.13
397.43	2078.69
397.64	2007.01
397.84	2119.65
398.05	2148.32
398.26	2101.22
398.47	2047.97
398.67	1994.72
398.88	1953.76
399.09	2027.49
399.30	1927.14
399.51	2025.44
399.71	1957.86
399.92	1964.00
400.13	2011.11
400.34	1943.52
400.54	1955.81
400.75	2170.85
400.96	1918.95
401.17	2095.07
401.37	2060.26
401.58	1984.48
401.79	1916.90
402.00	2035.68
402.21	2291.68
402.41	2361.31
402.62	2398.17
402.83	2480.09
403.04	2408.41
403.24	2500.57
403.45	2185.18
403.66	2226.14
403.87	2129.89
404.07	2189.28
404.28	2203.61
404.49	2179.04
404.70	2107.36
404.90	1980.39
405.11	1972.19
405.32	1976.29
405.52	1882.08
405.73	1910.75
405.94	1869.80
406.15	1974.24
406.35	2125.79
406.56	1990.63
406.77	1988.58
406.98	1968.10
407.18	1869.80
407.39	2041.82
407.60	1939.43
407.80	1982.43
408.01	1849.32
408.22	2062.30
408.43	1892.32
408.63	2004.96
408.84	2039.78
409.05	2013.15
409.25	1894.37
409.46	1978.34
409.67	1892.32
409.88	2009.06
410.08	1968.10
410.29	1931.23
410.50	2000.87
410.70	2015.20
410.91	1896.42
411.12	2080.74
411.32	1978.34
411.53	1863.65
411.74	1980.39
411.95	2072.54
412.15	2090.98
412.36	1978.34
412.57	2050.02
412.77	2107.36
412.98	2021.35
413.19	1978.34
413.39	1933.28
413.60	2045.92
413.81	2090.98
414.01	1941.47
414.22	2070.50
414.43	2062.30
414.63	1935.33
414.84	2070.50
415.05	1988.58
415.25	1904.61
415.46	1912.80
415.67	1933.28
415.87	2013.15
416.08	1955.81
416.29	1920.99
416.49	2056.16
416.70	1959.91
416.91	1953.76
417.11	1968.10
417.32	2009.06
417.53	2148.32
417.73	2043.87
417.94	1988.58
418.15	2017.25
418.35	1982.43
418.56	2039.78
418.77	2136.03
418.97	2027.49
419.18	1957.86
419.38	1853.41
419.59	1957.86
419.80	2101.22
420.00	1894.37
420.21	1957.86
420.42	2027.49
420.62	1964.00
420.83	1916.90
421.04	1986.53
421.24	1992.67
421.45	2031.58
421.65	1978.34
421.86	1945.57
422.07	2023.39
422.27	1984.48
422.48	1974.24
422.69	1974.24
422.89	1955.81
423.10	1939.43
423.30	1859.56
423.51	1925.09
423.72	1972.19
423.92	2039.78
424.13	1916.90
424.33	1992.67
424.54	1996.77
424.75	1873.89
424.95	2047.97
425.16	1927.14
425.36	1904.61
425.57	1951.71
425.78	2054.11
425.98	1986.53
426.19	1877.99
426.39	1964.00
426.60	1945.57
426.81	2058.21
427.01	1990.63
427.22	1884.13
427.42	1843.17
427.63	1935.33
427.83	1976.29
428.04	2105.31
428.25	2060.26
428.45	1943.52
428.66	1982.43
428.86	1961.95
429.07	1933.28
429.28	1984.48
429.48	1974.24
429.69	1886.18
429.89	1941.47
430.10	1955.81
430.30	1939.43
430.51	2009.06
430.71	1865.70
430.92	1984.48
431.13	1945.57
431.33	2004.96
431.54	1988.58
431.74	2093.02
431.95	2068.45
432.15	1933.28
432.36	1998.82
432.56	1988.58
432.77	2164.70
432.98	2146.27
433.18	1976.29
433.39	1931.23
433.59	1998.82
433.80	2031.58
434.00	2093.02
434.21	1951.71
434.41	1886.18
434.62	2129.89
434.82	1951.71
435.03	1853.41
435.23	2025.44
435.44	1869.80
435.64	1976.29
435.85	2035.68
436.06	2004.96
436.26	1980.39
436.47	1953.76
436.67	1906.66
436.88	1953.76
437.08	2023.39
437.29	2093.02
437.49	2015.20
437.70	2084.83
437.90	1914.85
438.11	2062.30
438.31	1980.39
438.52	2133.98
438.72	2146.27
438.93	2250.72
439.13	2158.56
439.34	2023.39
439.54	1939.43
439.75	2121.70
439.95	1939.43
440.16	2000.87
440.36	2047.97
440.57	1996.77
440.77	1984.48
440.98	1939.43
441.18	2013.15
441.39	1931.23
441.59	1857.51
441.80	2150.37
442.00	1939.43
442.21	2017.25
442.41	1951.71
442.62	2021.35
442.82	1918.95
443.02	1949.67
443.23	1986.53
443.43	1959.91
443.64	2121.70
443.84	1943.52
444.05	2103.26
444.25	2029.54
444.46	1890.28
444.66	1943.52
444.87	2060.26
445.07	1834.98
445.28	1968.10
445.48	2084.83
445.69	2013.15
445.89	2138.08
446.09	2029.54
446.30	2220.00
446.50	2643.93
446.71	4118.47
446.91	5283.76
447.12	6066.08
447.32	6420.38
447.53	5826.47
447.73	4829.11
447.93	4261.82
448.14	4065.22
448.34	3778.50
448.55	3432.40
448.75	3403.72
448.96	3223.50
449.16	2899.92
449.36	2607.06
449.57	2322.40
449.77	2115.55
449.98	2007.01
450.18	2086.88
450.39	2033.63
450.59	2031.58
450.79	1966.05
451.00	1920.99
451.20	2037.73
451.41	1955.81
451.61	1947.62
451.81	2029.54
452.02	1951.71
452.22	2066.40
452.43	1978.34
452.63	1857.51
452.84	1961.95
453.04	1947.62
453.24	2039.78
453.45	1955.81
453.65	1918.95
453.86	2029.54
454.06	2041.82
454.26	2007.01
454.47	1959.91
454.67	2054.11
454.87	2064.35
455.08	1910.75
455.28	2123.74
455.49	1990.63
455.69	1880.04
455.89	2031.58
456.10	2088.93
456.30	1968.10
456.51	1996.77
456.71	1970.15
456.91	2004.96
457.12	1941.47
457.32	2025.44
457.52	1955.81
457.73	2054.11
457.93	2084.83
458.14	1972.19
458.34	1781.73
458.54	1896.42
458.75	1873.89
458.95	2041.82
459.15	2072.54
459.36	1998.82
459.56	1976.29
459.76	2179.04
459.97	1925.09
460.17	1996.77
460.37	2056.16
460.58	1992.67
460.78	2004.96
460.99	1947.62
461.19	1947.62
461.39	1955.81
461.60	1970.15
461.80	2027.49
462.00	1927.14
462.21	1974.24
462.41	1916.90
462.61	1812.45
462.82	1900.52
463.02	2047.97
463.22	1931.23
463.43	2037.73
463.63	1953.76
463.83	2066.40
464.04	1966.05
464.24	2021.35
464.44	1912.80
464.64	1898.47
464.85	2025.44
465.05	1984.48
465.25	1996.77
465.46	1937.38
465.66	2015.20
465.86	2072.54
466.07	2029.54
466.27	1939.43
466.47	1966.05
466.68	1861.60
466.88	2090.98
467.08	2009.06
467.29	2045.92
467.49	2029.54
467.69	1970.15
467.89	1941.47
468.10	1976.29
468.30	2043.87
468.50	2043.87
468.71	1951.71
468.91	1957.86
469.11	2150.37
469.31	2000.87
469.52	1884.13
469.72	2056.16
469.92	2119.65
470.13	2004.96
470.33	1978.34
470.53	2082.78
470.73	2457.56
470.94	2828.24
471.14	2918.36
471.34	3332.05
471.54	3317.71
471.75	2873.30
471.95	2668.50
472.15	2578.39
472.36	2529.24
472.56	2494.43
472.76	2492.38
472.96	2322.40
473.17	2252.77
473.37	2211.81
473.57	2109.41
473.77	2000.87
473.98	1951.71
474.18	1896.42
474.38	2195.42
474.58	1886.18
474.79	1888.23
474.99	2041.82
475.19	2037.73
475.39	1937.38
475.60	2017.25
475.80	2000.87
476.00	1996.77
476.20	1957.86
476.41	1945.57
476.61	2121.70
476.81	2109.41
477.01	1943.52
477.21	2136.03
477.42	2095.07
477.62	1925.09
477.82	2021.35
478.02	1966.05
478.23	1898.47
478.43	1875.94
478.63	1933.28
478.83	1972.19
479.03	1964.00
479.24	2023.39
479.44	2078.69
479.64	1845.22
479.84	1857.51
480.04	1910.75
480.25	2060.26
480.45	1914.85
480.65	1970.15
480.85	2121.70
481.06	1892.32
481.26	1978.34
481.46	1951.71
481.66	2011.11
481.86	1861.60
482.06	2176.99
482.27	1990.63
482.47	1939.43
482.67	2015.20
482.87	1851.36
483.07	2070.50
483.28	1933.28
483.48	1869.80
483.68	1939.43
483.88	1877.99
484.08	1849.32
484.29	1884.13
484.49	2004.96
484.69	1880.04
484.89	2119.65
485.09	2031.58
485.29	2056.16
485.50	1957.86
485.70	1982.43
485.90	2047.97
486.10	1988.58
486.30	2035.68
486.50	2070.50
486.71	2011.11
486.91	1961.95
487.11	2035.68
487.31	1978.34
487.51	1976.29
487.71	1900.52
487.91	1986.53
488.12	1882.08
488.32	1730.53
488.52	1937.38
488.72	1769.44
488.92	1982.43
489.12	2082.78
489.32	2019.30
489.53	1996.77
489.73	1918.95
489.93	2103.26
490.13	1957.86
490.33	1867.75
490.53	2007.01
490.73	2025.44
490.94	1791.97
491.14	2086.88
491.34	2103.26
491.54	2310.11
491.74	2942.93
491.94	3454.92
492.14	3807.17
492.34	3803.08
492.54	3532.75
492.75	2938.84
492.95	2967.51
493.15	2658.26
493.35	2635.74
493.55	2623.45
493.75	2510.81
493.95	2467.80
494.15	2312.16
494.35	2193.37
494.56	2076.64
494.76	2025.44
494.96	2105.31
495.16	1984.48
495.36	1992.67
495.56	1982.43
495.76	1935.33
495.96	2041.82
496.16	1912.80
496.36	2070.50
496.56	1980.39
496.77	2043.87
496.97	2007.01
497.17	2168.80
497.37	1855.46
497.57	2090.98
497.77	1990.63
497.97	1931.23
498.17	2004.96
498.37	1984.48
498.57	2031.58
498.77	1910.75
498.97	2060.26
499.17	2090.98
499.38	1984.48
499.58	2052.06
499.78	2033.63
499.98	2099.17
500.18	1953.76
500.38	1888.23
500.58	2099.17
500.78	2615.26
500.98	4751.29
501.18	6922.13
501.38	8388.48
501.58	9525.10
501.78	9459.57
501.98	7624.59
502.18	6371.23
502.38	5443.50
502.58	4947.89
502.78	4423.61
502.98	4231.10
503.18	4140.99
503.38	3758.02
503.59	3321.81
503.79	3108.82
503.99	2832.34
504.19	2535.39
504.39	2619.35
504.59	2686.94
504.79	2682.84
504.99	2641.88
505.19	2336.73
505.39	2295.77
505.59	2355.16
505.79	2263.01
505.99	2179.04
506.19	2068.45
506.39	2181.09
506.59	2000.87
506.79	2004.96
506.99	2138.08
507.19	2078.69
507.39	2025.44
507.59	1894.37
507.79	2017.25
507.99	1908.71
508.19	1996.77
508.39	1974.24
508.59	1908.71
508.79	2072.54
508.99	2162.66
509.19	1929.19
509.39	1990.63
509.59	1890.28
509.79	1906.66
509.99	1982.43
510.19	1994.72
510.39	2074.59
510.59	1931.23
510.79	1949.67
510.99	1839.08
511.19	1916.90
511.39	2125.79
511.59	2084.83
511.79	2090.98
511.99	2045.92
512.19	2109.41
512.38	1988.58
512.58	1974.24
512.78	1945.57
512.98	2080.74
513.18	2097.12
513.38	1877.99
513.58	2011.11
513.78	1912.80
513.98	1957.86
514.18	1912.80
514.38	1974.24
514.58	1961.95
514.78	1918.95
514.98	1955.81
515.18	1982.43
515.38	1834.98
515.58	2146.27
515.78	1986.53
515.98	2007.01
516.18	1992.67
516.38	2023.39
516.57	1982.43
516.77	1923.04
516.97	2045.92
517.17	1964.00
517.37	1834.98
517.57	2054.11
517.77	1986.53
517.97	2009.06
518.17	2047.97
518.37	1894.37
518.57	1953.76
518.77	1986.53
518.97	1943.52
519.16	2060.26
519.36	2095.07
519.56	2041.82
519.76	1980.39
519.96	1984.48
520.16	2154.46
520.36	1837.03
520.56	2121.70
520.76	1933.28
520.96	1953.76
521.16	1978.34
521.35	2088.93
521.55	2066.40
521.75	1990.63
521.95	1931.23
522.15	1916.90
522.35	1927.14
522.55	1888.23
522.75	2037.73
522.95	1923.04
523.14	1925.09
523.34	1937.38
523.54	1943.52
523.74	2066.40
523.94	2011.11
524.14	1900.52
524.34	1961.95
524.54	2058.21
524.73	1937.38
524.93	2074.59
525.13	1953.76
525.33	1931.23
525.53	2115.55
525.73	2007.01
525.93	1955.81
526.13	1918.95
526.32	1988.58
526.52	1964.00
526.72	2050.02
526.92	1998.82
527.12	1949.67
527.32	1980.39
527.52	2019.30
527.71	1966.05
527.91	1925.09
528.11	1933.28
528.31	1912.80
528.51	1937.38
528.71	2119.65
528.90	2007.01
529.10	2056.16
529.30	2072.54
529.50	1873.89
529.70	2017.25
529.90	1912.80
530.09	2043.87
530.29	1847.27
530.49	1894.37
530.69	2144.22
530.89	2084.83
531.09	2019.30
531.28	1996.77
531.48	2105.31
531.68	1976.29
531.88	2021.35
532.08	1953.76
532.28	2002.91
532.47	2111.46
532.67	1996.77
532.87	2090.98
533.07	2002.91
533.27	1974.24
533.46	2041.82
533.66	2017.25
533.86	1980.39
534.06	2050.02
534.26	2111.46
534.45	2029.54
534.65	2082.78
534.85	1994.72
535.05	1986.53
535.25	1964.00
535.44	1884.13
535.64	2058.21
535.84	1900.52
536.04	1961.95
536.24	1945.57
536.43	1949.67
536.63	2011.11
536.83	2002.91
537.03	1949.67
537.22	1935.33
537.42	1898.47
537.62	2047.97
537.82	1916.90
538.02	2109.41
538.21	2093.02
538.41	2277.34
538.61	2031.58
538.81	1988.58
539.00	2084.83
539.20	1941.47
539.40	2009.06
539.60	1994.72
539.79	2009.06
539.99	1890.28
540.19	1978.34
540.39	1939.43
540.58	1945.57
540.78	2050.02
540.98	1970.15
541.18	2015.20
541.37	2027.49
541.57	1951.71
541.77	1961.95
541.97	1972.19
542.16	1892.32
542.36	1976.29
542.56	1857.51
542.76	2150.37
542.95	2033.63
543.15	1996.77
543.35	2009.06
543.54	1945.57
543.74	1968.10
543.94	2041.82
544.14	2015.20
544.33	2037.73
544.53	2013.15
544.73	1976.29
544.93	1976.29
545.12	1972.19
545.32	1980.39
545.52	1916.90
545.71	1933.28
545.91	1949.67
546.11	1984.48
546.30	1839.08
546.50	1863.65
546.70	1996.77
546.90	2002.91
547.09	1906.66
547.29	1966.05
547.49	1998.82
547.68	1945.57
547.88	2041.82
548.08	2039.78
548.27	2519.00
548.47	1953.76
548.67	1959.91
548.87	1914.85
549.06	1953.76
549.26	2007.01
549.46	1988.58
549.65	1927.14
549.85	2105.31
550.05	2064.35
550.24	1937.38
550.44	1920.99
550.64	1961.95
550.83	1986.53
551.03	2107.36
551.23	2109.41
551.42	2011.11
551.62	1974.24
551.82	1935.33
552.01	1974.24
552.21	2050.02
552.41	1912.80
552.60	2084.83
552.80	2017.25
553.00	1931.23
553.19	2037.73
553.39	2090.98
553.59	1910.75
553.78	1996.77
553.98	2013.15
554.17	1929.19
554.37	1976.29
554.57	2101.22
554.76	1877.99
554.96	1959.91
555.16	1990.63
555.35	2009.06
555.55	1943.52
555.75	1951.71
555.94	2025.44
556.14	1865.70
556.33	2000.87
556.53	1994.72
556.73	1941.47
556.92	2054.11
557.12	2064.35
557.32	2168.80
557.51	2107.36
557.71	2035.68
557.90	2047.97
558.10	1957.86
558.30	1910.75
558.49	1935.33
558.69	1929.19
558.88	2039.78
559.08	2080.74
559.28	1968.10
559.47	2035.68
559.67	1968.10
559.86	2138.08
560.06	1978.34
560.26	1974.24
560.45	1943.52
560.65	1968.10
560.84	2007.01
561.04	1943.52
561.24	2056.16
561.43	1890.28
561.63	2103.26
561.82	2080.74
562.02	2011.11
562.22	1918.95
562.41	1914.85
562.61	1861.60
562.80	1964.00
563.00	2093.02
563.19	2017.25
563.39	2031.58
563.59	1955.81
563.78	1931.23
563.98	1863.65
564.17	1949.67
564.37	1888.23
564.56	1984.48
564.76	1902.56
564.96	2084.83
565.15	2013.15
565.35	2183.13
565.54	1947.62
565.74	2113.50
565.93	2015.20
566.13	1902.56
566.32	1968.10
566.52	2039.78
566.71	2021.35
566.91	2023.39
567.11	1980.39
567.30	1896.42
567.50	1998.82
567.69	1951.71
567.89	1941.47
568.08	1898.47
568.28	1984.48
568.47	1904.61
568.67	2056.16
568.86	1972.19
569.06	2017.25
569.25	1966.05
569.45	1882.08
569.64	1953.76
569.84	1923.04
570.04	1929.19
570.23	1914.85
570.43	1943.52
570.62	2072.54
570.82	2129.89
571.01	1873.89
571.21	1949.67
571.40	1914.85
571.60	2050.02
571.79	2066.40
571.99	1982.43
572.18	1908.71
572.38	2033.63
572.57	1945.57
572.77	2054.11
572.96	2170.85
573.16	2029.54
573.35	1945.57
573.55	2072.54
573.74	2068.45
573.94	1984.48
574.13	1964.00
574.33	2023.39
574.52	2146.27
574.71	2050.02
574.91	2086.88
575.10	2029.54
575.30	1992.67
575.49	1910.75
575.69	1974.24
575.88	2064.35
576.08	1974.24
576.27	2109.41
576.47	2033.63
576.66	2191.33
576.86	2125.79
577.05	2093.02
577.25	2127.84
577.44	2170.85
577.64	1990.63
577.83	2031.58
578.02	1957.86
578.22	2099.17
578.41	2060.26
578.61	1947.62
578.80	1931.23
579.00	2009.06
579.19	1978.34
579.39	2035.68
579.58	1986.53
579.77	1976.29
579.97	2074.59
580.16	2111.46
580.36	2099.17
580.55	2121.70
580.75	1961.95
580.94	2078.69
581.13	2162.66
581.33	2076.64
581.52	2109.41
581.72	2205.66
581.91	2185.18
582.11	1949.67
582.30	2113.50
582.49	2078.69
582.69	2088.93
582.88	2025.44
583.08	2056.16
583.27	2080.74
583.47	2062.30
583.66	1923.04
583.85	2074.59
584.05	2015.20
584.24	2080.74
584.44	2029.54
584.63	2115.55
584.82	2189.28
585.02	2179.04
585.21	2117.60
585.41	2187.23
585.60	2074.59
585.79	2258.91
585.99	2297.82
586.18	2220.00
586.37	2611.16
586.57	3909.57
586.76	11669.33
586.96	30731.82
587.15	44516.70
587.34	54097.09
587.54	59401.33
587.73	55903.40
587.93	39843.23
588.12	29515.33
588.31	23801.49
588.51	20524.74
588.70	18534.12
588.89	17555.19
589.09	15240.98
589.28	13025.08
589.47	10811.23
589.67	8703.87
589.86	6770.58
590.06	4849.59
590.25	3905.48
590.44	3117.01
590.64	2672.60
590.83	2455.51
591.02	2197.47
591.22	2205.66
591.41	2224.09
591.60	2023.39
591.80	2232.29
591.99	2011.11
592.18	2047.97
592.38	2058.21
592.57	1961.95
592.76	2007.01
592.96	2033.63
593.15	2070.50
593.34	2086.88
593.54	2029.54
593.73	2056.16
593.92	2033.63
594.12	2076.64
594.31	2121.70
594.50	2129.89
594.70	2031.58
594.89	2215.90
595.08	1998.82
595.28	2111.46
595.47	2240.48
595.66	2084.83
595.86	1990.63
596.05	2004.96
596.24	1947.62
596.43	2119.65
596.63	2162.66
596.82	2027.49
597.01	2035.68
597.21	2168.80
597.40	2125.79
597.59	2054.11
597.79	2015.20
597.98	2074.59
598.17	2039.78
598.36	2074.59
598.56	1992.67
598.75	1982.43
598.94	2033.63
599.14	2041.82
599.33	1947.62
599.52	2099.17
599.71	2121.70
599.91	2103.26
600.10	2035.68
600.29	1982.43
600.48	2029.54
600.68	1966.05
600.87	2025.44
601.06	1923.04
601.26	2023.39
601.45	1959.91
601.64	1902.56
601.83	2080.74
602.03	1935.33
602.22	1959.91
602.41	2060.26
602.60	2158.56
602.80	2111.46
602.99	2037.73
603.18	1961.95
603.37	2041.82
603.57	2054.11
603.76	2047.97
603.95	2093.02
604.14	1966.05
604.34	1912.80
604.53	2015.20
604.72	1982.43
604.91	2039.78
605.10	1974.24
605.30	1877.99
605.49	2179.04
605.68	1980.39
605.87	2060.26
606.07	1980.39
606.26	2064.35
606.45	1959.91
606.64	1978.34
606.84	2000.87
607.03	2002.91
607.22	2074.59
607.41	2052.06
607.60	1994.72
607.80	2078.69
607.99	2035.68
608.18	1916.90
608.37	1994.72
608.56	1974.24
608.76	2136.03
608.95	2197.47
609.14	2062.30
609.33	2185.18
609.52	2172.89
609.72	2138.08
609.91	2133.98
610.10	2035.68
610.29	2076.64
610.48	2035.68
610.68	2093.02
610.87	1939.43
611.06	2127.84
611.25	2007.01
611.44	2103.26
611.63	2011.11
611.83	2074.59
612.02	1843.17
612.21	2095.07
612.40	1898.47
612.59	1867.75
612.79	1875.94
612.98	1941.47
613.17	2080.74
613.36	2097.12
613.55	2133.98
613.74	2138.08
613.93	2129.89
614.13	2228.19
614.32	2273.25
614.51	2181.09
614.70	2064.35
614.89	1986.53
615.08	2068.45
615.28	2420.70
615.47	1959.91
615.66	2064.35
615.85	2090.98
616.04	2199.52
616.23	2076.64
616.42	2025.44
616.62	2027.49
616.81	2043.87
617.00	2011.11
617.19	2033.63
617.38	1978.34
617.57	1970.15
617.76	2090.98
617.95	2107.36
618.15	2113.50
618.34	2133.98
618.53	1890.28
618.72	2113.50
618.91	2166.75
619.10	1998.82
619.29	1974.24
619.48	1974.24
619.68	1890.28
619.87	1998.82
620.06	1898.47
620.25	1959.91
620.44	1898.47
620.63	1972.19
620.82	2025.44
621.01	1998.82
621.20	2058.21
621.39	2011.11
621.59	2111.46
621.78	2097.12
621.97	2080.74
622.16	2021.35
622.35	2093.02
622.54	2080.74
622.73	2060.26
622.92	1927.14
623.11	2160.61
623.30	2035.68
623.49	1996.77
623.68	1937.38
623.88	2099.17
624.07	2013.15
624.26	1976.29
624.45	2041.82
624.64	1945.57
624.83	1992.67
625.02	1972.19
625.21	2047.97
625.40	2017.25
625.59	2037.73
625.78	1964.00
625.97	2111.46
626.16	2199.52
626.35	2090.98
626.54	2066.40
626.74	2224.09
626.93	2029.54
627.12	2002.91
627.31	2136.03
627.50	2090.98
627.69	2060.26
627.88	1984.48
628.07	1968.10
628.26	1880.04
628.45	1914.85
628.64	1892.32
628.83	1961.95
629.02	1923.04
629.21	1990.63
629.40	2047.97
629.59	1869.80
629.78	1916.90
629.97	1976.29
630.16	1959.91
630.35	1974.24
630.54	1972.19
630.73	1984.48
630.92	1935.33
631.11	1978.34
631.30	1920.99
631.49	2113.50
631.68	1961.95
631.87	2004.96
632.06	1898.47
632.25	2166.75
632.44	1984.48
632.63	2133.98
632.82	1968.10
633.01	2056.16
633.20	2133.98
633.39	2029.54
633.58	1898.47
633.77	2099.17
633.96	2133.98
634.15	2035.68
634.34	2064.35
634.53	2060.26
634.72	1898.47
634.91	1888.23
635.10	2039.78
635.29	2056.16
635.48	1968.10
635.67	1937.38
635.86	1851.36
636.05	2138.08
636.24	2011.11
636.43	1988.58
636.62	1980.39
636.81	1806.31
637.00	1968.10
637.19	1980.39
637.38	1994.72
637.57	1964.00
637.76	2019.30
637.95	2119.65
638.14	2033.63
638.33	2131.94
638.52	2099.17
638.71	2043.87
638.89	1904.61
639.08	2146.27
639.27	2084.83
639.46	2260.96
639.65	2693.08
639.84	2623.45
640.03	2834.39
640.22	2736.09
640.41	2699.22
640.60	2367.45
640.79	2293.72
640.98	2189.28
641.17	2176.99
641.36	2195.42
641.55	2183.13
641.74	2009.06
641.92	1998.82
642.11	2054.11
642.30	1992.67
642.49	1970.15
642.68	1994.72
642.87	1978.34
643.06	1964.00
643.25	1912.80
643.44	1941.47
643.63	2062.30
643.82	2039.78
644.00	1953.76
644.19	1982.43
644.38	1923.04
644.57	1994.72
644.76	1966.05
644.95	1945.57
645.14	2000.87
645.33	1904.61
645.52	1935.33
645.71	1906.66
645.89	1888.23
646.08	1964.00
646.27	1937.38
646.46	2097.12
646.65	1845.22
646.84	2041.82
647.03	1929.19
647.22	2062.30
647.40	1990.63
647.59	1880.04
647.78	1933.28
647.97	1927.14
648.16	1923.04
648.35	2062.30
648.54	2136.03
648.73	1986.53
648.91	2027.49
649.10	1998.82
649.29	1920.99
649.48	1943.52
649.67	1998.82
649.86	2084.83
650.05	2090.98
650.23	2209.76
650.42	2082.78
650.61	2238.43
650.80	2142.18
650.99	2244.57
651.18	2109.41
651.36	2068.45
651.55	2039.78
651.74	2117.60
651.93	1980.39
652.12	2029.54
652.31	2015.20
652.49	1986.53
652.68	1912.80
652.87	2142.18
653.06	1976.29
653.25	2183.13
653.44	2000.87
653.62	2095.07
653.81	1996.77
654.00	1994.72
654.19	2021.35
654.38	2314.20
654.56	1970.15
654.75	1953.76
654.94	2009.06
655.13	2050.02
655.32	1898.47
655.51	2019.30
655.69	1939.43
655.88	1986.53
656.07	1943.52
656.26	1996.77
656.45	1873.89
656.63	1976.29
656.82	2013.15
657.01	1968.10
657.20	1943.52
657.38	2070.50
657.57	1961.95
657.76	1841.12
657.95	2027.49
658.14	1980.39
658.32	1937.38
658.51	1933.28
658.70	1992.67
658.89	2050.02
659.08	1916.90
659.26	2113.50
659.45	1890.28
659.64	2060.26
659.83	1984.48
660.01	2283.49
660.20	2004.96
660.39	2099.17
660.58	1863.65
660.76	2080.74
660.95	1902.56
661.14	2011.11
661.33	1765.35
661.51	1947.62
661.70	2047.97
661.89	2131.94
662.08	1914.85
662.26	1908.71
662.45	1961.95
662.64	2080.74
662.83	2013.15
663.01	1877.99
663.20	1906.66
663.39	2029.54
663.58	2029.54
663.76	1949.67
663.95	2000.87
664.14	1914.85
664.32	1941.47
664.51	1912.80
664.70	1859.56
664.89	2009.06
665.07	1939.43
665.26	2009.06
665.45	1880.04
665.64	2009.06
665.82	1945.57
666.01	2015.20
666.20	1927.14
666.38	2023.39
666.57	2187.23
666.76	2901.97
666.95	6797.21
667.13	15111.96
667.32	20879.04
667.51	24809.09
667.69	26801.77
667.88	25652.86
668.07	18595.56
668.25	14483.24
668.44	11741.00
668.63	9955.18
668.81	8923.00
669.00	7899.02
669.19	6825.88
669.38	5969.83
669.56	5242.80
669.75	4360.13
669.94	3565.51
670.12	3024.85
670.31	2582.49
670.50	2432.99
670.68	2258.91
670.87	2111.46
671.06	2131.94
671.24	2103.26
671.43	2187.23
671.62	2074.59
671.80	1986.53
671.99	2093.02
672.18	2027.49
672.36	2027.49
672.55	1947.62
672.74	1978.34
672.92	2045.92
673.11	2101.22
673.29	1873.89
673.48	1996.77
673.67	1980.39
673.85	1982.43
674.04	1933.28
674.23	2013.15
674.41	2082.78
674.60	1869.80
674.79	1941.47
674.97	1980.39
675.16	1996.77
675.34	2080.74
675.53	1970.15
675.72	2033.63
675.90	2099.17
676.09	1951.71
676.28	1998.82
676.46	1818.60
676.65	2023.39
676.83	1832.93
677.02	2033.63
677.21	1947.62
677.39	2013.15
677.58	1851.36
677.77	1910.75
677.95	1955.81
678.14	1970.15
678.32	1941.47
678.51	1845.22
678.70	2097.12
678.88	1929.19
679.07	1935.33
679.25	2007.01
679.44	1945.57
679.63	1982.43
679.81	1949.67
680.00	2078.69
680.18	2060.26
680.37	2088.93
680.55	1867.75
680.74	1873.89
680.93	1863.65
681.11	1918.95
681.30	1916.90
681.48	1978.34
681.67	1943.52
681.85	1986.53
682.04	1859.56
682.23	1976.29
682.41	1990.63
682.60	1902.56
682.78	1884.13
682.97	1873.89
683.15	1933.28
683.34	2027.49
683.53	2062.30
683.71	1853.41
683.90	2066.40
684.08	2080.74
684.27	1931.23
684.45	1974.24
684.64	2023.39
684.82	1900.52
685.01	2037.73
685.19	1966.05
685.38	2033.63
685.57	2027.49
685.75	1974.24
685.94	1968.10
686.12	1880.04
686.31	1916.90
686.49	2109.41
686.68	1880.04
686.86	1988.58
687.05	1943.52
687.23	2090.98
687.42	1914.85
687.60	1896.42
687.79	2080.74
687.97	2013.15
688.16	2043.87
688.34	2019.30
688.53	1867.75
688.71	1941.47
688.90	2070.50
689.08	1939.43
689.27	1773.54
689.45	2021.35
689.64	2062.30
689.82	2027.49
690.01	2045.92
690.19	1970.15
690.38	1951.71
690.56	2011.11
690.75	1927.14
690.93	1906.66
691.12	1951.71
691.30	1959.91
691.49	1931.23
691.67	1964.00
691.86	2148.32
692.04	1892.32
692.23	2009.06
692.41	2037.73
692.60	2179.04
692.78	2068.45
692.97	2101.22
693.15	2136.03
693.34	2109.41
693.52	2093.02
693.71	2021.35
693.89	2013.15
694.08	1902.56
694.26	2058.21
694.44	1976.29
694.63	2004.96
694.81	1970.15
695.00	1918.95
695.18	2090.98
695.37	2105.31
695.55	2035.68
695.74	1947.62
695.92	1929.19
696.10	2056.16
696.29	1888.23
696.47	1927.14
696.66	1875.94
696.84	1918.95
697.03	1974.24
697.21	2090.98
697.40	2768.85
697.58	2002.91
697.76	1955.81
697.95	1896.42
698.13	1976.29
698.32	1916.90
698.50	1943.52
698.68	2009.06
698.87	2002.91
699.05	2148.32
699.24	1933.28
699.42	1849.32
699.61	1951.71
699.79	1988.58
699.97	2013.15
700.16	1896.42
700.34	1894.37
700.53	1982.43
700.71	2062.30
700.89	2076.64
701.08	1970.15
701.26	2004.96
701.45	2504.67
701.63	1886.18
701.81	1949.67
702.00	1898.47
702.18	1937.38
702.37	2058.21
702.55	2129.89
702.73	2152.42
702.92	2205.66
703.10	2295.77
703.28	2242.53
703.47	2066.40
703.65	2199.52
703.84	2230.24
704.02	2017.25
704.20	2209.76
704.39	1990.63
704.57	1943.52
704.75	2090.98
704.94	2099.17
705.12	2031.58
705.30	2287.58
705.49	3719.11
705.67	9152.37
705.86	18276.07
706.04	23322.27
706.22	26848.87
706.41	28597.84
706.59	25579.13
706.77	18271.98
706.96	14530.34
707.14	12724.03
707.32	10936.15
707.51	9588.59
707.69	7964.55
707.87	6754.20
708.06	5162.93
708.24	4159.42
708.42	3340.24
708.61	2873.30
708.79	2385.88
708.97	2291.68
709.16	2148.32
709.34	2056.16
709.52	2029.54
709.71	2050.02
709.89	2031.58
710.07	1925.09
710.26	1898.47
710.44	2039.78
710.62	1959.91
710.80	1961.95
710.99	1988.58
711.17	2002.91
711.35	1970.15
711.54	1890.28
711.72	2103.26
711.90	1996.77
712.09	1972.19
712.27	1853.41
712.45	1955.81
712.63	2000.87
712.82	1945.57
713.00	1998.82
713.18	2021.35
713.37	2062.30
713.55	2088.93
713.73	1937.38
713.91	1984.48
714.10	2013.15
714.28	1931.23
714.46	2064.35
714.65	1968.10
714.83	2050.02
715.01	2002.91
715.19	1935.33
715.38	1839.08
715.56	2004.96
715.74	1964.00
715.92	1972.19
716.11	2047.97
716.29	1837.03
716.47	2029.54
716.65	1931.23
716.84	1834.98
717.02	2002.91
717.20	1834.98
717.38	1916.90
717.57	1990.63
717.75	1970.15
717.93	1920.99
718.11	1994.72
718.30	1894.37
718.48	1992.67
718.66	2027.49
718.84	2007.01
719.03	1966.05
719.21	1845.22
719.39	2072.54
719.57	2004.96
719.75	1953.76
719.94	1916.90
720.12	1933.28
720.30	2037.73
720.48	2066.40
720.67	1863.65
720.85	1892.32
721.03	2031.58
721.21	1941.47
721.39	2009.06
721.58	2058.21
721.76	1984.48
721.94	2000.87
722.12	2031.58
722.30	2068.45
722.49	1920.99
722.67	2004.96
722.85	1927.14
723.03	1904.61
723.21	1970.15
723.40	1992.67
723.58	2041.82
723.76	2088.93
723.94	2097.12
724.12	1996.77
724.30	2160.61
724.49	2074.59
724.67	2000.87
724.85	2142.18
725.03	1955.81
725.21	2129.89
725.40	2058.21
725.58	2002.91
725.76	2039.78
725.94	2029.54
726.12	1892.32
726.30	1906.66
726.49	1931.23
726.67	2064.35
726.85	2043.87
727.03	2152.42
727.21	3143.63
727.39	4728.76
727.57	6227.87
727.76	6707.10
727.94	7384.98
728.12	6950.81
728.30	5883.81
728.48	4724.66
728.66	4261.82
728.84	3907.52
729.03	3565.51
729.21	2932.69
729.39	2564.06
729.57	2291.68
729.75	2101.22
729.93	2174.94
730.11	2019.30
730.30	2007.01
730.48	1968.10
730.66	2138.08
730.84	2052.06
731.02	2033.63
731.20	1976.29
731.38	1945.57
731.56	1830.88
731.74	1861.60
731.93	1951.71
732.11	2002.91
732.29	1890.28
732.47	2070.50
732.65	1988.58
732.83	2086.88
733.01	2039.78
733.19	1875.94
733.37	1976.29
733.56	2004.96
733.74	1974.24
733.92	1990.63
734.10	1992.67
734.28	1978.34
734.46	1871.84
734.64	1939.43
734.82	1941.47
735.00	1933.28
735.18	1939.43
735.36	1863.65
735.54	1845.22
735.73	1978.34
735.91	1943.52
736.09	1937.38
736.27	1892.32
736.45	2031.58
736.63	1791.97
736.81	1839.08
736.99	1957.86
737.17	2115.55
737.35	1949.67
737.53	1982.43
737.71	1966.05
737.89	2090.98
738.07	1923.04
738.25	1902.56
738.43	1896.42
738.61	1877.99
738.80	1853.41
738.98	1888.23
739.16	1918.95
739.34	1933.28
739.52	2133.98
739.70	1996.77
739.88	2023.39
740.06	2074.59
740.24	1832.93
740.42	2054.11
740.60	1839.08
740.78	1916.90
740.96	1808.36
741.14	1904.61
741.32	1941.47
741.50	1800.16
741.68	2121.70
741.86	1974.24
742.04	1900.52
742.22	1880.04
742.40	1970.15
742.58	2015.20
742.76	1910.75
742.94	1978.34
743.12	1820.64
743.30	1961.95
743.48	2037.73
743.66	1877.99
743.84	1970.15
744.02	1964.00
744.20	1964.00
744.38	1847.27
744.56	1906.66
744.74	2033.63
744.92	1941.47
745.10	2086.88
745.28	1978.34
745.46	2074.59
745.64	1949.67
745.82	2043.87
746.00	1865.70
746.18	2045.92
746.36	1908.71
746.54	1947.62
746.72	1896.42
746.90	1785.83
747.08	2090.98
747.26	1875.94
747.44	2023.39
747.62	1935.33
747.80	1957.86
747.98	2017.25
748.15	1986.53
748.33	2017.25
748.51	1955.81
748.69	2060.26
748.87	1890.28
749.05	1929.19
749.23	1984.48
749.41	2037.73
749.59	1916.90
749.77	2084.83
749.95	1914.85
750.13	1880.04
750.31	1996.77
750.49	1988.58
750.67	2007.01
750.85	2015.20
751.03	1974.24
751.20	2140.13
751.38	1939.43
751.56	1943.52
751.74	2033.63
751.92	1943.52
752.10	1939.43
752.28	2031.58
752.46	1906.66
752.64	1996.77
752.82	2050.02
753.00	2043.87
753.18	1902.56
753.35	1959.91
753.53	1982.43
753.71	1931.23
753.89	2056.16
754.07	2035.68
754.25	2043.87
754.43	2011.11
754.61	1957.86
754.79	1966.05
754.97	1961.95
755.14	2072.54
755.32	1916.90
755.50	1898.47
755.68	2052.06
755.86	1855.46
756.04	1914.85
756.22	1822.69
756.40	2002.91
756.57	2146.27
756.75	1966.05
756.93	1929.19
757.11	2045.92
757.29	1884.13
757.47	1871.84
757.65	1832.93
757.82	1740.77
758.00	1880.04
758.18	1914.85
758.36	1906.66
758.54	2158.56
758.72	1822.69
758.90	2031.58
759.07	1994.72
759.25	1875.94
759.43	2041.82
759.61	1863.65
759.79	2637.78
759.97	2000.87
760.15	1978.34
760.32	1951.71
760.50	1968.10
760.68	2115.55
760.86	1812.45
761.04	2058.21
761.22	2011.11
761.39	1959.91
761.57	1918.95
761.75	1882.08
761.93	1951.71
762.11	1980.39
762.28	1941.47
762.46	1882.08
762.64	2031.58
762.82	1853.41
763.00	1906.66
763.18	2064.35
763.35	1867.75
763.53	1978.34
763.71	2013.15
763.89	1931.23
764.07	1927.14
764.24	1935.33
764.42	1957.86
764.60	1992.67
764.78	1933.28
764.96	1961.95
765.13	2045.92
765.31	1953.76
765.49	2000.87
765.67	1904.61
765.84	1863.65
766.02	1966.05
766.20	1873.89
766.38	1990.63
766.56	2033.63
766.73	2029.54
766.91	1959.91
767.09	1890.28
767.27	1914.85
767.44	1845.22
767.62	1970.15
767.80	1996.77
767.98	1865.70
768.15	1902.56
768.33	1980.39
768.51	2007.01
768.69	2074.59
768.87	2000.87
769.04	1875.94
769.22	2193.37
769.40	2088.93
769.58	2142.18
769.75	1974.24
769.93	2103.26
770.11	1912.80
770.28	1904.61
770.46	1982.43
770.64	2011.11
770.82	1937.38
770.99	1906.66
771.17	1896.42
771.35	1925.09
771.53	1900.52
771.70	1976.29
771.88	2007.01
772.06	2029.54
772.23	1949.67
772.41	1925.09
772.59	1923.04
772.77	1880.04
772.94	1855.46
773.12	1974.24
773.30	1916.90
773.47	2039.78
773.65	1824.74
773.83	2023.39
774.01	2004.96
774.18	1779.68
774.36	1964.00
774.54	1847.27
774.71	2031.58
774.89	1755.11
775.07	1814.50
775.24	1951.71
775.42	1933.28
775.60	2078.69
775.78	1880.04
775.95	1896.42
776.13	1798.12
776.31	1851.36
776.48	1900.52
776.66	2037.73
776.84	1949.67
777.01	1910.75
777.19	1912.80
777.37	1939.43
777.54	1990.63
777.72	2131.94
777.90	1984.48
778.07	1847.27
778.25	2160.61
778.43	2002.91
778.60	1941.47
778.78	2017.25
778.96	2086.88
779.13	1904.61
779.31	1988.58
779.49	1984.48
779.66	1984.48
779.84	1978.34
780.01	1882.08
780.19	1861.60
780.37	2021.35
780.54	2009.06
780.72	1886.18
780.90	1867.75
781.07	1953.76
781.25	1931.23
781.43	2043.87
781.60	1888.23
781.78	2074.59
781.95	1943.52
782.13	1941.47
782.31	1916.90
782.48	1855.46
782.66	1961.95
782.83	2095.07
783.01	1943.52
783.19	1976.29
783.36	2011.11
783.54	1828.84
783.72	2123.74
783.89	1910.75
784.07	1920.99
784.24	1964.00
784.42	2101.22
784.60	1964.00
784.77	2045.92
784.95	1814.50
785.12	1867.75
785.30	1929.19
785.47	1896.42
785.65	1873.89
785.83	1908.71
786.00	1933.28
786.18	2039.78
786.35	1902.56
786.53	1906.66
786.71	1972.19
786.88	1959.91
787.06	2021.35
787.23	1947.62
787.41	1882.08
787.58	1994.72
787.76	1957.86
787.94	1867.75
788.11	1906.66
788.29	1951.71
788.46	1931.23
788.64	1906.66
788.81	1972.19
788.99	1961.95
789.16	1947.62
789.34	1976.29
789.52	1961.95
789.69	1937.38
789.87	1882.08
790.04	1894.37
790.22	1992.67
790.39	2084.83
790.57	1857.51
790.74	1886.18
790.92	2004.96
791.09	1859.56
791.27	1994.72
791.44	2004.96
791.62	1978.34
791.79	2037.73
791.97	2013.15
792.15	2179.04
792.32	2084.83
792.50	2047.97
792.67	2060.26
792.85	2084.83
793.02	1959.91
793.20	1880.04
793.37	1841.12
793.55	1890.28
793.72	1857.51
793.90	2025.44
794.07	1990.63
794.25	1943.52
794.42	2023.39
794.60	1941.47
794.77	2002.91
794.95	2039.78
795.12	2029.54
795.30	1974.24
795.47	1873.89
795.65	2150.37
795.82	2021.35
796.00	1890.28
796.17	1884.13
796.34	1959.91
796.52	2035.68
796.69	2037.73
796.87	1961.95
797.04	1992.67
797.22	2004.96
797.39	2015.20
797.57	2023.39
797.74	1949.67
797.92	1890.28
798.09	1918.95
798.27	1998.82
798.44	1890.28
798.62	1916.90
798.79	1990.63
798.96	1920.99
799.14	1935.33
799.31	2129.89
799.49	1935.33
799.66	1925.09
799.84	1990.63
800.01	1830.88
800.19	1943.52
800.36	1853.41
800.53	1949.67
800.71	1974.24
800.88	2119.65
801.06	1896.42
801.23	1871.84
801.41	1869.80
801.58	1896.42
801.75	1902.56
801.93	1970.15
802.10	2011.11
802.28	2033.63
802.45	1931.23
802.63	1994.72
802.80	1998.82
802.97	1959.91
803.15	1929.19
803.32	1877.99
803.50	1884.13
803.67	1939.43
803.84	1877.99
804.02	1933.28
804.19	1892.32
804.37	1800.16
804.54	1902.56
804.71	1978.34
804.89	1972.19
805.06	1914.85
805.24	1869.80
805.41	1937.38
805.58	1929.19
805.76	2084.83
805.93	1964.00
806.10	2058.21
806.28	1978.34
806.45	1957.86
806.63	2009.06
806.80	1966.05
806.97	2031.58
807.15	1929.19
807.32	1900.52
807.49	1976.29
807.67	1877.99
807.84	1877.99
808.01	1826.79
808.19	2070.50
808.36	2107.36
808.54	1970.15
808.71	1906.66
808.88	2011.11
809.06	2015.20
809.23	2045.92
809.40	1988.58
809.58	1974.24
809.75	1947.62
809.92	1929.19
810.10	2088.93
810.27	1961.95
810.44	1970.15
810.62	2021.35
810.79	2039.78
810.96	1943.52
811.14	1951.71
811.31	1998.82
811.48	2009.06
811.66	2002.91
811.83	2004.96
812.00	2058.21
812.18	1951.71
812.35	2062.30
812.52	1834.98
812.69	1918.95
812.87	1894.37
813.04	1941.47
813.21	1865.70
813.39	1880.04
813.56	1857.51
813.73	2043.87
813.91	1851.36
814.08	1882.08
814.25	1974.24
814.42	1824.74
814.60	1892.32
814.77	1970.15
814.94	1992.67
815.12	1968.10
815.29	2060.26
815.46	1937.38
815.63	1914.85
815.81	1929.19
815.98	1951.71
816.15	1972.19
816.33	1888.23
816.50	1916.90
816.67	2000.87
816.84	1900.52
817.02	1908.71
817.19	1890.28
817.36	1941.47
817.53	2035.68
817.71	1871.84
817.88	1951.71
818.05	1920.99
818.22	1908.71
818.40	2095.07
818.57	1964.00
818.74	2054.11
818.91	1982.43
819.09	2066.40
819.26	2066.40
819.43	1847.27
819.60	1910.75
819.78	2076.64
819.95	2047.97
820.12	1884.13
820.29	1986.53
820.47	2093.02
820.64	1910.75
820.81	1873.89
820.98	1855.46
821.15	1990.63
821.33	2084.83
821.50	1859.56
821.67	1972.19
821.84	1818.60
822.02	2004.96
822.19	1966.05
822.36	1894.37
822.53	1871.84
822.70	1857.51
822.88	1974.24
823.05	2138.08
823.22	1970.15
823.39	2031.58
823.56	1863.65
823.74	2123.74
823.91	1880.04
824.08	1828.84
824.25	1791.97
824.42	2117.60
824.60	1853.41
824.77	1970.15
824.94	1941.47
825.11	2017.25
825.28	1843.17
825.45	1955.81
825.63	1992.67
825.80	1896.42
825.97	2015.20
826.14	1908.71
826.31	1800.16
826.48	2017.25
826.66	1931.23
826.83	1970.15
827.00	1990.63
827.17	1945.57
827.34	1959.91
827.51	1884.13
827.69	1947.62
827.86	1871.84
828.03	1894.37
828.20	1900.52
828.37	1929.19
828.54	1988.58
828.71	1857.51
828.89	1994.72
829.06	1982.43
829.23	2066.40
829.40	1910.75
829.57	1933.28
829.74	2017.25
829.91	1884.13
830.09	1923.04
830.26	2045.92
830.43	2138.08
830.60	1923.04
830.77	1974.24
830.94	2002.91
831.11	1970.15
831.28	1916.90
831.46	2093.02
831.63	1888.23
831.80	1961.95
831.97	1925.09
832.14	2017.25
832.31	2045.92
832.48	1988.58
832.65	2052.06
832.82	1898.47
832.99	2000.87
833.17	1847.27
833.34	2064.35
833.51	1984.48
833.68	1826.79
833.85	2041.82
834.02	1892.32
834.19	1892.32
834.36	1961.95
834.53	1925.09
834.70	1990.63
834.87	2031.58
835.04	1877.99
835.22	1937.38
835.39	1941.47
835.56	1900.52
835.73	1931.23
835.90	2019.30
836.07	1955.81
836.24	1937.38
836.41	1845.22
836.58	1871.84
836.75	1980.39
836.92	2013.15
837.09	1937.38
837.26	1998.82
837.43	1947.62
837.60	1953.76
837.77	1982.43
837.94	2000.87
838.12	2056.16
838.29	1925.09
838.46	1880.04
838.63	1761.25
838.80	2111.46
838.97	2017.25
839.14	1951.71
839.31	1920.99
839.48	2007.01
839.65	1941.47
839.82	2023.39
839.99	2023.39
840.16	1976.29
840.33	1920.99
840.50	1957.86
840.67	1884.13
840.84	1789.92
841.01	1929.19
841.18	1898.47
841.35	1976.29
841.52	2023.39
841.69	2045.92
841.86	1959.91
842.03	1882.08
842.20	2068.45
842.37	1916.90
842.54	1920.99
842.71	1976.29
842.88	1863.65
843.05	2015.20
843.22	1908.71
843.39	2021.35
843.56	1896.42
843.73	1982.43
843.90	2000.87
844.07	1986.53
844.24	2082.78
844.41	2066.40
844.58	1959.91
844.75	2031.58
844.92	2013.15
845.09	1923.04
845.26	1935.33
845.43	2019.30
845.60	1873.89
845.77	1961.95
845.94	1949.67
846.10	1972.19
846.27	1888.23
846.44	1875.94
846.61	1886.18
846.78	2047.97
846.95	2041.82
847.12	1855.46
847.29	1877.99
847.46	1961.95
847.63	2043.87
847.80	1896.42
847.97	1920.99
848.14	2136.03
848.31	1865.70
848.48	1970.15
848.65	1943.52
848.82	1961.95
848.98	2191.33
849.15	1972.19
849.32	1990.63
849.49	1994.72
849.66	1918.95
849.83	2015.20
850.00	1943.52
850.17	2002.91
850.34	1998.82
850.51	1908.71
850.68	1982.43
850.85	2166.75
851.01	1964.00
851.18	1966.05
851.35	1959.91
851.52	1931.23
851.69	2109.41
851.86	1832.93
852.03	1937.38
852.20	2035.68
852.37	2031.58
852.53	1851.36
852.70	1931.23
852.87	1990.63
853.04	2011.11
853.21	1957.86
853.38	2009.06
853.55	2101.22
853.72	2090.98
853.89	1918.95
854.05	1863.65
854.22	1890.28
854.39	1972.19
854.56	1978.34
854.73	2076.64
854.90	1902.56
855.07	1955.81
855.23	1912.80
855.40	1943.52
855.57	2021.35
855.74	1753.06
855.91	2095.07
856.08	1822.69
856.25	1886.18
856.41	1830.88
856.58	1865.70
856.75	2013.15
856.92	1845.22
857.09	1968.10
857.26	1787.88
857.42	1931.23
857.59	1951.71
857.76	1984.48
857.93	1961.95
858.10	2004.96
858.27	1873.89
858.43	1935.33
858.60	1941.47
858.77	1800.16
858.94	1902.56
859.11	2021.35
859.27	1916.90
859.44	1984.48
859.61	2121.70
859.78	1951.71
859.95	1902.56
860.12	1863.65
860.28	2086.88
860.45	2097.12
860.62	1929.19
860.79	2023.39
860.95	1996.77
861.12	1914.85
861.29	1855.46
861.46	1947.62
861.63	1947.62
861.79	1880.04
861.96	1906.66
862.13	1910.75
862.30	2127.84
862.47	1939.43
862.63	1933.28
862.80	1984.48
862.97	1992.67
863.14	1927.14
863.30	1929.19
863.47	1845.22
863.64	2111.46
863.81	2015.20
863.97	1888.23
864.14	1986.53
864.31	2025.44
864.48	2027.49
864.65	1931.23
864.81	1959.91
864.98	1957.86
865.15	2029.54
865.32	1992.67
865.48	1988.58
865.65	2054.11
865.82	1898.47
865.98	1986.53
866.15	2035.68
866.32	1877.99
866.49	1959.91
866.65	2029.54
866.82	1970.15
866.99	1873.89
867.16	1935.33
867.32	1957.86
867.49	1937.38
867.66	1910.75
867.83	1925.09
867.99	1892.32
868.16	1910.75
868.33	1877.99
868.49	2068.45
868.66	1937.38
868.83	1996.77
868.99	1982.43
869.16	1982.43
869.33	2062.30
869.50	2009.06
869.66	1994.72
869.83	2009.06
870.00	1837.03
870.16	1933.28
870.33	1974.24
870.50	1976.29
870.66	1957.86
870.83	2152.42
871.00	1959.91
871.17	2013.15
871.33	2023.39
871.50	1966.05
871.67	1970.15
871.83	1923.04
872.00	2078.69
872.17	1843.17
872.33	2029.54
872.50	2037.73
872.67	1904.61
872.83	1914.85
873.00	2023.39
873.17	2007.01
873.33	2068.45
873.50	1937.38
873.67	1771.49
873.83	1923.04
874.00	1916.90
874.16	2080.74
874.33	2035.68
874.50	1933.28
874.66	1990.63
874.83	1945.57
875.00	2103.26
875.16	2002.91
875.33	2041.82
875.50	1781.73
875.66	1898.47
875.83	2009.06
875.99	1988.58
876.16	1957.86
876.33	1906.66
876.49	1929.19
876.66	1990.63
876.83	1851.36
876.99	1851.36
877.16	1959.91
877.32	1964.00
877.49	1964.00
877.66	2017.25
877.82	2052.06
877.99	1906.66
878.15	1986.53
878.32	1998.82
878.49	1986.53
878.65	1894.37
878.82	1972.19
878.98	1953.76
879.15	2099.17
879.32	1949.67
879.48	1964.00
879.65	1982.43
879.81	1853.41
879.98	1886.18
880.15	1867.75
880.31	1949.67
880.48	1826.79
880.64	1939.43
880.81	1865.70
880.97	2043.87
881.14	2031.58
881.31	1900.52
881.47	2084.83
881.64	1884.13
881.80	1914.85
881.97	1976.29
882.13	1949.67
882.30	1892.32
882.47	1849.32
882.63	1873.89
882.80	1929.19
882.96	1908.71
883.13	2027.49
883.29	1896.42
883.46	1957.86
883.62	2050.02
883.79	1894.37
883.95	1941.47
884.12	2015.20
884.29	2007.01
884.45	2011.11
884.62	1871.84
884.78	1873.89
884.95	2011.11
885.11	1820.64
885.28	1959.91
885.44	1937.38
885.61	1974.24
885.77	2076.64
885.94	1908.71
886.10	1925.09
886.27	1980.39
886.43	2054.11
886.60	2072.54
886.76	1992.67
886.93	1937.38
887.09	1931.23
887.26	1865.70
887.42	1998.82
887.59	1978.34
887.75	2101.22
887.92	2021.35
888.08	2056.16
888.25	2019.30
888.41	2095.07
888.58	1931.23
888.74	1929.19
888.91	1863.65
>>>>>End Processed Spectral Data<<<<<
