SpectraSuite Data File
++++++++++++++++++++++++++++++++++++
Date: Wed May 04 22:46:17 CEST 2016
User: root
Dark Spectrum Present: No
Reference Spectrum Present: No
Number of Sampled Component Spectra: 1
Spectrometers: USB4C02835
Integration Time (usec): 100000 (USB4C02835)
Spectra Averaged: 1 (USB4C02835)
Boxcar Smoothing: 0 (USB4C02835)
Correct for Electrical Dark: No (USB4C02835)
Strobe/Lamp Enabled: No (USB4C02835)
Correct for Detector Non-linearity: No (USB4C02835)
Correct for Stray Light: No (USB4C02835)
Number of Pixels in Processed Spectrum: 3648
>>>>>Begin Processed Spectral Data<<<<<
177.47	1669.09
177.69	1669.09
177.91	1669.09
178.13	1613.80
178.36	1517.54
178.58	1933.28
178.80	1986.53
179.02	1826.79
179.24	1855.46
179.46	1974.24
179.68	1949.67
179.90	1941.47
180.13	1968.10
180.35	1904.61
180.57	1890.28
180.79	1947.62
181.01	1951.71
181.23	1986.53
181.45	2043.87
181.67	2011.11
181.90	1920.99
182.12	1935.33
182.34	1918.95
182.56	1939.43
182.78	1976.29
183.00	1896.42
183.22	1974.24
183.44	1820.64
183.66	2232.29
183.89	2045.92
184.11	1970.15
184.33	2023.39
184.55	2021.35
184.77	2000.87
184.99	2004.96
185.21	1853.41
185.43	2127.84
185.65	1871.84
185.87	1904.61
186.10	2136.03
186.32	2076.64
186.54	1959.91
186.76	1994.72
186.98	2023.39
187.20	1959.91
187.42	1945.57
187.64	1968.10
187.86	2043.87
188.08	2000.87
188.30	1968.10
188.52	1939.43
188.75	2019.30
188.97	2000.87
189.19	1939.43
189.41	1902.56
189.63	2029.54
189.85	1875.94
190.07	1816.55
190.29	1748.97
190.51	1984.48
190.73	1871.84
190.95	1937.38
191.17	1920.99
191.39	1820.64
191.61	1896.42
191.84	1865.70
192.06	1951.71
192.28	1816.55
192.50	2170.85
192.72	1959.91
192.94	1912.80
193.16	1966.05
193.38	1923.04
193.60	1888.23
193.82	1892.32
194.04	2082.78
194.26	1941.47
194.48	2037.73
194.70	1904.61
194.92	2029.54
195.14	2129.89
195.36	1923.04
195.58	1894.37
195.80	1890.28
196.02	1984.48
196.24	1941.47
196.46	1933.28
196.69	1941.47
196.91	2133.98
197.13	1892.32
197.35	1957.86
197.57	2062.30
197.79	2060.26
198.01	2002.91
198.23	2000.87
198.45	1974.24
198.67	1873.89
198.89	1906.66
199.11	1949.67
199.33	1904.61
199.55	1800.16
199.77	1964.00
199.99	2078.69
200.21	1875.94
200.43	1933.28
200.65	1845.22
200.87	1804.26
201.09	1978.34
201.31	1951.71
201.53	1980.39
201.75	1982.43
201.97	1939.43
202.19	2013.15
202.41	1908.71
202.63	2033.63
202.85	1998.82
203.07	2004.96
203.29	1865.70
203.51	1882.08
203.73	1890.28
203.95	2211.81
204.17	2007.01
204.39	2037.73
204.61	1972.19
204.83	1900.52
205.05	2093.02
205.27	1996.77
205.49	2093.02
205.71	1931.23
205.93	1826.79
206.15	1892.32
206.37	1984.48
206.59	1920.99
206.81	1867.75
207.03	1849.32
207.25	1912.80
207.47	2023.39
207.69	1923.04
207.91	2060.26
208.13	2115.55
208.34	1892.32
208.56	1918.95
208.78	1968.10
209.00	1984.48
209.22	1953.76
209.44	1859.56
209.66	1918.95
209.88	1992.67
210.10	1824.74
210.32	1892.32
210.54	1996.77
210.76	1945.57
210.98	2058.21
211.20	1837.03
211.42	2002.91
211.64	2117.60
211.86	2013.15
212.08	1961.95
212.30	1865.70
212.52	1964.00
212.74	1996.77
212.96	2013.15
213.17	1984.48
213.39	1998.82
213.61	2062.30
213.83	1861.60
214.05	2015.20
214.27	2052.06
214.49	1906.66
214.71	1904.61
214.93	1972.19
215.15	1925.09
215.37	2015.20
215.59	1832.93
215.81	1970.15
216.03	2150.37
216.24	1892.32
216.46	1941.47
216.68	1920.99
216.90	2002.91
217.12	2017.25
217.34	1916.90
217.56	2009.06
217.78	2056.16
218.00	1980.39
218.22	1920.99
218.44	1974.24
218.66	2025.44
218.87	2123.74
219.09	1890.28
219.31	1945.57
219.53	1914.85
219.75	1877.99
219.97	1935.33
220.19	1906.66
220.41	1898.47
220.63	2136.03
220.85	1953.76
221.06	1873.89
221.28	1974.24
221.50	1982.43
221.72	1951.71
221.94	1904.61
222.16	2023.39
222.38	2023.39
222.60	1994.72
222.82	1918.95
223.03	2047.97
223.25	1867.75
223.47	2007.01
223.69	2068.45
223.91	2052.06
224.13	2002.91
224.35	1861.60
224.57	2041.82
224.78	2082.78
225.00	1873.89
225.22	1945.57
225.44	1951.71
225.66	1990.63
225.88	1894.37
226.10	1976.29
226.32	1912.80
226.53	2000.87
226.75	1920.99
226.97	1982.43
227.19	1955.81
227.41	1871.84
227.63	1888.23
227.85	1767.40
228.06	1890.28
228.28	1945.57
228.50	2023.39
228.72	1865.70
228.94	1920.99
229.16	1837.03
229.37	1902.56
229.59	1839.08
229.81	2029.54
230.03	1882.08
230.25	1773.54
230.47	1865.70
230.69	1847.27
230.90	2025.44
231.12	1920.99
231.34	2004.96
231.56	2062.30
231.78	1855.46
232.00	1982.43
232.21	1916.90
232.43	1943.52
232.65	1791.97
232.87	1959.91
233.09	1896.42
233.30	1910.75
233.52	2013.15
233.74	1992.67
233.96	1912.80
234.18	1996.77
234.40	1943.52
234.61	2109.41
234.83	1800.16
235.05	1882.08
235.27	2150.37
235.49	2007.01
235.70	1888.23
235.92	2017.25
236.14	2047.97
236.36	2099.17
236.58	1902.56
236.79	1986.53
237.01	1908.71
237.23	1927.14
237.45	2076.64
237.67	1845.22
237.88	1966.05
238.10	2152.42
238.32	1886.18
238.54	1972.19
238.76	1990.63
238.97	1953.76
239.19	1877.99
239.41	1972.19
239.63	2045.92
239.85	1927.14
240.06	1904.61
240.28	1953.76
240.50	2011.11
240.72	1976.29
240.93	1920.99
241.15	2013.15
241.37	2000.87
241.59	2019.30
241.81	1822.69
242.02	1900.52
242.24	1959.91
242.46	2078.69
242.68	1955.81
242.89	1918.95
243.11	2035.68
243.33	1927.14
243.55	1990.63
243.76	1961.95
243.98	1933.28
244.20	1959.91
244.42	1906.66
244.64	1916.90
244.85	1828.84
245.07	1869.80
245.29	1949.67
245.51	1929.19
245.72	1861.60
245.94	1984.48
246.16	1990.63
246.38	1939.43
246.59	1890.28
246.81	1939.43
247.03	1890.28
247.24	1877.99
247.46	1927.14
247.68	1916.90
247.90	1900.52
248.11	1853.41
248.33	2074.59
248.55	1996.77
248.77	1904.61
248.98	1912.80
249.20	2181.09
249.42	1959.91
249.64	2000.87
249.85	1935.33
250.07	1957.86
250.29	1957.86
250.50	1968.10
250.72	1853.41
250.94	1994.72
251.16	2097.12
251.37	2007.01
251.59	1918.95
251.81	1947.62
252.02	2099.17
252.24	1865.70
252.46	1992.67
252.68	1929.19
252.89	1943.52
253.11	1841.12
253.33	2125.79
253.54	2082.78
253.76	1945.57
253.98	1931.23
254.20	1888.23
254.41	1890.28
254.63	1900.52
254.85	1837.03
255.06	1904.61
255.28	1947.62
255.50	1945.57
255.71	1908.71
255.93	1802.21
256.15	2007.01
256.36	1996.77
256.58	1849.32
256.80	1984.48
257.02	1957.86
257.23	1933.28
257.45	1945.57
257.67	2021.35
257.88	1998.82
258.10	2088.93
258.32	1906.66
258.53	1974.24
258.75	2037.73
258.97	1918.95
259.18	1906.66
259.40	1871.84
259.62	2082.78
259.83	2043.87
260.05	1947.62
260.27	2314.20
260.48	2000.87
260.70	1865.70
260.92	1890.28
261.13	1914.85
261.35	1996.77
261.57	1945.57
261.78	1834.98
262.00	1882.08
262.22	1974.24
262.43	1949.67
262.65	1890.28
262.86	1937.38
263.08	2109.41
263.30	1994.72
263.51	1857.51
263.73	1914.85
263.95	1966.05
264.16	1875.94
264.38	1898.47
264.60	1964.00
264.81	1970.15
265.03	2058.21
265.25	2033.63
265.46	1880.04
265.68	2111.46
265.89	1974.24
266.11	1810.40
266.33	2011.11
266.54	2019.30
266.76	1998.82
266.98	1953.76
267.19	2000.87
267.41	2029.54
267.62	2045.92
267.84	1857.51
268.06	1974.24
268.27	1933.28
268.49	1994.72
268.70	1935.33
268.92	1961.95
269.14	1943.52
269.35	1853.41
269.57	1968.10
269.79	1992.67
270.00	1910.75
270.22	2150.37
270.43	1865.70
270.65	1802.21
270.87	1939.43
271.08	2039.78
271.30	1949.67
271.51	2033.63
271.73	1990.63
271.95	2078.69
272.16	1984.48
272.38	1976.29
272.59	1920.99
272.81	1970.15
273.02	1943.52
273.24	1984.48
273.46	1970.15
273.67	1841.12
273.89	1916.90
274.10	1908.71
274.32	2080.74
274.54	2000.87
274.75	2074.59
274.97	1941.47
275.18	1945.57
275.40	1970.15
275.61	1988.58
275.83	1929.19
276.05	1904.61
276.26	1947.62
276.48	2056.16
276.69	1857.51
276.91	1912.80
277.12	2084.83
277.34	1994.72
277.55	1953.76
277.77	2041.82
277.99	1972.19
278.20	1947.62
278.42	1849.32
278.63	1882.08
278.85	1978.34
279.06	1841.12
279.28	2088.93
279.49	2056.16
279.71	2045.92
279.93	1968.10
280.14	2017.25
280.36	1906.66
280.57	2052.06
280.79	2011.11
281.00	1847.27
281.22	1904.61
281.43	2033.63
281.65	1781.73
281.86	1894.37
282.08	2027.49
282.29	2105.31
282.51	1882.08
282.73	1867.75
282.94	1871.84
283.16	2045.92
283.37	2103.26
283.59	1964.00
283.80	1884.13
284.02	1978.34
284.23	2009.06
284.45	1918.95
284.66	1880.04
284.88	1877.99
285.09	1996.77
285.31	2050.02
285.52	2093.02
285.74	1816.55
285.95	1974.24
286.17	1970.15
286.38	1998.82
286.60	1925.09
286.81	1978.34
287.03	1916.90
287.24	1970.15
287.46	2041.82
287.67	1992.67
287.89	2142.18
288.10	1873.89
288.32	1949.67
288.53	2060.26
288.75	1957.86
288.96	1982.43
289.18	1837.03
289.39	1896.42
289.61	2021.35
289.82	2156.51
290.04	2133.98
290.25	1859.56
290.47	1949.67
290.68	1914.85
290.90	2056.16
291.11	1877.99
291.33	2062.30
291.54	1890.28
291.76	1957.86
291.97	1966.05
292.18	1959.91
292.40	1955.81
292.61	1935.33
292.83	2127.84
293.04	1992.67
293.26	2021.35
293.47	1966.05
293.69	1890.28
293.90	1908.71
294.12	1986.53
294.33	2041.82
294.55	1947.62
294.76	2031.58
294.97	2066.40
295.19	2097.12
295.40	1970.15
295.62	1953.76
295.83	2025.44
296.05	1916.90
296.26	2054.11
296.48	1916.90
296.69	1988.58
296.90	1857.51
297.12	1996.77
297.33	2095.07
297.55	1916.90
297.76	2027.49
297.98	2023.39
298.19	2074.59
298.41	1929.19
298.62	1845.22
298.83	2074.59
299.05	1898.47
299.26	1918.95
299.48	1877.99
299.69	1931.23
299.90	1966.05
300.12	1906.66
300.33	2041.82
300.55	1953.76
300.76	2019.30
300.98	1898.47
301.19	2074.59
301.40	1966.05
301.62	1984.48
301.83	1951.71
302.05	1994.72
302.26	2002.91
302.47	2060.26
302.69	1888.23
302.90	1947.62
303.12	1794.02
303.33	2045.92
303.54	2076.64
303.76	1900.52
303.97	1966.05
304.19	2047.97
304.40	1916.90
304.61	2062.30
304.83	2105.31
305.04	2060.26
305.26	2064.35
305.47	2029.54
305.68	1976.29
305.90	1865.70
306.11	2103.26
306.33	1931.23
306.54	1955.81
306.75	1898.47
306.97	1873.89
307.18	1867.75
307.39	1912.80
307.61	1951.71
307.82	1882.08
308.04	2021.35
308.25	1984.48
308.46	1914.85
308.68	1923.04
308.89	1927.14
309.10	2015.20
309.32	2021.35
309.53	1972.19
309.74	2025.44
309.96	1890.28
310.17	1980.39
310.39	1898.47
310.60	1992.67
310.81	1955.81
311.03	1925.09
311.24	2066.40
311.45	1968.10
311.67	2090.98
311.88	1961.95
312.09	1974.24
312.31	1964.00
312.52	1933.28
312.73	1945.57
312.95	1900.52
313.16	1843.17
313.37	2009.06
313.59	2011.11
313.80	1970.15
314.01	1978.34
314.23	1927.14
314.44	1902.56
314.65	1837.03
314.87	1871.84
315.08	1947.62
315.29	1972.19
315.51	1912.80
315.72	1810.40
315.93	2066.40
316.15	2013.15
316.36	1925.09
316.57	2009.06
316.79	1951.71
317.00	1959.91
317.21	1978.34
317.43	1865.70
317.64	1953.76
317.85	1882.08
318.07	1900.52
318.28	1994.72
318.49	2082.78
318.70	2224.09
318.92	2230.24
319.13	2142.18
319.34	2140.13
319.56	2138.08
319.77	2105.31
319.98	2101.22
320.20	2035.68
320.41	2072.54
320.62	1959.91
320.83	1865.70
321.05	2101.22
321.26	2013.15
321.47	1914.85
321.69	2072.54
321.90	1810.40
322.11	1906.66
322.32	2007.01
322.54	2019.30
322.75	1945.57
322.96	2121.70
323.18	1865.70
323.39	1798.12
323.60	1892.32
323.81	2021.35
324.03	1849.32
324.24	2013.15
324.45	1931.23
324.66	2000.87
324.88	2050.02
325.09	1990.63
325.30	1951.71
325.52	1994.72
325.73	2029.54
325.94	1898.47
326.15	1841.12
326.37	1929.19
326.58	1992.67
326.79	2045.92
327.00	1890.28
327.22	1892.32
327.43	2007.01
327.64	1906.66
327.85	1914.85
328.07	1964.00
328.28	2062.30
328.49	1974.24
328.70	1916.90
328.92	1976.29
329.13	1882.08
329.34	1998.82
329.55	2054.11
329.76	1968.10
329.98	1875.94
330.19	2021.35
330.40	1976.29
330.61	1916.90
330.83	2056.16
331.04	1890.28
331.25	1939.43
331.46	1931.23
331.68	1843.17
331.89	2060.26
332.10	1984.48
332.31	1859.56
332.52	1957.86
332.74	2060.26
332.95	1832.93
333.16	1941.47
333.37	1925.09
333.58	1894.37
333.80	1931.23
334.01	1839.08
334.22	2009.06
334.43	1931.23
334.64	1890.28
334.86	1857.51
335.07	1970.15
335.28	2015.20
335.49	1894.37
335.70	2029.54
335.92	1933.28
336.13	2084.83
336.34	2031.58
336.55	1953.76
336.76	1916.90
336.98	1777.64
337.19	1978.34
337.40	2074.59
337.61	2129.89
337.82	1877.99
338.04	1992.67
338.25	1804.26
338.46	1931.23
338.67	1904.61
338.88	1777.64
339.09	1890.28
339.31	1914.85
339.52	1837.03
339.73	1834.98
339.94	1886.18
340.15	1867.75
340.36	1867.75
340.58	1972.19
340.79	1937.38
341.00	1957.86
341.21	1914.85
341.42	2111.46
341.63	1980.39
341.85	1992.67
342.06	1943.52
342.27	1931.23
342.48	2011.11
342.69	1880.04
342.90	2045.92
343.12	1964.00
343.33	1847.27
343.54	1972.19
343.75	2047.97
343.96	1972.19
344.17	1851.36
344.38	1957.86
344.60	1845.22
344.81	1894.37
345.02	1902.56
345.23	2023.39
345.44	2131.94
345.65	2013.15
345.86	2017.25
346.07	1994.72
346.29	1937.38
346.50	1982.43
346.71	1923.04
346.92	2060.26
347.13	2131.94
347.34	1914.85
347.55	2002.91
347.76	1941.47
347.98	1818.60
348.19	1978.34
348.40	2066.40
348.61	1904.61
348.82	2031.58
349.03	2043.87
349.24	1937.38
349.45	2088.93
349.66	1800.16
349.88	1945.57
350.09	1918.95
350.30	2105.31
350.51	2099.17
350.72	1931.23
350.93	2060.26
351.14	1968.10
351.35	1912.80
351.56	1873.89
351.77	1882.08
351.99	1978.34
352.20	2131.94
352.41	2052.06
352.62	1865.70
352.83	1988.58
353.04	1890.28
353.25	1929.19
353.46	2039.78
353.67	2070.50
353.88	1849.32
354.09	1974.24
354.30	1982.43
354.52	1994.72
354.73	1888.23
354.94	1916.90
355.15	1931.23
355.36	2062.30
355.57	1968.10
355.78	2013.15
355.99	1923.04
356.20	1957.86
356.41	1980.39
356.62	2062.30
356.83	1961.95
357.04	2060.26
357.25	1865.70
357.46	1974.24
357.68	1851.36
357.89	1877.99
358.10	1970.15
358.31	1898.47
358.52	1892.32
358.73	1898.47
358.94	1845.22
359.15	1933.28
359.36	2064.35
359.57	1982.43
359.78	1925.09
359.99	2039.78
360.20	1916.90
360.41	2047.97
360.62	2035.68
360.83	1961.95
361.04	1966.05
361.25	1898.47
361.46	2101.22
361.67	1964.00
361.88	1998.82
362.09	2054.11
362.30	2013.15
362.51	1898.47
362.72	1910.75
362.93	2064.35
363.14	2002.91
363.35	2072.54
363.56	1953.76
363.78	2037.73
363.99	2017.25
364.20	1865.70
364.41	2017.25
364.62	2080.74
364.83	1970.15
365.04	1875.94
365.25	1953.76
365.46	2185.18
365.67	1914.85
365.88	1910.75
366.09	1941.47
366.30	1961.95
366.51	2054.11
366.72	1871.84
366.93	1949.67
367.14	1939.43
367.35	2017.25
367.56	1877.99
367.77	2095.07
367.98	1949.67
368.18	1970.15
368.39	1982.43
368.60	1925.09
368.81	2007.01
369.02	2002.91
369.23	1935.33
369.44	1849.32
369.65	1937.38
369.86	2015.20
370.07	2017.25
370.28	1947.62
370.49	2011.11
370.70	2002.91
370.91	1873.89
371.12	1798.12
371.33	2033.63
371.54	1912.80
371.75	2023.39
371.96	1767.40
372.17	2050.02
372.38	1912.80
372.59	1953.76
372.80	1923.04
373.01	1976.29
373.22	2015.20
373.43	1984.48
373.64	1914.85
373.85	2037.73
374.06	2074.59
374.26	1974.24
374.47	1992.67
374.68	2078.69
374.89	2031.58
375.10	1984.48
375.31	2009.06
375.52	1941.47
375.73	2021.35
375.94	1886.18
376.15	2035.68
376.36	1951.71
376.57	1826.79
376.78	1929.19
376.99	2021.35
377.20	2078.69
377.40	1949.67
377.61	2011.11
377.82	1877.99
378.03	2062.30
378.24	1939.43
378.45	1916.90
378.66	1949.67
378.87	1882.08
379.08	1812.45
379.29	1951.71
379.50	2054.11
379.71	2058.21
379.91	2021.35
380.12	1955.81
380.33	1968.10
380.54	1996.77
380.75	1976.29
380.96	1970.15
381.17	2004.96
381.38	1845.22
381.59	1943.52
381.80	2027.49
382.00	2150.37
382.21	2056.16
382.42	2187.23
382.63	2203.61
382.84	2090.98
383.05	2031.58
383.26	2082.78
383.47	2021.35
383.68	1990.63
383.88	2009.06
384.09	1984.48
384.30	2047.97
384.51	1978.34
384.72	1927.14
384.93	1859.56
385.14	1953.76
385.35	2007.01
385.55	1873.89
385.76	1998.82
385.97	1923.04
386.18	1877.99
386.39	1898.47
386.60	1939.43
386.81	2004.96
387.02	1880.04
387.22	1929.19
387.43	2125.79
387.64	2152.42
387.85	2152.42
388.06	2248.67
388.27	3946.44
388.48	8681.34
388.68	11888.46
388.89	14247.72
389.10	15722.26
389.31	14110.50
389.52	10927.96
389.73	9447.28
389.93	8681.34
390.14	7905.16
390.35	7229.33
390.56	6586.27
390.77	5156.79
390.98	4159.42
391.18	3229.65
391.39	2545.63
391.60	2148.32
391.81	2138.08
392.02	1990.63
392.23	2179.04
392.43	2000.87
392.64	2060.26
392.85	1945.57
393.06	2129.89
393.27	1937.38
393.47	2027.49
393.68	2017.25
393.89	1873.89
394.10	2047.97
394.31	1910.75
394.52	1910.75
394.72	1877.99
394.93	2074.59
395.14	1908.71
395.35	1984.48
395.56	1892.32
395.76	1961.95
395.97	2074.59
396.18	2121.70
396.39	2058.21
396.60	2353.12
396.80	2252.77
397.01	2084.83
397.22	2193.37
397.43	2211.81
397.64	2007.01
397.84	2121.70
398.05	2136.03
398.26	1988.58
398.47	2090.98
398.67	2109.41
398.88	1953.76
399.09	1900.52
399.30	1865.70
399.51	2093.02
399.71	1931.23
399.92	1978.34
400.13	2070.50
400.34	1892.32
400.54	1927.14
400.75	2076.64
400.96	1998.82
401.17	2199.52
401.37	1978.34
401.58	2002.91
401.79	1972.19
402.00	2109.41
402.21	2301.92
402.41	2344.92
402.62	2301.92
402.83	2340.83
403.04	2475.99
403.24	2463.71
403.45	2209.76
403.66	2222.05
403.87	2209.76
404.07	2199.52
404.28	2187.23
404.49	2168.80
404.70	2023.39
404.90	2045.92
405.11	2023.39
405.32	2015.20
405.52	1957.86
405.73	1867.75
405.94	1855.46
406.15	1927.14
406.35	1968.10
406.56	1966.05
406.77	1964.00
406.98	2068.45
407.18	1933.28
407.39	2033.63
407.60	1931.23
407.80	1974.24
408.01	1880.04
408.22	2021.35
408.43	1937.38
408.63	2025.44
408.84	2080.74
409.05	1918.95
409.25	1912.80
409.46	1861.60
409.67	1886.18
409.88	1961.95
410.08	2021.35
410.29	1912.80
410.50	2000.87
410.70	1990.63
410.91	1859.56
411.12	2019.30
411.32	1974.24
411.53	1910.75
411.74	2088.93
411.95	2045.92
412.15	2064.35
412.36	2152.42
412.57	2037.73
412.77	2162.66
412.98	1943.52
413.19	1980.39
413.39	1988.58
413.60	2084.83
413.81	2138.08
414.01	1947.62
414.22	1935.33
414.43	2033.63
414.63	1937.38
414.84	2052.06
415.05	2043.87
415.25	1945.57
415.46	2037.73
415.67	1961.95
415.87	2035.68
416.08	2045.92
416.29	1904.61
416.49	1941.47
416.70	1935.33
416.91	1994.72
417.11	1972.19
417.32	1978.34
417.53	1955.81
417.73	2000.87
417.94	1912.80
418.15	1937.38
418.35	1970.15
418.56	1992.67
418.77	2189.28
418.97	1931.23
419.18	1984.48
419.38	1763.30
419.59	1927.14
419.80	2029.54
420.00	1951.71
420.21	1914.85
420.42	2021.35
420.62	2000.87
420.83	1900.52
421.04	1892.32
421.24	1892.32
421.45	1980.39
421.65	2019.30
421.86	1959.91
422.07	1972.19
422.27	1992.67
422.48	1976.29
422.69	1892.32
422.89	1970.15
423.10	1927.14
423.30	1837.03
423.51	1906.66
423.72	1982.43
423.92	2072.54
424.13	1865.70
424.33	1990.63
424.54	1990.63
424.75	1964.00
424.95	2056.16
425.16	2013.15
425.36	1890.28
425.57	1961.95
425.78	1998.82
425.98	2078.69
426.19	1933.28
426.39	1894.37
426.60	1996.77
426.81	2050.02
427.01	1998.82
427.22	1890.28
427.42	1880.04
427.63	1882.08
427.83	2017.25
428.04	2117.60
428.25	2074.59
428.45	2056.16
428.66	2086.88
428.86	1941.47
429.07	1941.47
429.28	1998.82
429.48	1959.91
429.69	1923.04
429.89	1980.39
430.10	1867.75
430.30	1976.29
430.51	2082.78
430.71	1912.80
430.92	1918.95
431.13	1929.19
431.33	1957.86
431.54	1959.91
431.74	2076.64
431.95	2140.13
432.15	1964.00
432.36	1986.53
432.56	2009.06
432.77	2072.54
432.98	2093.02
433.18	1996.77
433.39	1953.76
433.59	1937.38
433.80	2240.48
434.00	2152.42
434.21	1953.76
434.41	1939.43
434.62	2195.42
434.82	1865.70
435.03	1923.04
435.23	2066.40
435.44	1806.31
435.64	1933.28
435.85	1978.34
436.06	1990.63
436.26	1994.72
436.47	1949.67
436.67	1927.14
436.88	1931.23
437.08	2058.21
437.29	2146.27
437.49	1968.10
437.70	2068.45
437.90	1964.00
438.11	2117.60
438.31	2084.83
438.52	2150.37
438.72	2160.61
438.93	2275.29
439.13	2011.11
439.34	2220.00
439.54	1998.82
439.75	2056.16
439.95	1976.29
440.16	1894.37
440.36	1920.99
440.57	2105.31
440.77	1968.10
440.98	1933.28
441.18	2058.21
441.39	1894.37
441.59	2015.20
441.80	2158.56
442.00	1996.77
442.21	2090.98
442.41	1871.84
442.62	2039.78
442.82	1888.23
443.02	1949.67
443.23	1996.77
443.43	1941.47
443.64	2127.84
443.84	1937.38
444.05	2140.13
444.25	1939.43
444.46	2021.35
444.66	1908.71
444.87	2088.93
445.07	1873.89
445.28	1945.57
445.48	2101.22
445.69	2019.30
445.89	2187.23
446.09	2009.06
446.30	2287.58
446.50	2639.83
446.71	4120.51
446.91	5377.97
447.12	6205.35
447.32	6559.64
447.53	6045.60
447.73	4915.12
447.93	4366.27
448.14	3962.82
448.34	3766.21
448.55	3401.68
448.75	3381.20
448.96	3182.54
449.16	2861.01
449.36	2674.65
449.57	2381.79
449.77	2156.51
449.98	2113.50
450.18	1947.62
450.39	2084.83
450.59	2029.54
450.79	1964.00
451.00	2019.30
451.20	2021.35
451.41	1951.71
451.61	1964.00
451.81	1998.82
452.02	1904.61
452.22	1955.81
452.43	1918.95
452.63	1941.47
452.84	1964.00
453.04	1873.89
453.24	1978.34
453.45	1982.43
453.65	1998.82
453.86	2060.26
454.06	2023.39
454.26	2078.69
454.47	1968.10
454.67	2039.78
454.87	2088.93
455.08	1957.86
455.28	2119.65
455.49	2019.30
455.69	1929.19
455.89	2119.65
456.10	2113.50
456.30	1888.23
456.51	2041.82
456.71	2009.06
456.91	2017.25
457.12	2011.11
457.32	2056.16
457.52	1906.66
457.73	2002.91
457.93	2076.64
458.14	2021.35
458.34	1820.64
458.54	1978.34
458.75	1966.05
458.95	2058.21
459.15	2025.44
459.36	1929.19
459.56	1949.67
459.76	2220.00
459.97	2002.91
460.17	1988.58
460.37	2011.11
460.58	1990.63
460.78	2015.20
460.99	1892.32
461.19	1966.05
461.39	2004.96
461.60	1896.42
461.80	2052.06
462.00	1896.42
462.21	1941.47
462.41	1988.58
462.61	1875.94
462.82	1859.56
463.02	2015.20
463.22	1961.95
463.43	2029.54
463.63	2019.30
463.83	2070.50
464.04	2013.15
464.24	2029.54
464.44	1937.38
464.64	1970.15
464.85	2066.40
465.05	2031.58
465.25	1894.37
465.46	1890.28
465.66	2029.54
465.86	1925.09
466.07	1951.71
466.27	1949.67
466.47	1843.17
466.68	1939.43
466.88	2080.74
467.08	1951.71
467.29	1998.82
467.49	1980.39
467.69	1978.34
467.89	2056.16
468.10	1910.75
468.30	2002.91
468.50	2107.36
468.71	2125.79
468.91	1945.57
469.11	2078.69
469.31	2009.06
469.52	1912.80
469.72	2070.50
469.92	2111.46
470.13	1939.43
470.33	2013.15
470.53	2072.54
470.73	2346.97
470.94	2895.83
471.14	2938.84
471.34	3321.81
471.54	3309.52
471.75	2912.21
471.95	2746.33
472.15	2469.85
472.36	2549.72
472.56	2525.15
472.76	2484.19
472.96	2365.40
473.17	2326.49
473.37	2238.43
473.57	2076.64
473.77	2166.75
473.98	2017.25
474.18	1949.67
474.38	2295.77
474.58	1943.52
474.79	1900.52
474.99	2064.35
475.19	2064.35
475.39	1855.46
475.60	1980.39
475.80	1982.43
476.00	1933.28
476.20	1959.91
476.41	1998.82
476.61	2095.07
476.81	2045.92
477.01	1937.38
477.21	2113.50
477.42	2064.35
477.62	1857.51
477.82	2050.02
478.02	1972.19
478.23	1955.81
478.43	1976.29
478.63	1912.80
478.83	2019.30
479.03	1888.23
479.24	2021.35
479.44	2095.07
479.64	1929.19
479.84	1826.79
480.04	1873.89
480.25	2068.45
480.45	1964.00
480.65	1937.38
480.85	2058.21
481.06	1939.43
481.26	2021.35
481.46	1976.29
481.66	2031.58
481.86	1957.86
482.06	1980.39
482.27	1996.77
482.47	1941.47
482.67	1957.86
482.87	1935.33
483.07	2088.93
483.28	1900.52
483.48	1920.99
483.68	1873.89
483.88	1935.33
484.08	1845.22
484.29	1972.19
484.49	1955.81
484.69	1914.85
484.89	2062.30
485.09	1992.67
485.29	2035.68
485.50	1976.29
485.70	1992.67
485.90	2080.74
486.10	1931.23
486.30	2021.35
486.50	2052.06
486.71	1984.48
486.91	1990.63
487.11	2131.94
487.31	1877.99
487.51	1970.15
487.71	1880.04
487.91	1865.70
488.12	1935.33
488.32	1869.80
488.52	1982.43
488.72	1816.55
488.92	1935.33
489.12	2074.59
489.32	2160.61
489.53	2000.87
489.73	1959.91
489.93	2052.06
490.13	1916.90
490.33	1771.49
490.53	2007.01
490.73	2066.40
490.94	1894.37
491.14	2043.87
491.34	2062.30
491.54	2248.67
491.74	2889.68
491.94	3538.89
492.14	3844.04
492.34	3964.87
492.54	3559.37
492.75	3067.86
492.95	2914.26
493.15	2752.47
493.35	2553.82
493.55	2596.82
493.75	2547.67
493.95	2475.99
494.15	2346.97
494.35	2166.75
494.56	2125.79
494.76	1994.72
494.96	1949.67
495.16	2002.91
495.36	1984.48
495.56	1976.29
495.76	1925.09
495.96	1933.28
496.16	1925.09
496.36	2078.69
496.56	1976.29
496.77	2031.58
496.97	2019.30
497.17	2105.31
497.37	1882.08
497.57	2054.11
497.77	1935.33
497.97	1894.37
498.17	1916.90
498.37	1951.71
498.57	2002.91
498.77	1986.53
498.97	2097.12
499.17	2166.75
499.38	1992.67
499.58	2009.06
499.78	2052.06
499.98	2072.54
500.18	2031.58
500.38	1976.29
500.58	2197.47
500.78	2600.92
500.98	4808.63
501.18	7147.41
501.38	8890.23
501.58	9719.66
501.78	9578.35
501.98	7688.07
502.18	6242.21
502.38	5566.38
502.58	4939.70
502.78	4521.92
502.98	4351.93
503.18	4091.84
503.38	3827.65
503.59	3332.05
503.79	3084.24
503.99	2842.58
504.19	2582.49
504.39	2570.20
504.59	2652.12
504.79	2697.17
504.99	2537.43
505.19	2430.94
505.39	2301.92
505.59	2316.25
505.79	2193.37
505.99	2058.21
506.19	2125.79
506.39	2187.23
506.59	1994.72
506.79	2009.06
506.99	2129.89
507.19	1980.39
507.39	2050.02
507.59	1839.08
507.79	1964.00
507.99	1974.24
508.19	2035.68
508.39	1947.62
508.59	1984.48
508.79	2140.13
508.99	2252.77
509.19	1996.77
509.39	2025.44
509.59	1875.94
509.79	1964.00
509.99	1986.53
510.19	2097.12
510.39	2074.59
510.59	2023.39
510.79	1886.18
510.99	1920.99
511.19	1964.00
511.39	2201.57
511.59	2056.16
511.79	2050.02
511.99	2002.91
512.19	2090.98
512.38	2029.54
512.58	1927.14
512.78	2019.30
512.98	2039.78
513.18	2127.84
513.38	1880.04
513.58	1992.67
513.78	2007.01
513.98	1947.62
514.18	1959.91
514.38	1978.34
514.58	2074.59
514.78	1945.57
514.98	1900.52
515.18	2017.25
515.38	1914.85
515.58	2166.75
515.78	1949.67
515.98	2023.39
516.18	1951.71
516.38	1994.72
516.57	1982.43
516.77	2002.91
516.97	1982.43
517.17	1904.61
517.37	1851.36
517.57	2009.06
517.77	1998.82
517.97	1871.84
518.17	2017.25
518.37	1980.39
518.57	1955.81
518.77	1980.39
518.97	1959.91
519.16	2002.91
519.36	2111.46
519.56	1957.86
519.76	1908.71
519.96	2033.63
520.16	2140.13
520.36	2000.87
520.56	2105.31
520.76	1873.89
520.96	1927.14
521.16	2136.03
521.35	2105.31
521.55	2080.74
521.75	2031.58
521.95	1931.23
522.15	1953.76
522.35	1920.99
522.55	1929.19
522.75	2054.11
522.95	1994.72
523.14	1877.99
523.34	1951.71
523.54	1894.37
523.74	2064.35
523.94	2019.30
524.14	1871.84
524.34	2035.68
524.54	2097.12
524.73	1912.80
524.93	2027.49
525.13	1937.38
525.33	1904.61
525.53	2117.60
525.73	2058.21
525.93	1957.86
526.13	1931.23
526.32	2004.96
526.52	2105.31
526.72	1964.00
526.92	1982.43
527.12	1996.77
527.32	1849.32
527.52	2023.39
527.71	2041.82
527.91	1920.99
528.11	1959.91
528.31	1953.76
528.51	1943.52
528.71	2013.15
528.90	2015.20
529.10	2076.64
529.30	2154.46
529.50	1849.32
529.70	1982.43
529.90	1914.85
530.09	1920.99
530.29	1875.94
530.49	1966.05
530.69	2176.99
530.89	1916.90
531.09	2050.02
531.28	1972.19
531.48	2019.30
531.68	2009.06
531.88	2045.92
532.08	1984.48
532.28	2023.39
532.47	2002.91
532.67	2072.54
532.87	2043.87
533.07	1980.39
533.27	2047.97
533.46	2007.01
533.66	1974.24
533.86	2029.54
534.06	2031.58
534.26	2041.82
534.45	2025.44
534.65	2093.02
534.85	2095.07
535.05	1953.76
535.25	2119.65
535.44	1945.57
535.64	2054.11
535.84	1953.76
536.04	1955.81
536.24	1912.80
536.43	1935.33
536.63	2072.54
536.83	1964.00
537.03	2002.91
537.22	1851.36
537.42	1890.28
537.62	1974.24
537.82	1863.65
538.02	2052.06
538.21	2054.11
538.41	2220.00
538.61	1968.10
538.81	1970.15
539.00	2029.54
539.20	1890.28
539.40	2023.39
539.60	2023.39
539.79	2021.35
539.99	2027.49
540.19	1925.09
540.39	2027.49
540.58	2058.21
540.78	2033.63
540.98	1968.10
541.18	1945.57
541.37	1976.29
541.57	1968.10
541.77	1996.77
541.97	1902.56
542.16	1894.37
542.36	1918.95
542.56	1968.10
542.76	2121.70
542.95	2041.82
543.15	2056.16
543.35	2002.91
543.54	1929.19
543.74	1939.43
543.94	2127.84
544.14	1912.80
544.33	2025.44
544.53	1972.19
544.73	1949.67
544.93	1998.82
545.12	1994.72
545.32	1978.34
545.52	1955.81
545.71	1908.71
545.91	1968.10
546.11	2058.21
546.30	1861.60
546.50	2000.87
546.70	2041.82
546.90	1978.34
547.09	1861.60
547.29	1972.19
547.49	2029.54
547.68	1986.53
547.88	1894.37
548.08	2047.97
548.27	2484.19
548.47	1937.38
548.67	1945.57
548.87	2015.20
549.06	2033.63
549.26	1996.77
549.46	1982.43
549.65	1955.81
549.85	2072.54
550.05	2000.87
550.24	1877.99
550.44	2041.82
550.64	1994.72
550.83	1959.91
551.03	2052.06
551.23	2050.02
551.42	1998.82
551.62	1880.04
551.82	1966.05
552.01	1943.52
552.21	2080.74
552.41	1955.81
552.60	2066.40
552.80	2007.01
553.00	1910.75
553.19	1994.72
553.39	2107.36
553.59	1918.95
553.78	2021.35
553.98	2025.44
554.17	1900.52
554.37	2062.30
554.57	1996.77
554.76	1888.23
554.96	1923.04
555.16	1894.37
555.35	1998.82
555.55	1990.63
555.75	1970.15
555.94	2009.06
556.14	1931.23
556.33	2056.16
556.53	1927.14
556.73	2037.73
556.92	1998.82
557.12	2009.06
557.32	2084.83
557.51	2111.46
557.71	2015.20
557.90	2099.17
558.10	2068.45
558.30	1910.75
558.49	1914.85
558.69	1992.67
558.88	1941.47
559.08	1964.00
559.28	1910.75
559.47	1949.67
559.67	2023.39
559.86	2189.28
560.06	1998.82
560.26	1978.34
560.45	1984.48
560.65	2021.35
560.84	2082.78
561.04	1888.23
561.24	2017.25
561.43	1939.43
561.63	2062.30
561.82	1976.29
562.02	2015.20
562.22	1941.47
562.41	1880.04
562.61	1923.04
562.80	1943.52
563.00	2179.04
563.19	2072.54
563.39	1959.91
563.59	1996.77
563.78	1886.18
563.98	1853.41
564.17	1906.66
564.37	1839.08
564.56	1935.33
564.76	1841.12
564.96	2070.50
565.15	2000.87
565.35	2181.09
565.54	1957.86
565.74	2076.64
565.93	1974.24
566.13	1933.28
566.32	2031.58
566.52	2058.21
566.71	1947.62
566.91	2115.55
567.11	2011.11
567.30	1892.32
567.50	1941.47
567.69	2050.02
567.89	1951.71
568.08	1920.99
568.28	1986.53
568.47	1859.56
568.67	2052.06
568.86	1910.75
569.06	2105.31
569.25	2011.11
569.45	1978.34
569.64	1972.19
569.84	1972.19
570.04	2041.82
570.23	1902.56
570.43	2009.06
570.62	2002.91
570.82	2111.46
571.01	1923.04
571.21	1980.39
571.40	1898.47
571.60	2039.78
571.79	1980.39
571.99	2004.96
572.18	1972.19
572.38	2029.54
572.57	1974.24
572.77	2019.30
572.96	2205.66
573.16	2029.54
573.35	1984.48
573.55	2076.64
573.74	2047.97
573.94	1978.34
574.13	2009.06
574.33	2043.87
574.52	2068.45
574.71	2009.06
574.91	2086.88
575.10	1914.85
575.30	1947.62
575.49	1974.24
575.69	2027.49
575.88	2058.21
576.08	2060.26
576.27	2111.46
576.47	1964.00
576.66	2146.27
576.86	2164.70
577.05	2039.78
577.25	2011.11
577.44	2164.70
577.64	1968.10
577.83	2086.88
578.02	2004.96
578.22	2125.79
578.41	2152.42
578.61	2031.58
578.80	1896.42
579.00	2031.58
579.19	2023.39
579.39	1990.63
579.58	2064.35
579.77	2025.44
579.97	2121.70
580.16	2150.37
580.36	2039.78
580.55	2078.69
580.75	1982.43
580.94	2037.73
581.13	2095.07
581.33	2103.26
581.52	1984.48
581.72	2252.77
581.91	2146.27
582.11	2043.87
582.30	2072.54
582.49	2019.30
582.69	2138.08
582.88	2068.45
583.08	2060.26
583.27	2119.65
583.47	2080.74
583.66	2007.01
583.85	1955.81
584.05	2029.54
584.24	2109.41
584.44	2029.54
584.63	2152.42
584.82	2185.18
585.02	2142.18
585.21	2133.98
585.41	2150.37
585.60	2115.55
585.79	2271.20
585.99	2246.62
586.18	2179.04
586.37	2586.58
586.57	3989.44
586.76	11941.71
586.96	31270.43
587.15	45690.18
587.34	55518.38
587.54	61232.22
587.73	57343.12
587.93	40707.47
588.12	30395.95
588.31	24336.01
588.51	21276.35
588.70	19236.57
588.89	17532.66
589.09	15474.45
589.28	13309.75
589.47	10997.59
589.67	8771.45
589.86	6715.29
590.06	4904.89
590.25	3866.56
590.44	3166.16
590.64	2596.82
590.83	2480.09
591.02	2258.91
591.22	2156.51
591.41	2152.42
591.60	2138.08
591.80	2236.38
591.99	1984.48
592.18	2041.82
592.38	2070.50
592.57	1980.39
592.76	1974.24
592.96	2045.92
593.15	2025.44
593.34	2084.83
593.54	1943.52
593.73	2082.78
593.92	2142.18
594.12	2099.17
594.31	2099.17
594.50	2131.94
594.70	2109.41
594.89	2295.77
595.08	1923.04
595.28	2084.83
595.47	2301.92
595.66	2123.74
595.86	1951.71
596.05	1927.14
596.24	1853.41
596.43	2191.33
596.63	2148.32
596.82	2019.30
597.01	2017.25
597.21	2164.70
597.40	2035.68
597.59	2131.94
597.79	1984.48
597.98	2078.69
598.17	2050.02
598.36	2054.11
598.56	2101.22
598.75	2011.11
598.94	2066.40
599.14	1972.19
599.33	1896.42
599.52	2025.44
599.71	2052.06
599.91	2035.68
600.10	2123.74
600.29	2056.16
600.48	2019.30
600.68	2025.44
600.87	2105.31
601.06	1886.18
601.26	1976.29
601.45	1943.52
601.64	1931.23
601.83	2109.41
602.03	1916.90
602.22	1970.15
602.41	2062.30
602.60	2183.13
602.80	2080.74
602.99	2093.02
603.18	1957.86
603.37	1992.67
603.57	1902.56
603.76	2000.87
603.95	2047.97
604.14	2015.20
604.34	1896.42
604.53	1914.85
604.72	1978.34
604.91	2052.06
605.10	2062.30
605.30	1890.28
605.49	2140.13
605.68	2025.44
605.87	1994.72
606.07	1890.28
606.26	1951.71
606.45	1978.34
606.64	2101.22
606.84	2029.54
607.03	2011.11
607.22	2021.35
607.41	2041.82
607.60	2033.63
607.80	2072.54
607.99	1992.67
608.18	2007.01
608.37	2033.63
608.56	1912.80
608.76	2050.02
608.95	2136.03
609.14	2068.45
609.33	2140.13
609.52	2125.79
609.72	2127.84
609.91	2136.03
610.10	2029.54
610.29	2070.50
610.48	1992.67
610.68	1957.86
610.87	1970.15
611.06	2078.69
611.25	1953.76
611.44	2113.50
611.63	1964.00
611.83	2019.30
612.02	1845.22
612.21	2078.69
612.40	1839.08
612.59	1880.04
612.79	1873.89
612.98	2019.30
613.17	2123.74
613.36	2027.49
613.55	2172.89
613.74	2043.87
613.93	2183.13
614.13	2275.29
614.32	2336.73
614.51	2275.29
614.70	2064.35
614.89	2002.91
615.08	2127.84
615.28	2422.75
615.47	1970.15
615.66	2074.59
615.85	2088.93
616.04	2125.79
616.23	2164.70
616.42	2054.11
616.62	2068.45
616.81	2039.78
617.00	1998.82
617.19	2017.25
617.38	1964.00
617.57	1982.43
617.76	2011.11
617.95	2080.74
618.15	1970.15
618.34	2058.21
618.53	1882.08
618.72	2015.20
618.91	2029.54
619.10	1949.67
619.29	2041.82
619.48	2013.15
619.68	1931.23
619.87	1916.90
620.06	1902.56
620.25	2025.44
620.44	1949.67
620.63	1970.15
620.82	2039.78
621.01	1982.43
621.20	1972.19
621.39	2060.26
621.59	2039.78
621.78	2004.96
621.97	1931.23
622.16	2004.96
622.35	1980.39
622.54	2021.35
622.73	2045.92
622.92	1896.42
623.11	2033.63
623.30	1957.86
623.49	2058.21
623.68	1896.42
623.88	2121.70
624.07	1953.76
624.26	1939.43
624.45	1972.19
624.64	1933.28
624.83	1978.34
625.02	1949.67
625.21	1976.29
625.40	2000.87
625.59	2056.16
625.78	1947.62
625.97	2007.01
626.16	2170.85
626.35	2121.70
626.54	2080.74
626.74	2052.06
626.93	1972.19
627.12	2015.20
627.31	2103.26
627.50	2115.55
627.69	2043.87
627.88	1941.47
628.07	1890.28
628.26	1882.08
628.45	1906.66
628.64	1951.71
628.83	2054.11
629.02	1886.18
629.21	1992.67
629.40	2039.78
629.59	1902.56
629.78	1951.71
629.97	2029.54
630.16	2056.16
630.35	1959.91
630.54	2025.44
630.73	1988.58
630.92	1986.53
631.11	1910.75
631.30	1990.63
631.49	1996.77
631.68	1955.81
631.87	1941.47
632.06	1898.47
632.25	2127.84
632.44	2009.06
632.63	2011.11
632.82	2045.92
633.01	2015.20
633.20	2138.08
633.39	2035.68
633.58	1961.95
633.77	2029.54
633.96	2058.21
634.15	2090.98
634.34	2045.92
634.53	1939.43
634.72	1912.80
634.91	1849.32
635.10	2058.21
635.29	2047.97
635.48	2064.35
635.67	1920.99
635.86	1927.14
636.05	2035.68
636.24	1925.09
636.43	1927.14
636.62	1986.53
636.81	1785.83
637.00	1927.14
637.19	2041.82
637.38	1984.48
637.57	1955.81
637.76	2152.42
637.95	2133.98
638.14	2082.78
638.33	2072.54
638.52	2152.42
638.71	2035.68
638.89	1933.28
639.08	2140.13
639.27	2115.55
639.46	2246.62
639.65	2527.19
639.84	2633.69
640.03	2715.61
640.22	2719.70
640.41	2715.61
640.60	2267.10
640.79	2297.82
640.98	2164.70
641.17	2207.71
641.36	2185.18
641.55	2220.00
641.74	1957.86
641.92	1982.43
642.11	2004.96
642.30	1998.82
642.49	1906.66
642.68	1982.43
642.87	2027.49
643.06	1939.43
643.25	1947.62
643.44	1998.82
643.63	1925.09
643.82	2033.63
644.00	1863.65
644.19	1923.04
644.38	1894.37
644.57	2064.35
644.76	2017.25
644.95	1961.95
645.14	2000.87
645.33	1877.99
645.52	1988.58
645.71	1953.76
645.89	1906.66
646.08	1937.38
646.27	1935.33
646.46	2158.56
646.65	1937.38
646.84	1937.38
647.03	1961.95
647.22	2000.87
647.40	1974.24
647.59	1912.80
647.78	1810.40
647.97	1841.12
648.16	1906.66
648.35	2070.50
648.54	2109.41
648.73	1861.60
648.91	2115.55
649.10	1953.76
649.29	1900.52
649.48	1845.22
649.67	1986.53
649.86	2090.98
650.05	2072.54
650.23	2174.94
650.42	1996.77
650.61	2265.05
650.80	2189.28
650.99	2324.44
651.18	2133.98
651.36	2129.89
651.55	1892.32
651.74	2078.69
651.93	1900.52
652.12	1994.72
652.31	1959.91
652.49	1980.39
652.68	1998.82
652.87	2097.12
653.06	2058.21
653.25	2191.33
653.44	1982.43
653.62	2086.88
653.81	1912.80
654.00	1961.95
654.19	2064.35
654.38	2154.46
654.56	2017.25
654.75	1904.61
654.94	1988.58
655.13	1970.15
655.32	2011.11
655.51	2009.06
655.69	1880.04
655.88	2052.06
656.07	1947.62
656.26	1998.82
656.45	1902.56
656.63	1920.99
656.82	1945.57
657.01	2066.40
657.20	1959.91
657.38	2015.20
657.57	1906.66
657.76	1839.08
657.95	2060.26
658.14	1935.33
658.32	1945.57
658.51	1845.22
658.70	1972.19
658.89	1992.67
659.08	1972.19
659.26	2121.70
659.45	1951.71
659.64	2103.26
659.83	2025.44
660.01	2291.68
660.20	2064.35
660.39	2107.36
660.58	1761.25
660.76	2023.39
660.95	1834.98
661.14	1941.47
661.33	1898.47
661.51	1996.77
661.70	1953.76
661.89	2033.63
662.08	1933.28
662.26	1976.29
662.45	1814.50
662.64	2140.13
662.83	2013.15
663.01	1886.18
663.20	1953.76
663.39	2058.21
663.58	1974.24
663.76	1939.43
663.95	2109.41
664.14	1947.62
664.32	1886.18
664.51	1959.91
664.70	1871.84
664.89	2015.20
665.07	1900.52
665.26	2066.40
665.45	1884.13
665.64	1984.48
665.82	1916.90
666.01	2025.44
666.20	1927.14
666.38	2103.26
666.57	2160.61
666.76	2826.20
666.95	6778.78
667.13	15109.91
667.32	21139.13
667.51	24598.15
667.69	27113.06
667.88	25863.80
668.07	18704.10
668.25	14346.02
668.44	11695.95
668.63	10047.33
668.81	8955.77
669.00	7749.51
669.19	7012.24
669.38	6240.16
669.56	5328.81
669.75	4360.13
669.94	3715.02
670.12	3119.06
670.31	2619.35
670.50	2379.74
670.68	2238.43
670.87	2109.41
671.06	1980.39
671.24	2119.65
671.43	2031.58
671.62	2156.51
671.80	2004.96
671.99	2060.26
672.18	2017.25
672.36	2084.83
672.55	2017.25
672.74	1933.28
672.92	1986.53
673.11	1976.29
673.29	1951.71
673.48	2062.30
673.67	1970.15
673.85	2133.98
674.04	2004.96
674.23	2043.87
674.41	2131.94
674.60	1992.67
674.79	1949.67
674.97	1920.99
675.16	2029.54
675.34	2080.74
675.53	1912.80
675.72	2015.20
675.90	2146.27
676.09	2002.91
676.28	1953.76
676.46	1798.12
676.65	2037.73
676.83	1859.56
677.02	1951.71
677.21	2002.91
677.39	1980.39
677.58	1890.28
677.77	1980.39
677.95	1877.99
678.14	1974.24
678.32	1929.19
678.51	1892.32
678.70	2168.80
678.88	1929.19
679.07	1972.19
679.25	1974.24
679.44	1953.76
679.63	1923.04
679.81	2062.30
680.00	2054.11
680.18	1953.76
680.37	2066.40
680.55	1992.67
680.74	1796.07
680.93	1791.97
681.11	1990.63
681.30	1959.91
681.48	2019.30
681.67	1931.23
681.85	1929.19
682.04	1929.19
682.23	2007.01
682.41	1968.10
682.60	1947.62
682.78	2029.54
682.97	1902.56
683.15	2047.97
683.34	2004.96
683.53	2088.93
683.71	1843.17
683.90	2093.02
684.08	2127.84
684.27	1951.71
684.45	1939.43
684.64	2050.02
684.82	1949.67
685.01	1980.39
685.19	1886.18
685.38	2109.41
685.57	1998.82
685.75	1925.09
685.94	1923.04
686.12	1959.91
686.31	1902.56
686.49	2062.30
686.68	1859.56
686.86	1914.85
687.05	1970.15
687.23	2041.82
687.42	1912.80
687.60	1859.56
687.79	2027.49
687.97	2035.68
688.16	2029.54
688.34	2041.82
688.53	1912.80
688.71	2058.21
688.90	2105.31
689.08	1974.24
689.27	1808.36
689.45	2066.40
689.64	1943.52
689.82	1939.43
690.01	2009.06
690.19	1970.15
690.38	2002.91
690.56	2105.31
690.75	1933.28
690.93	1980.39
691.12	1966.05
691.30	1949.67
691.49	1910.75
691.67	1986.53
691.86	2080.74
692.04	1902.56
692.23	1935.33
692.41	2013.15
692.60	2211.81
692.78	2125.79
692.97	2007.01
693.15	2060.26
693.34	2150.37
693.52	2097.12
693.71	1849.32
693.89	1982.43
694.08	1888.23
694.26	2095.07
694.44	2062.30
694.63	1966.05
694.81	1951.71
695.00	1955.81
695.18	1955.81
695.37	2109.41
695.55	1945.57
695.74	2009.06
695.92	1914.85
696.10	2121.70
696.29	1875.94
696.47	1961.95
696.66	1937.38
696.84	1966.05
697.03	1982.43
697.21	2228.19
697.40	2725.85
697.58	2111.46
697.76	1886.18
697.95	1943.52
698.13	1920.99
698.32	1953.76
698.50	1986.53
698.68	1980.39
698.87	1968.10
699.05	2115.55
699.24	1972.19
699.42	1912.80
699.61	1957.86
699.79	1978.34
699.97	1890.28
700.16	1841.12
700.34	1902.56
700.53	1947.62
700.71	2133.98
700.89	2072.54
701.08	1988.58
701.26	2043.87
701.45	2432.99
701.63	1996.77
701.81	1912.80
702.00	1947.62
702.18	1933.28
702.37	1945.57
702.55	2217.95
702.73	2181.09
702.92	2140.13
703.10	2234.33
703.28	2269.15
703.47	2072.54
703.65	2260.96
703.84	2131.94
704.02	2054.11
704.20	2144.22
704.39	1949.67
704.57	1976.29
704.75	2056.16
704.94	2056.16
705.12	2129.89
705.30	2181.09
705.49	3647.43
705.67	8890.23
705.86	18177.77
706.04	22873.76
706.22	26402.41
706.41	28436.05
706.59	25366.14
706.77	18079.47
706.96	14556.96
707.14	12476.23
707.32	10831.71
707.51	9504.62
707.69	7851.91
707.87	6623.13
708.06	5142.45
708.24	4024.26
708.42	3241.93
708.61	2901.97
708.79	2332.64
708.97	2246.62
709.16	2197.47
709.34	2170.85
709.52	2050.02
709.71	2056.16
709.89	2099.17
710.07	1990.63
710.26	1902.56
710.44	2017.25
710.62	2050.02
710.80	1941.47
710.99	1970.15
711.17	2041.82
711.35	1904.61
711.54	1853.41
711.72	2035.68
711.90	2068.45
712.09	1992.67
712.27	1943.52
712.45	2103.26
712.63	1898.47
712.82	1978.34
713.00	2056.16
713.18	2025.44
713.37	1994.72
713.55	2025.44
713.73	1996.77
713.91	2070.50
714.10	1875.94
714.28	2021.35
714.46	2082.78
714.65	1988.58
714.83	2009.06
715.01	1923.04
715.19	2000.87
715.38	1861.60
715.56	1986.53
715.74	1871.84
715.92	1892.32
716.11	2070.50
716.29	1826.79
716.47	1918.95
716.65	1951.71
716.84	1892.32
717.02	1992.67
717.20	1861.60
717.38	1896.42
717.57	2004.96
717.75	1984.48
717.93	1845.22
718.11	2015.20
718.30	1890.28
718.48	1988.58
718.66	2041.82
718.84	2097.12
719.03	1912.80
719.21	1871.84
719.39	2129.89
719.57	1988.58
719.75	2052.06
719.94	1927.14
720.12	1988.58
720.30	1961.95
720.48	1961.95
720.67	1939.43
720.85	1853.41
721.03	1966.05
721.21	1865.70
721.39	1984.48
721.58	2041.82
721.76	1964.00
721.94	1947.62
722.12	2090.98
722.30	2111.46
722.49	1966.05
722.67	1970.15
722.85	2017.25
723.03	1839.08
723.21	1877.99
723.40	1976.29
723.58	2011.11
723.76	2000.87
723.94	2047.97
724.12	2093.02
724.30	2170.85
724.49	2125.79
724.67	1998.82
724.85	2060.26
725.03	1912.80
725.21	2004.96
725.40	2033.63
725.58	1970.15
725.76	1984.48
725.94	1970.15
726.12	1929.19
726.30	2007.01
726.49	1923.04
726.67	1884.13
726.85	1978.34
727.03	2230.24
727.21	3090.38
727.39	4773.82
727.57	5967.78
727.76	6678.43
727.94	7088.02
728.12	6862.74
728.30	5861.29
728.48	4585.40
728.66	4227.01
728.84	3827.65
729.03	3348.43
729.21	2955.22
729.39	2514.91
729.57	2293.72
729.75	2170.85
729.93	2162.66
730.11	1996.77
730.30	1972.19
730.48	2013.15
730.66	2185.18
730.84	2109.41
731.02	2052.06
731.20	1900.52
731.38	1951.71
731.56	1988.58
731.74	1918.95
731.93	2039.78
732.11	1947.62
732.29	1910.75
732.47	1953.76
732.65	1998.82
732.83	2082.78
733.01	2043.87
733.19	1998.82
733.37	2041.82
733.56	1988.58
733.74	1894.37
733.92	2037.73
734.10	1988.58
734.28	1941.47
734.46	1902.56
734.64	1951.71
734.82	1894.37
735.00	1949.67
735.18	1961.95
735.36	1968.10
735.54	1900.52
735.73	1972.19
735.91	2013.15
736.09	2090.98
736.27	1951.71
736.45	2004.96
736.63	1902.56
736.81	1951.71
736.99	2009.06
737.17	2082.78
737.35	1865.70
737.53	1990.63
737.71	1937.38
737.89	2035.68
738.07	1898.47
738.25	1898.47
738.43	1841.12
738.61	2047.97
738.80	1888.23
738.98	1943.52
739.16	1884.13
739.34	1931.23
739.52	2035.68
739.70	1855.46
739.88	2062.30
740.06	2031.58
740.24	1748.97
740.42	2033.63
740.60	1841.12
740.78	1884.13
740.96	1884.13
741.14	1966.05
741.32	1992.67
741.50	1865.70
741.68	2195.42
741.86	2050.02
742.04	1847.27
742.22	1986.53
742.40	1957.86
742.58	1990.63
742.76	1923.04
742.94	2013.15
743.12	1847.27
743.30	1941.47
743.48	2050.02
743.66	1875.94
743.84	1988.58
744.02	1908.71
744.20	1978.34
744.38	1877.99
744.56	1894.37
744.74	2103.26
744.92	1982.43
745.10	2070.50
745.28	1982.43
745.46	2107.36
745.64	1867.75
745.82	2058.21
746.00	1957.86
746.18	1972.19
746.36	1902.56
746.54	2017.25
746.72	1945.57
746.90	1886.18
747.08	1996.77
747.26	1912.80
747.44	2033.63
747.62	1974.24
747.80	1939.43
747.98	2050.02
748.15	1898.47
748.33	2007.01
748.51	2039.78
748.69	1986.53
748.87	2000.87
749.05	1916.90
749.23	1957.86
749.41	1992.67
749.59	1892.32
749.77	2093.02
749.95	1966.05
750.13	1974.24
750.31	2041.82
750.49	1912.80
750.67	2062.30
750.85	1964.00
751.03	1998.82
751.20	2086.88
751.38	1980.39
751.56	1951.71
751.74	1976.29
751.92	1925.09
752.10	1904.61
752.28	2033.63
752.46	1961.95
752.64	1966.05
752.82	1970.15
753.00	1945.57
753.18	1968.10
753.35	1970.15
753.53	1943.52
753.71	1943.52
753.89	1939.43
754.07	1894.37
754.25	2035.68
754.43	2009.06
754.61	1892.32
754.79	2009.06
754.97	1937.38
755.14	2064.35
755.32	1900.52
755.50	1896.42
755.68	2004.96
755.86	1828.84
756.04	1957.86
756.22	1820.64
756.40	1994.72
756.57	2084.83
756.75	1984.48
756.93	2011.11
757.11	1984.48
757.29	1820.64
757.47	1918.95
757.65	1845.22
757.82	1804.26
758.00	1964.00
758.18	1908.71
758.36	1861.60
758.54	2119.65
758.72	1947.62
758.90	1957.86
759.07	1918.95
759.25	1875.94
759.43	2002.91
759.61	1906.66
759.79	2607.06
759.97	2078.69
760.15	1939.43
760.32	1984.48
760.50	2002.91
760.68	2099.17
760.86	1892.32
761.04	2082.78
761.22	1998.82
761.39	1996.77
761.57	1966.05
761.75	1961.95
761.93	2023.39
762.11	1990.63
762.28	1931.23
762.46	1857.51
762.64	2002.91
762.82	1871.84
763.00	2000.87
763.18	1947.62
763.35	1875.94
763.53	1970.15
763.71	1890.28
763.89	1925.09
764.07	1982.43
764.24	1943.52
764.42	2115.55
764.60	1910.75
764.78	1998.82
764.96	1984.48
765.13	2037.73
765.31	1980.39
765.49	2058.21
765.67	1918.95
765.84	1898.47
766.02	1957.86
766.20	1861.60
766.38	1955.81
766.56	2031.58
766.73	1927.14
766.91	1927.14
767.09	1976.29
767.27	2007.01
767.44	1869.80
767.62	1978.34
767.80	1933.28
767.98	1853.41
768.15	1927.14
768.33	1982.43
768.51	2041.82
768.69	2009.06
768.87	1970.15
769.04	1976.29
769.22	2162.66
769.40	2068.45
769.58	2162.66
769.75	2004.96
769.93	2052.06
770.11	1853.41
770.28	1834.98
770.46	2052.06
770.64	2011.11
770.82	1923.04
770.99	1931.23
771.17	1937.38
771.35	1974.24
771.53	1976.29
771.70	1925.09
771.88	1972.19
772.06	1957.86
772.23	1949.67
772.41	1984.48
772.59	1861.60
772.77	1894.37
772.94	1898.47
773.12	2054.11
773.30	1945.57
773.47	1998.82
773.65	1828.84
773.83	2088.93
774.01	1943.52
774.18	1812.45
774.36	1929.19
774.54	1914.85
774.71	2099.17
774.89	1781.73
775.07	1869.80
775.24	1880.04
775.42	1892.32
775.60	2031.58
775.78	1929.19
775.95	1839.08
776.13	1841.12
776.31	1851.36
776.48	1982.43
776.66	1968.10
776.84	1935.33
777.01	1916.90
777.19	1873.89
777.37	1966.05
777.54	1902.56
777.72	2082.78
777.90	1957.86
778.07	1908.71
778.25	2185.18
778.43	2027.49
778.60	1918.95
778.78	2025.44
778.96	1976.29
779.13	1849.32
779.31	2058.21
779.49	1886.18
779.66	1900.52
779.84	1931.23
780.01	1916.90
780.19	1933.28
780.37	2109.41
780.54	1994.72
780.72	1939.43
780.90	1953.76
781.07	1914.85
781.25	1902.56
781.43	2056.16
781.60	1951.71
781.78	2062.30
781.95	1968.10
782.13	1945.57
782.31	1918.95
782.48	1849.32
782.66	1877.99
782.83	2121.70
783.01	1943.52
783.19	2047.97
783.36	1939.43
783.54	1882.08
783.72	1953.76
783.89	1947.62
784.07	1966.05
784.24	2025.44
784.42	2060.26
784.60	1992.67
784.77	1939.43
784.95	1851.36
785.12	1972.19
785.30	1953.76
785.47	1943.52
785.65	1882.08
785.83	1980.39
786.00	1918.95
786.18	1959.91
786.35	1828.84
786.53	1873.89
786.71	1968.10
786.88	1923.04
787.06	1918.95
787.23	1972.19
787.41	1875.94
787.58	1898.47
787.76	1865.70
787.94	1951.71
788.11	1957.86
788.29	1845.22
788.46	1912.80
788.64	1802.21
788.81	2007.01
788.99	1906.66
789.16	1859.56
789.34	1937.38
789.52	1902.56
789.69	1937.38
789.87	1834.98
790.04	1849.32
790.22	1951.71
790.39	2115.55
790.57	1867.75
790.74	1877.99
790.92	2056.16
791.09	1886.18
791.27	1976.29
791.44	2009.06
791.62	1966.05
791.79	1994.72
791.97	1916.90
792.15	2258.91
792.32	2037.73
792.50	1980.39
792.67	2035.68
792.85	2041.82
793.02	2000.87
793.20	1968.10
793.37	1816.55
793.55	1904.61
793.72	1824.74
793.90	2041.82
794.07	1841.12
794.25	1925.09
794.42	1941.47
794.60	1970.15
794.77	1910.75
794.95	2090.98
795.12	2011.11
795.30	1957.86
795.47	1785.83
795.65	2103.26
795.82	1931.23
796.00	1884.13
796.17	1951.71
796.34	1863.65
796.52	1980.39
796.69	1976.29
796.87	2013.15
797.04	1984.48
797.22	2033.63
797.39	1978.34
797.57	2011.11
797.74	2037.73
797.92	2037.73
798.09	1906.66
798.27	1992.67
798.44	1996.77
798.62	1896.42
798.79	1994.72
798.96	2035.68
799.14	1961.95
799.31	2199.52
799.49	1980.39
799.66	1916.90
799.84	2037.73
800.01	1847.27
800.19	1990.63
800.36	1839.08
800.53	1949.67
800.71	1920.99
800.88	2037.73
801.06	1914.85
801.23	1970.15
801.41	1923.04
801.58	1869.80
801.75	1898.47
801.93	2017.25
802.10	1978.34
802.28	1964.00
802.45	1882.08
802.63	2088.93
802.80	2070.50
802.97	1847.27
803.15	1949.67
803.32	1957.86
803.50	1912.80
803.67	1996.77
803.84	1935.33
804.02	1861.60
804.19	1964.00
804.37	1794.02
804.54	1877.99
804.71	2015.20
804.89	1894.37
805.06	1937.38
805.24	1904.61
805.41	1937.38
805.58	1877.99
805.76	2111.46
805.93	2062.30
806.10	2062.30
806.28	2025.44
806.45	1912.80
806.63	1984.48
806.80	1970.15
806.97	1939.43
807.15	1998.82
807.32	1939.43
807.49	2037.73
807.67	1814.50
807.84	1980.39
808.01	1865.70
808.19	2002.91
808.36	2117.60
808.54	1925.09
808.71	1802.21
808.88	1964.00
809.06	2072.54
809.23	2066.40
809.40	1923.04
809.58	2019.30
809.75	1832.93
809.92	1867.75
810.10	2170.85
810.27	1941.47
810.44	1961.95
810.62	2013.15
810.79	2004.96
810.96	1839.08
811.14	1994.72
811.31	1951.71
811.48	2000.87
811.66	1951.71
811.83	2078.69
812.00	2019.30
812.18	2002.91
812.35	2109.41
812.52	1906.66
812.69	1920.99
812.87	1900.52
813.04	1925.09
813.21	1935.33
813.39	1947.62
813.56	1865.70
813.73	2090.98
813.91	1867.75
814.08	1972.19
814.25	1935.33
814.42	1853.41
814.60	1949.67
814.77	2007.01
814.94	1886.18
815.12	1949.67
815.29	2031.58
815.46	1890.28
815.63	2039.78
815.81	1957.86
815.98	1910.75
816.15	1980.39
816.33	2002.91
816.50	1863.65
816.67	1966.05
816.84	1867.75
817.02	1918.95
817.19	1912.80
817.36	1996.77
817.53	1974.24
817.71	1892.32
817.88	1961.95
818.05	1863.65
818.22	1849.32
818.40	2076.64
818.57	1906.66
818.74	1996.77
818.91	1877.99
819.09	1988.58
819.26	2031.58
819.43	1873.89
819.60	1937.38
819.78	2000.87
819.95	2080.74
820.12	1920.99
820.29	2086.88
820.47	1951.71
820.64	1906.66
820.81	1871.84
820.98	1845.22
821.15	2002.91
821.33	2017.25
821.50	1875.94
821.67	2058.21
821.84	1892.32
822.02	2002.91
822.19	2033.63
822.36	1910.75
822.53	1888.23
822.70	1857.51
822.88	1918.95
823.05	2064.35
823.22	1988.58
823.39	1994.72
823.56	1923.04
823.74	2170.85
823.91	1904.61
824.08	1931.23
824.25	1804.26
824.42	2199.52
824.60	1890.28
824.77	1945.57
824.94	1966.05
825.11	1943.52
825.28	1910.75
825.45	1943.52
825.63	1990.63
825.80	1929.19
825.97	1986.53
826.14	1988.58
826.31	1867.75
826.48	1978.34
826.66	1955.81
826.83	1912.80
827.00	1914.85
827.17	1839.08
827.34	1972.19
827.51	1882.08
827.69	1933.28
827.86	1851.36
828.03	1953.76
828.20	1978.34
828.37	1865.70
828.54	1972.19
828.71	1834.98
828.89	2027.49
829.06	1951.71
829.23	2047.97
829.40	1855.46
829.57	1877.99
829.74	1939.43
829.91	1877.99
830.09	1900.52
830.26	2007.01
830.43	2056.16
830.60	1933.28
830.77	1953.76
830.94	2029.54
831.11	2000.87
831.28	1949.67
831.46	2056.16
831.63	1935.33
831.80	2007.01
831.97	1964.00
832.14	1927.14
832.31	1992.67
832.48	1920.99
832.65	1937.38
832.82	1990.63
832.99	1986.53
833.17	1861.60
833.34	2140.13
833.51	2035.68
833.68	1871.84
833.85	1990.63
834.02	1902.56
834.19	1849.32
834.36	1869.80
834.53	1947.62
834.70	2070.50
834.87	1957.86
835.04	1877.99
835.22	1886.18
835.39	1902.56
835.56	1914.85
835.73	1949.67
835.90	2019.30
836.07	1855.46
836.24	1992.67
836.41	1916.90
836.58	1914.85
836.75	2009.06
836.92	1927.14
837.09	1875.94
837.26	2000.87
837.43	1853.41
837.60	1941.47
837.77	1894.37
837.94	1984.48
838.12	2045.92
838.29	1882.08
838.46	1871.84
838.63	1892.32
838.80	2105.31
838.97	1996.77
839.14	1937.38
839.31	1957.86
839.48	1972.19
839.65	1951.71
839.82	1994.72
839.99	1914.85
840.16	1941.47
840.33	1859.56
840.50	1964.00
840.67	1992.67
840.84	1816.55
841.01	1978.34
841.18	1894.37
841.35	1933.28
841.52	2041.82
841.69	2025.44
841.86	1916.90
842.03	1935.33
842.20	1998.82
842.37	1955.81
842.54	1910.75
842.71	2011.11
842.88	1884.13
843.05	1978.34
843.22	1830.88
843.39	1931.23
843.56	1892.32
843.73	1972.19
843.90	1978.34
844.07	1978.34
844.24	2004.96
844.41	1988.58
844.58	1918.95
844.75	1933.28
844.92	2009.06
845.09	1959.91
845.26	1855.46
845.43	2033.63
845.60	1912.80
845.77	2013.15
845.94	1914.85
846.10	2023.39
846.27	1845.22
846.44	1890.28
846.61	1800.16
846.78	1990.63
846.95	2056.16
847.12	1968.10
847.29	1929.19
847.46	1886.18
847.63	1941.47
847.80	1859.56
847.97	1951.71
848.14	2166.75
848.31	2035.68
848.48	1837.03
848.65	1953.76
848.82	1929.19
848.98	2068.45
849.15	2043.87
849.32	2033.63
849.49	2013.15
849.66	1927.14
849.83	1996.77
850.00	1894.37
850.17	2072.54
850.34	1949.67
850.51	1937.38
850.68	1951.71
850.85	2185.18
851.01	1968.10
851.18	1978.34
851.35	1943.52
851.52	1990.63
851.69	2033.63
851.86	1832.93
852.03	1953.76
852.20	2023.39
852.37	1906.66
852.53	1841.12
852.70	1929.19
852.87	1908.71
853.04	1955.81
853.21	1925.09
853.38	2045.92
853.55	2054.11
853.72	2080.74
853.89	1824.74
854.05	1937.38
854.22	1943.52
854.39	1892.32
854.56	1964.00
854.73	2013.15
854.90	1949.67
855.07	1982.43
855.23	1904.61
855.40	1910.75
855.57	1943.52
855.74	1828.84
855.91	2117.60
856.08	1892.32
856.25	1865.70
856.41	1918.95
856.58	1906.66
856.75	1990.63
856.92	1875.94
857.09	2025.44
857.26	1834.98
857.42	1984.48
857.59	2039.78
857.76	1892.32
857.93	1920.99
858.10	1925.09
858.27	1884.13
858.43	2023.39
858.60	1908.71
858.77	1824.74
858.94	1845.22
859.11	2033.63
859.27	1871.84
859.44	1998.82
859.61	2136.03
859.78	1927.14
859.95	1910.75
860.12	1877.99
860.28	2119.65
860.45	2064.35
860.62	1925.09
860.79	1947.62
860.95	1986.53
861.12	1947.62
861.29	1972.19
861.46	1871.84
861.63	2029.54
861.79	1978.34
861.96	1890.28
862.13	1912.80
862.30	2043.87
862.47	1898.47
862.63	1880.04
862.80	1990.63
862.97	1990.63
863.14	2015.20
863.30	1996.77
863.47	1880.04
863.64	2148.32
863.81	2002.91
863.97	1914.85
864.14	2011.11
864.31	1955.81
864.48	1920.99
864.65	2013.15
864.81	2041.82
864.98	2002.91
865.15	2054.11
865.32	1929.19
865.48	2029.54
865.65	2095.07
865.82	2011.11
865.98	2009.06
866.15	2078.69
866.32	1890.28
866.49	1949.67
866.65	1941.47
866.82	1896.42
866.99	1994.72
867.16	1855.46
867.32	1839.08
867.49	1865.70
867.66	1900.52
867.83	1871.84
867.99	1865.70
868.16	1953.76
868.33	1832.93
868.49	1900.52
868.66	1920.99
868.83	1982.43
868.99	1896.42
869.16	1918.95
869.33	2035.68
869.50	1996.77
869.66	1992.67
869.83	2000.87
870.00	1884.13
870.16	2002.91
870.33	1970.15
870.50	2007.01
870.66	1943.52
870.83	2045.92
871.00	1992.67
871.17	1988.58
871.33	1957.86
871.50	1959.91
871.67	1884.13
871.83	1847.27
872.00	2070.50
872.17	1886.18
872.33	2103.26
872.50	2066.40
872.67	1888.23
872.83	1949.67
873.00	1957.86
873.17	1941.47
873.33	1927.14
873.50	1980.39
873.67	1941.47
873.83	1888.23
874.00	1992.67
874.16	2052.06
874.33	1943.52
874.50	1830.88
874.66	1980.39
874.83	1908.71
875.00	2054.11
875.16	2058.21
875.33	2119.65
875.50	1777.64
875.66	1912.80
875.83	1935.33
875.99	1988.58
876.16	1947.62
876.33	1877.99
876.49	1951.71
876.66	1939.43
876.83	1875.94
876.99	1912.80
877.16	1957.86
877.32	1908.71
877.49	1955.81
877.66	1980.39
877.82	1990.63
877.99	1959.91
878.15	1976.29
878.32	2013.15
878.49	1953.76
878.65	1867.75
878.82	2009.06
878.98	1904.61
879.15	1959.91
879.32	1990.63
879.48	1959.91
879.65	1908.71
879.81	1923.04
879.98	1961.95
880.15	1935.33
880.31	2009.06
880.48	1796.07
880.64	2019.30
880.81	2021.35
880.97	2101.22
881.14	2060.26
881.31	1808.36
881.47	2162.66
881.64	1966.05
881.80	1853.41
881.97	1966.05
882.13	2002.91
882.30	1888.23
882.47	1935.33
882.63	1923.04
882.80	1937.38
882.96	1927.14
883.13	2017.25
883.29	1931.23
883.46	1910.75
883.62	2066.40
883.79	1978.34
883.95	2011.11
884.12	1902.56
884.29	2013.15
884.45	1972.19
884.62	1918.95
884.78	1820.64
884.95	2015.20
885.11	1972.19
885.28	2050.02
885.44	1892.32
885.61	2009.06
885.77	2017.25
885.94	1959.91
886.10	1986.53
886.27	1884.13
886.43	2101.22
886.60	2064.35
886.76	1904.61
886.93	1916.90
887.09	1990.63
887.26	1837.03
887.42	1935.33
887.59	1966.05
887.75	2037.73
887.92	2015.20
888.08	1945.57
888.25	2017.25
888.41	2043.87
888.58	1920.99
888.74	1798.12
888.91	1906.66
>>>>>End Processed Spectral Data<<<<<
