SpectraSuite Data File
++++++++++++++++++++++++++++++++++++
Date: Wed May 04 22:45:49 CEST 2016
User: root
Dark Spectrum Present: No
Reference Spectrum Present: No
Number of Sampled Component Spectra: 1
Spectrometers: USB4C02835
Integration Time (usec): 100000 (USB4C02835)
Spectra Averaged: 1 (USB4C02835)
Boxcar Smoothing: 0 (USB4C02835)
Correct for Electrical Dark: No (USB4C02835)
Strobe/Lamp Enabled: No (USB4C02835)
Correct for Detector Non-linearity: No (USB4C02835)
Correct for Stray Light: No (USB4C02835)
Number of Pixels in Processed Spectrum: 3648
>>>>>Begin Processed Spectral Data<<<<<
177.47	1646.57
177.69	1646.57
177.91	1646.57
178.13	1570.79
178.36	1701.86
178.58	1812.45
178.80	2031.58
179.02	1884.13
179.24	1896.42
179.46	1914.85
179.68	1990.63
179.90	1966.05
180.13	1939.43
180.35	1886.18
180.57	1961.95
180.79	1976.29
181.01	1912.80
181.23	2015.20
181.45	2013.15
181.67	1947.62
181.90	2045.92
182.12	1896.42
182.34	1837.03
182.56	1982.43
182.78	1986.53
183.00	1927.14
183.22	1966.05
183.44	1849.32
183.66	2123.74
183.89	2070.50
184.11	1947.62
184.33	1974.24
184.55	2125.79
184.77	1949.67
184.99	1867.75
185.21	1888.23
185.43	2187.23
185.65	1871.84
185.87	1853.41
186.10	2029.54
186.32	2127.84
186.54	1959.91
186.76	1888.23
186.98	1996.77
187.20	1947.62
187.42	1822.69
187.64	2013.15
187.86	1955.81
188.08	2000.87
188.30	1935.33
188.52	1908.71
188.75	2072.54
188.97	2064.35
189.19	1894.37
189.41	1970.15
189.63	1943.52
189.85	1953.76
190.07	1892.32
190.29	1841.12
190.51	1961.95
190.73	1896.42
190.95	2021.35
191.17	1941.47
191.39	1808.36
191.61	1941.47
191.84	1910.75
192.06	1984.48
192.28	1841.12
192.50	2185.18
192.72	1945.57
192.94	1933.28
193.16	2035.68
193.38	1988.58
193.60	1920.99
193.82	1912.80
194.04	2021.35
194.26	2000.87
194.48	1935.33
194.70	1978.34
194.92	1892.32
195.14	1933.28
195.36	1923.04
195.58	1968.10
195.80	1908.71
196.02	1941.47
196.24	1923.04
196.46	2029.54
196.69	1906.66
196.91	2187.23
197.13	1943.52
197.35	1931.23
197.57	2029.54
197.79	1961.95
198.01	1935.33
198.23	1998.82
198.45	1996.77
198.67	1867.75
198.89	1937.38
199.11	1931.23
199.33	1888.23
199.55	1775.59
199.77	1896.42
199.99	1994.72
200.21	1923.04
200.43	2074.59
200.65	1775.59
200.87	1783.78
201.09	1966.05
201.31	1904.61
201.53	1937.38
201.75	1980.39
201.97	1994.72
202.19	1859.56
202.41	1945.57
202.63	2045.92
202.85	1984.48
203.07	2019.30
203.29	1875.94
203.51	1814.50
203.73	1916.90
203.95	2220.00
204.17	1976.29
204.39	1923.04
204.61	1941.47
204.83	1875.94
205.05	2007.01
205.27	1937.38
205.49	2078.69
205.71	1976.29
205.93	1822.69
206.15	1933.28
206.37	1871.84
206.59	1976.29
206.81	1824.74
207.03	1906.66
207.25	1880.04
207.47	2043.87
207.69	1867.75
207.91	2082.78
208.13	2058.21
208.34	1877.99
208.56	1886.18
208.78	1976.29
209.00	2002.91
209.22	1904.61
209.44	2011.11
209.66	1957.86
209.88	1828.84
210.10	2023.39
210.32	1953.76
210.54	1964.00
210.76	1984.48
210.98	1982.43
211.20	1867.75
211.42	1996.77
211.64	2082.78
211.86	2004.96
212.08	1988.58
212.30	1929.19
212.52	1898.47
212.74	1974.24
212.96	1982.43
213.17	2031.58
213.39	2082.78
213.61	2064.35
213.83	1945.57
214.05	1957.86
214.27	2011.11
214.49	1859.56
214.71	1834.98
214.93	2045.92
215.15	1957.86
215.37	1996.77
215.59	1849.32
215.81	1972.19
216.03	1994.72
216.24	1939.43
216.46	1933.28
216.68	1994.72
216.90	1970.15
217.12	2035.68
217.34	2023.39
217.56	1945.57
217.78	1996.77
218.00	2011.11
218.22	1906.66
218.44	2033.63
218.66	2054.11
218.87	2058.21
219.09	1851.36
219.31	1980.39
219.53	1972.19
219.75	1961.95
219.97	1880.04
220.19	1957.86
220.41	1935.33
220.63	2023.39
220.85	1964.00
221.06	1933.28
221.28	2093.02
221.50	1966.05
221.72	1959.91
221.94	2004.96
222.16	1943.52
222.38	1947.62
222.60	2078.69
222.82	1935.33
223.03	1947.62
223.25	1927.14
223.47	1980.39
223.69	2033.63
223.91	2084.83
224.13	1982.43
224.35	1927.14
224.57	2031.58
224.78	2062.30
225.00	1884.13
225.22	1935.33
225.44	1834.98
225.66	1943.52
225.88	1904.61
226.10	2068.45
226.32	1953.76
226.53	2045.92
226.75	1877.99
226.97	1945.57
227.19	1908.71
227.41	1925.09
227.63	1896.42
227.85	1818.60
228.06	1890.28
228.28	1988.58
228.50	2121.70
228.72	1896.42
228.94	1902.56
229.16	1892.32
229.37	1908.71
229.59	1845.22
229.81	2076.64
230.03	1939.43
230.25	1837.03
230.47	1810.40
230.69	1888.23
230.90	2019.30
231.12	1861.60
231.34	1923.04
231.56	2000.87
231.78	1882.08
232.00	1894.37
232.21	1892.32
232.43	1853.41
232.65	1816.55
232.87	2000.87
233.09	1853.41
233.30	1812.45
233.52	2009.06
233.74	1925.09
233.96	1894.37
234.18	1961.95
234.40	1931.23
234.61	2127.84
234.83	1900.52
235.05	1828.84
235.27	2164.70
235.49	2015.20
235.70	1902.56
235.92	2039.78
236.14	2076.64
236.36	2054.11
236.58	1906.66
236.79	2045.92
237.01	1931.23
237.23	1937.38
237.45	2041.82
237.67	1894.37
237.88	1945.57
238.10	2082.78
238.32	1923.04
238.54	1896.42
238.76	1966.05
238.97	1943.52
239.19	1888.23
239.41	1939.43
239.63	2086.88
239.85	1978.34
240.06	1882.08
240.28	1808.36
240.50	2033.63
240.72	1945.57
240.93	1898.47
241.15	2039.78
241.37	1910.75
241.59	2017.25
241.81	1892.32
242.02	1900.52
242.24	2072.54
242.46	2004.96
242.68	1785.83
242.89	1923.04
243.11	2039.78
243.33	1974.24
243.55	1984.48
243.76	1974.24
243.98	1888.23
244.20	1957.86
244.42	1974.24
244.64	2000.87
244.85	1820.64
245.07	1933.28
245.29	2013.15
245.51	1947.62
245.72	2025.44
245.94	2011.11
246.16	1923.04
246.38	2009.06
246.59	1953.76
246.81	1925.09
247.03	1970.15
247.24	1857.51
247.46	1914.85
247.68	2002.91
247.90	1920.99
248.11	1865.70
248.33	2074.59
248.55	1992.67
248.77	1933.28
248.98	2052.06
249.20	2070.50
249.42	1968.10
249.64	1966.05
249.85	1925.09
250.07	1865.70
250.29	2095.07
250.50	1957.86
250.72	1867.75
250.94	2037.73
251.16	2224.09
251.37	2027.49
251.59	1980.39
251.81	1953.76
252.02	2052.06
252.24	1910.75
252.46	2056.16
252.68	1945.57
252.89	1877.99
253.11	1904.61
253.33	2084.83
253.54	2035.68
253.76	1841.12
253.98	1937.38
254.20	1961.95
254.41	1791.97
254.63	1941.47
254.85	1781.73
255.06	1929.19
255.28	1972.19
255.50	1974.24
255.71	1908.71
255.93	1882.08
256.15	1945.57
256.36	1941.47
256.58	1853.41
256.80	2009.06
257.02	1871.84
257.23	1908.71
257.45	2017.25
257.67	1986.53
257.88	1906.66
258.10	2050.02
258.32	1908.71
258.53	1964.00
258.75	2080.74
258.97	2009.06
259.18	1826.79
259.40	1910.75
259.62	2107.36
259.83	1974.24
260.05	2050.02
260.27	2342.88
260.48	2023.39
260.70	1884.13
260.92	1933.28
261.13	1910.75
261.35	1974.24
261.57	2021.35
261.78	1890.28
262.00	1898.47
262.22	2013.15
262.43	1910.75
262.65	1859.56
262.86	1861.60
263.08	2076.64
263.30	1941.47
263.51	1708.01
263.73	1861.60
263.95	2039.78
264.16	1871.84
264.38	1914.85
264.60	1910.75
264.81	1957.86
265.03	2072.54
265.25	2035.68
265.46	1867.75
265.68	2062.30
265.89	2056.16
266.11	1841.12
266.33	1998.82
266.54	2009.06
266.76	1929.19
266.98	1988.58
267.19	2031.58
267.41	2013.15
267.62	1871.84
267.84	1789.92
268.06	1988.58
268.27	1970.15
268.49	2047.97
268.70	2033.63
268.92	1959.91
269.14	1880.04
269.35	1877.99
269.57	1974.24
269.79	1972.19
270.00	1912.80
270.22	2047.97
270.43	1920.99
270.65	1779.68
270.87	2035.68
271.08	1994.72
271.30	1988.58
271.51	1974.24
271.73	1978.34
271.95	2072.54
272.16	1955.81
272.38	1957.86
272.59	1902.56
272.81	1980.39
273.02	1920.99
273.24	1976.29
273.46	2062.30
273.67	1880.04
273.89	1845.22
274.10	1847.27
274.32	1939.43
274.54	1933.28
274.75	1994.72
274.97	1945.57
275.18	2054.11
275.40	1966.05
275.61	1890.28
275.83	2007.01
276.05	1841.12
276.26	1959.91
276.48	2121.70
276.69	1929.19
276.91	1974.24
277.12	2039.78
277.34	2011.11
277.55	1988.58
277.77	2029.54
277.99	1964.00
278.20	1871.84
278.42	1849.32
278.63	1906.66
278.85	1908.71
279.06	1865.70
279.28	2031.58
279.49	2047.97
279.71	1972.19
279.93	1959.91
280.14	1918.95
280.36	1906.66
280.57	2015.20
280.79	1996.77
281.00	1812.45
281.22	2009.06
281.43	2025.44
281.65	1796.07
281.86	1918.95
282.08	1959.91
282.29	2146.27
282.51	1822.69
282.73	1837.03
282.94	1849.32
283.16	2058.21
283.37	2064.35
283.59	1912.80
283.80	2000.87
284.02	1978.34
284.23	1990.63
284.45	1927.14
284.66	1861.60
284.88	1865.70
285.09	2002.91
285.31	2013.15
285.52	1920.99
285.74	1861.60
285.95	2009.06
286.17	2050.02
286.38	2054.11
286.60	1912.80
286.81	1847.27
287.03	1904.61
287.24	2009.06
287.46	2039.78
287.67	2004.96
287.89	2101.22
288.10	1914.85
288.32	2015.20
288.53	2121.70
288.75	1857.51
288.96	1961.95
289.18	1816.55
289.39	1935.33
289.61	2039.78
289.82	2166.75
290.04	2084.83
290.25	1875.94
290.47	1935.33
290.68	1894.37
290.90	2027.49
291.11	1814.50
291.33	2017.25
291.54	1918.95
291.76	1886.18
291.97	1984.48
292.18	2009.06
292.40	1982.43
292.61	1875.94
292.83	2064.35
293.04	1982.43
293.26	2013.15
293.47	1966.05
293.69	1910.75
293.90	1916.90
294.12	2080.74
294.33	1925.09
294.55	1984.48
294.76	2007.01
294.97	2062.30
295.19	2015.20
295.40	1980.39
295.62	2019.30
295.83	2023.39
296.05	1916.90
296.26	2011.11
296.48	1906.66
296.69	1984.48
296.90	1957.86
297.12	1941.47
297.33	2086.88
297.55	1939.43
297.76	2023.39
297.98	2037.73
298.19	1974.24
298.41	1945.57
298.62	1824.74
298.83	2047.97
299.05	1916.90
299.26	1927.14
299.48	1970.15
299.69	1984.48
299.90	1894.37
300.12	1918.95
300.33	2060.26
300.55	1955.81
300.76	1984.48
300.98	1884.13
301.19	1961.95
301.40	1988.58
301.62	1959.91
301.83	2019.30
302.05	1974.24
302.26	1923.04
302.47	1927.14
302.69	1929.19
302.90	2023.39
303.12	1789.92
303.33	2043.87
303.54	2043.87
303.76	1888.23
303.97	1959.91
304.19	2072.54
304.40	1925.09
304.61	2023.39
304.83	2113.50
305.04	1992.67
305.26	1998.82
305.47	1912.80
305.68	1927.14
305.90	1855.46
306.11	2017.25
306.33	1945.57
306.54	1886.18
306.75	1902.56
306.97	1818.60
307.18	1837.03
307.39	1947.62
307.61	2011.11
307.82	1968.10
308.04	1931.23
308.25	1943.52
308.46	1994.72
308.68	1943.52
308.89	1988.58
309.10	2066.40
309.32	2050.02
309.53	1947.62
309.74	1984.48
309.96	2013.15
310.17	2066.40
310.39	1931.23
310.60	2068.45
310.81	1933.28
311.03	1896.42
311.24	1996.77
311.45	1914.85
311.67	2084.83
311.88	1998.82
312.09	1888.23
312.31	1927.14
312.52	2007.01
312.73	1894.37
312.95	1884.13
313.16	1857.51
313.37	2068.45
313.59	2002.91
313.80	2037.73
314.01	2025.44
314.23	1953.76
314.44	1867.75
314.65	1871.84
314.87	1904.61
315.08	1955.81
315.29	1918.95
315.51	1873.89
315.72	1837.03
315.93	2021.35
316.15	1980.39
316.36	1867.75
316.57	1951.71
316.79	1974.24
317.00	1902.56
317.21	2025.44
317.43	1906.66
317.64	1892.32
317.85	2002.91
318.07	1955.81
318.28	2009.06
318.49	2066.40
318.70	2211.81
318.92	2211.81
319.13	2168.80
319.34	2162.66
319.56	2080.74
319.77	2152.42
319.98	2172.89
320.20	2084.83
320.41	2152.42
320.62	2047.97
320.83	1888.23
321.05	2054.11
321.26	1933.28
321.47	1959.91
321.69	2133.98
321.90	1839.08
322.11	1912.80
322.32	1941.47
322.54	2099.17
322.75	1920.99
322.96	2160.61
323.18	1851.36
323.39	1804.26
323.60	1890.28
323.81	2056.16
324.03	1929.19
324.24	1976.29
324.45	2009.06
324.66	1951.71
324.88	2023.39
325.09	2023.39
325.30	1914.85
325.52	2027.49
325.73	2041.82
325.94	1863.65
326.15	1867.75
326.37	1880.04
326.58	2119.65
326.79	2043.87
327.00	1798.12
327.22	2007.01
327.43	1996.77
327.64	1923.04
327.85	1982.43
328.07	1976.29
328.28	2105.31
328.49	1869.80
328.70	1941.47
328.92	1976.29
329.13	1880.04
329.34	1998.82
329.55	2109.41
329.76	2029.54
329.98	1892.32
330.19	2082.78
330.40	1992.67
330.61	2000.87
330.83	1939.43
331.04	1890.28
331.25	1867.75
331.46	1914.85
331.68	1910.75
331.89	2023.39
332.10	1910.75
332.31	1837.03
332.52	1875.94
332.74	2107.36
332.95	1824.74
333.16	1880.04
333.37	1996.77
333.58	1951.71
333.80	1933.28
334.01	1888.23
334.22	1988.58
334.43	1986.53
334.64	1931.23
334.86	1896.42
335.07	1918.95
335.28	2127.84
335.49	1789.92
335.70	1929.19
335.92	2138.08
336.13	2162.66
336.34	1976.29
336.55	1908.71
336.76	2019.30
336.98	1791.97
337.19	1882.08
337.40	2021.35
337.61	2230.24
337.82	1894.37
338.04	2074.59
338.25	1869.80
338.46	1933.28
338.67	2011.11
338.88	1896.42
339.09	1920.99
339.31	1937.38
339.52	1886.18
339.73	1906.66
339.94	1873.89
340.15	1992.67
340.36	1976.29
340.58	1964.00
340.79	1877.99
341.00	1968.10
341.21	1845.22
341.42	2144.22
341.63	1886.18
341.85	2035.68
342.06	2035.68
342.27	1882.08
342.48	1937.38
342.69	1929.19
342.90	2035.68
343.12	2039.78
343.33	2021.35
343.54	2066.40
343.75	2041.82
343.96	1886.18
344.17	1865.70
344.38	1972.19
344.60	1906.66
344.81	1935.33
345.02	2043.87
345.23	2133.98
345.44	2090.98
345.65	2064.35
345.86	2031.58
346.07	1986.53
346.29	1961.95
346.50	1988.58
346.71	1935.33
346.92	2101.22
347.13	2054.11
347.34	1923.04
347.55	1859.56
347.76	2033.63
347.98	1890.28
348.19	1961.95
348.40	2060.26
348.61	1914.85
348.82	1998.82
349.03	2066.40
349.24	1841.12
349.45	2076.64
349.66	1773.54
349.88	1968.10
350.09	1941.47
350.30	2013.15
350.51	1998.82
350.72	2019.30
350.93	1894.37
351.14	1832.93
351.35	2058.21
351.56	1933.28
351.77	1892.32
351.99	2107.36
352.20	2045.92
352.41	2119.65
352.62	1830.88
352.83	1892.32
353.04	1929.19
353.25	1961.95
353.46	2011.11
353.67	2050.02
353.88	1834.98
354.09	1933.28
354.30	1869.80
354.52	1957.86
354.73	1953.76
354.94	1964.00
355.15	1916.90
355.36	2146.27
355.57	1955.81
355.78	1974.24
355.99	1916.90
356.20	1961.95
356.41	2037.73
356.62	1966.05
356.83	2007.01
357.04	2056.16
357.25	1812.45
357.46	1916.90
357.68	1896.42
357.89	1925.09
358.10	1923.04
358.31	1964.00
358.52	1875.94
358.73	1849.32
358.94	1900.52
359.15	1898.47
359.36	2054.11
359.57	1912.80
359.78	1988.58
359.99	2047.97
360.20	1853.41
360.41	1890.28
360.62	1982.43
360.83	1974.24
361.04	1959.91
361.25	1996.77
361.46	1986.53
361.67	2017.25
361.88	1988.58
362.09	2023.39
362.30	1972.19
362.51	1918.95
362.72	1939.43
362.93	2021.35
363.14	1961.95
363.35	1947.62
363.56	1853.41
363.78	2023.39
363.99	1986.53
364.20	1945.57
364.41	2011.11
364.62	2090.98
364.83	2007.01
365.04	1959.91
365.25	2035.68
365.46	2154.46
365.67	1898.47
365.88	1923.04
366.09	1935.33
366.30	1927.14
366.51	1964.00
366.72	1843.17
366.93	1867.75
367.14	2011.11
367.35	2013.15
367.56	1972.19
367.77	2039.78
367.98	1933.28
368.18	2064.35
368.39	2015.20
368.60	1886.18
368.81	2078.69
369.02	1978.34
369.23	2015.20
369.44	1886.18
369.65	1968.10
369.86	2000.87
370.07	1996.77
370.28	1859.56
370.49	2000.87
370.70	1998.82
370.91	1851.36
371.12	1888.23
371.33	2054.11
371.54	1970.15
371.75	2144.22
371.96	1767.40
372.17	1990.63
372.38	1900.52
372.59	1988.58
372.80	1978.34
373.01	1935.33
373.22	1914.85
373.43	1957.86
373.64	1859.56
373.85	2080.74
374.06	2027.49
374.26	1982.43
374.47	1961.95
374.68	2080.74
374.89	1927.14
375.10	1974.24
375.31	2084.83
375.52	1961.95
375.73	1939.43
375.94	1880.04
376.15	2082.78
376.36	1972.19
376.57	1976.29
376.78	1986.53
376.99	1906.66
377.20	2025.44
377.40	1959.91
377.61	2019.30
377.82	1847.27
378.03	2052.06
378.24	2050.02
378.45	1980.39
378.66	2019.30
378.87	1816.55
379.08	1834.98
379.29	1957.86
379.50	1988.58
379.71	1931.23
379.91	2054.11
380.12	1912.80
380.33	1945.57
380.54	1908.71
380.75	2004.96
380.96	1904.61
381.17	2043.87
381.38	1986.53
381.59	2033.63
381.80	2056.16
382.00	2166.75
382.21	2052.06
382.42	2039.78
382.63	2201.57
382.84	1998.82
383.05	2043.87
383.26	2109.41
383.47	1937.38
383.68	1996.77
383.88	1929.19
384.09	2050.02
384.30	2144.22
384.51	1955.81
384.72	1871.84
384.93	1871.84
385.14	1959.91
385.35	2054.11
385.55	1906.66
385.76	1994.72
385.97	1935.33
386.18	1826.79
386.39	1908.71
386.60	1955.81
386.81	1986.53
387.02	1970.15
387.22	1865.70
387.43	2119.65
387.64	2054.11
387.85	2111.46
388.06	2199.52
388.27	3946.44
388.48	8535.93
388.68	12058.44
388.89	14210.86
389.10	15300.37
389.31	14137.13
389.52	10893.15
389.73	9553.77
389.93	8720.25
390.14	7882.63
390.35	7239.57
390.56	6467.49
390.77	5171.12
390.98	4097.99
391.18	3151.82
391.39	2566.10
391.60	2113.50
391.81	2152.42
392.02	1961.95
392.23	2201.57
392.43	1964.00
392.64	2105.31
392.85	2031.58
393.06	2078.69
393.27	1966.05
393.47	1863.65
393.68	1961.95
393.89	1966.05
394.10	2039.78
394.31	1939.43
394.52	1882.08
394.72	1947.62
394.93	2101.22
395.14	1882.08
395.35	2013.15
395.56	1923.04
395.76	1918.95
395.97	2021.35
396.18	2164.70
396.39	2086.88
396.60	2381.79
396.80	2244.57
397.01	2148.32
397.22	2105.31
397.43	2267.10
397.64	1982.43
397.84	2111.46
398.05	2226.14
398.26	2070.50
398.47	2050.02
398.67	2041.82
398.88	1884.13
399.09	2031.58
399.30	1933.28
399.51	2009.06
399.71	2002.91
399.92	1974.24
400.13	2045.92
400.34	1920.99
400.54	1978.34
400.75	2113.50
400.96	2041.82
401.17	2058.21
401.37	2033.63
401.58	1904.61
401.79	1955.81
402.00	2093.02
402.21	2340.83
402.41	2320.35
402.62	2248.67
402.83	2453.47
403.04	2418.65
403.24	2432.99
403.45	2148.32
403.66	2215.90
403.87	2191.33
404.07	2205.66
404.28	2230.24
404.49	2213.85
404.70	2099.17
404.90	2058.21
405.11	2043.87
405.32	2029.54
405.52	1949.67
405.73	1861.60
405.94	1959.91
406.15	1957.86
406.35	2084.83
406.56	2019.30
406.77	1996.77
406.98	1988.58
407.18	1923.04
407.39	2052.06
407.60	1943.52
407.80	1970.15
408.01	1961.95
408.22	2004.96
408.43	1923.04
408.63	2033.63
408.84	1939.43
409.05	1984.48
409.25	1974.24
409.46	1832.93
409.67	1908.71
409.88	1912.80
410.08	1988.58
410.29	1877.99
410.50	2011.11
410.70	1980.39
410.91	1908.71
411.12	2023.39
411.32	1988.58
411.53	1925.09
411.74	2029.54
411.95	2056.16
412.15	2058.21
412.36	2066.40
412.57	2043.87
412.77	2142.18
412.98	2039.78
413.19	1959.91
413.39	2033.63
413.60	1970.15
413.81	2152.42
414.01	1920.99
414.22	1953.76
414.43	2072.54
414.63	1951.71
414.84	2072.54
415.05	1992.67
415.25	1904.61
415.46	1976.29
415.67	1875.94
415.87	2064.35
416.08	1947.62
416.29	1949.67
416.49	1966.05
416.70	1953.76
416.91	1996.77
417.11	1896.42
417.32	2058.21
417.53	2058.21
417.73	2027.49
417.94	2004.96
418.15	2039.78
418.35	2007.01
418.56	1972.19
418.77	2093.02
418.97	1970.15
419.18	1941.47
419.38	1800.16
419.59	1996.77
419.80	2080.74
420.00	1968.10
420.21	2000.87
420.42	2168.80
420.62	2033.63
420.83	1943.52
421.04	1929.19
421.24	1945.57
421.45	2023.39
421.65	1955.81
421.86	1943.52
422.07	1916.90
422.27	1918.95
422.48	1970.15
422.69	1853.41
422.89	1920.99
423.10	1964.00
423.30	1953.76
423.51	1959.91
423.72	2011.11
423.92	1947.62
424.13	1816.55
424.33	1925.09
424.54	1992.67
424.75	2013.15
424.95	2058.21
425.16	1964.00
425.36	1904.61
425.57	2099.17
425.78	1931.23
425.98	2058.21
426.19	1888.23
426.39	1894.37
426.60	1974.24
426.81	2058.21
427.01	2064.35
427.22	1886.18
427.42	1804.26
427.63	1888.23
427.83	2007.01
428.04	2062.30
428.25	1980.39
428.45	2027.49
428.66	2074.59
428.86	1898.47
429.07	1937.38
429.28	1923.04
429.48	2035.68
429.69	1941.47
429.89	2007.01
430.10	1867.75
430.30	2000.87
430.51	1980.39
430.71	1898.47
430.92	1966.05
431.13	1861.60
431.33	1949.67
431.54	2017.25
431.74	2097.12
431.95	2146.27
432.15	1853.41
432.36	1939.43
432.56	1982.43
432.77	2084.83
432.98	2164.70
433.18	1888.23
433.39	1931.23
433.59	1966.05
433.80	2052.06
434.00	2097.12
434.21	1953.76
434.41	1910.75
434.62	2097.12
434.82	1871.84
435.03	1900.52
435.23	1994.72
435.44	1804.26
435.64	1912.80
435.85	1992.67
436.06	1994.72
436.26	2064.35
436.47	1992.67
436.67	1908.71
436.88	1980.39
437.08	2025.44
437.29	2066.40
437.49	2011.11
437.70	2064.35
437.90	1978.34
438.11	2119.65
438.31	2080.74
438.52	2172.89
438.72	2160.61
438.93	2199.52
439.13	2058.21
439.34	2148.32
439.54	1998.82
439.75	2086.88
439.95	2025.44
440.16	2060.26
440.36	2068.45
440.57	2095.07
440.77	1998.82
440.98	1943.52
441.18	1949.67
441.39	1935.33
441.59	1906.66
441.80	2115.55
442.00	2025.44
442.21	2033.63
442.41	1877.99
442.62	2056.16
442.82	1951.71
443.02	1910.75
443.23	1980.39
443.43	2086.88
443.64	2123.74
443.84	1937.38
444.05	2131.94
444.25	2009.06
444.46	2013.15
444.66	1890.28
444.87	2031.58
445.07	1894.37
445.28	2023.39
445.48	2054.11
445.69	2095.07
445.89	2205.66
446.09	1996.77
446.30	2244.57
446.50	2678.74
446.71	4081.60
446.91	5287.86
447.12	5943.21
447.32	6547.36
447.53	5875.62
447.73	4796.34
447.93	4364.22
448.14	3942.34
448.34	3798.98
448.55	3344.33
448.75	3327.95
448.96	3209.17
449.16	2940.88
449.36	2660.31
449.57	2371.55
449.77	2131.94
449.98	2025.44
450.18	2088.93
450.39	2084.83
450.59	2047.97
450.79	2041.82
451.00	1863.65
451.20	1994.72
451.41	1959.91
451.61	2156.51
451.81	1978.34
452.02	1900.52
452.22	2007.01
452.43	1959.91
452.63	1914.85
452.84	1984.48
453.04	1857.51
453.24	2066.40
453.45	1918.95
453.65	2013.15
453.86	2031.58
454.06	2004.96
454.26	1968.10
454.47	1910.75
454.67	2125.79
454.87	2031.58
455.08	1968.10
455.28	2162.66
455.49	2000.87
455.69	1884.13
455.89	2099.17
456.10	2090.98
456.30	2047.97
456.51	2017.25
456.71	1966.05
456.91	2017.25
457.12	1953.76
457.32	1978.34
457.52	1937.38
457.73	1994.72
457.93	2125.79
458.14	1970.15
458.34	1861.60
458.54	1966.05
458.75	1943.52
458.95	2062.30
459.15	1996.77
459.36	1904.61
459.56	2084.83
459.76	2076.64
459.97	2029.54
460.17	1980.39
460.37	2109.41
460.58	1931.23
460.78	1990.63
460.99	1929.19
461.19	2015.20
461.39	1890.28
461.60	1920.99
461.80	1984.48
462.00	1906.66
462.21	1945.57
462.41	1923.04
462.61	1900.52
462.82	1859.56
463.02	2009.06
463.22	1931.23
463.43	2113.50
463.63	1949.67
463.83	2076.64
464.04	1978.34
464.24	1986.53
464.44	1949.67
464.64	2025.44
464.85	2027.49
465.05	2072.54
465.25	1964.00
465.46	1951.71
465.66	2064.35
465.86	1976.29
466.07	1998.82
466.27	1947.62
466.47	1970.15
466.68	1845.22
466.88	2162.66
467.08	1970.15
467.29	2019.30
467.49	1998.82
467.69	1970.15
467.89	1914.85
468.10	1865.70
468.30	1984.48
468.50	2000.87
468.71	2033.63
468.91	1984.48
469.11	2097.12
469.31	2090.98
469.52	1892.32
469.72	2021.35
469.92	2158.56
470.13	1996.77
470.33	1972.19
470.53	2035.68
470.73	2418.65
470.94	2873.30
471.14	2951.12
471.34	3401.68
471.54	3280.85
471.75	2959.31
471.95	2699.22
472.15	2576.34
472.36	2576.34
472.56	2457.56
472.76	2367.45
472.96	2385.88
473.17	2258.91
473.37	2226.14
473.57	2021.35
473.77	2146.27
473.98	2086.88
474.18	1939.43
474.38	2228.19
474.58	1920.99
474.79	1931.23
474.99	2039.78
475.19	2029.54
475.39	1931.23
475.60	2000.87
475.80	1974.24
476.00	2021.35
476.20	2033.63
476.41	1955.81
476.61	2127.84
476.81	2111.46
477.01	1837.03
477.21	2103.26
477.42	2021.35
477.62	1914.85
477.82	2052.06
478.02	1920.99
478.23	2002.91
478.43	1875.94
478.63	1890.28
478.83	1916.90
479.03	1939.43
479.24	2127.84
479.44	2170.85
479.64	1933.28
479.84	1916.90
480.04	1945.57
480.25	1929.19
480.45	1898.47
480.65	1890.28
480.85	2133.98
481.06	1939.43
481.26	2060.26
481.46	2050.02
481.66	1976.29
481.86	1943.52
482.06	2097.12
482.27	1970.15
482.47	1976.29
482.67	2043.87
482.87	1912.80
483.07	2045.92
483.28	1992.67
483.48	1877.99
483.68	1955.81
483.88	1964.00
484.08	1775.59
484.29	1877.99
484.49	1949.67
484.69	1927.14
484.89	2037.73
485.09	2009.06
485.29	1990.63
485.50	1961.95
485.70	1957.86
485.90	2050.02
486.10	1947.62
486.30	1918.95
486.50	2019.30
486.71	2007.01
486.91	2082.78
487.11	2029.54
487.31	1841.12
487.51	1959.91
487.71	1884.13
487.91	1873.89
488.12	1886.18
488.32	1804.26
488.52	1945.57
488.72	1839.08
488.92	1990.63
489.12	2062.30
489.32	2031.58
489.53	1945.57
489.73	1828.84
489.93	2117.60
490.13	1912.80
490.33	1884.13
490.53	1998.82
490.73	2078.69
490.94	1953.76
491.14	2025.44
491.34	2011.11
491.54	2377.69
491.74	2942.93
491.94	3450.83
492.14	3760.07
492.34	3913.67
492.54	3510.22
492.75	2961.36
492.95	2969.55
493.15	2682.84
493.35	2650.07
493.55	2531.29
493.75	2488.28
493.95	2471.90
494.15	2271.20
494.35	2215.90
494.56	2101.22
494.76	2007.01
494.96	2123.74
495.16	2041.82
495.36	1955.81
495.56	1947.62
495.76	1994.72
495.96	1935.33
496.16	1980.39
496.36	2031.58
496.56	2037.73
496.77	1953.76
496.97	1994.72
497.17	2000.87
497.37	1853.41
497.57	2043.87
497.77	1949.67
497.97	1935.33
498.17	1927.14
498.37	1929.19
498.57	2017.25
498.77	1974.24
498.97	1992.67
499.17	2109.41
499.38	2023.39
499.58	2078.69
499.78	2160.61
499.98	2074.59
500.18	1972.19
500.38	1955.81
500.58	2162.66
500.78	2535.39
500.98	4908.98
501.18	7077.78
501.38	8720.25
501.58	9672.56
501.78	9684.84
501.98	7499.66
502.18	6203.30
502.38	5392.30
502.58	5017.52
502.78	4450.24
502.98	4224.96
503.18	4171.71
503.38	3712.97
503.59	3336.14
503.79	3088.34
503.99	2756.57
504.19	2582.49
504.39	2602.97
504.59	2691.03
504.79	2590.68
504.99	2531.29
505.19	2336.73
505.39	2242.53
505.59	2265.05
505.79	2285.53
505.99	2242.53
506.19	2193.37
506.39	2185.18
506.59	1927.14
506.79	1996.77
506.99	2064.35
507.19	2045.92
507.39	1914.85
507.59	1933.28
507.79	1947.62
507.99	1959.91
508.19	1945.57
508.39	2013.15
508.59	2002.91
508.79	2113.50
508.99	2113.50
509.19	1894.37
509.39	2029.54
509.59	1880.04
509.79	1916.90
509.99	2004.96
510.19	2045.92
510.39	2058.21
510.59	2017.25
510.79	1959.91
510.99	1918.95
511.19	2054.11
511.39	2060.26
511.59	2017.25
511.79	2090.98
511.99	1943.52
512.19	2066.40
512.38	2062.30
512.58	1959.91
512.78	2015.20
512.98	2084.83
513.18	2133.98
513.38	1990.63
513.58	2013.15
513.78	2015.20
513.98	1939.43
514.18	1982.43
514.38	2072.54
514.58	2097.12
514.78	1961.95
514.98	1888.23
515.18	1982.43
515.38	1855.46
515.58	2121.70
515.78	1990.63
515.98	2002.91
516.18	1964.00
516.38	1949.67
516.57	1904.61
516.77	1949.67
516.97	2052.06
517.17	1933.28
517.37	1814.50
517.57	2138.08
517.77	1994.72
517.97	1994.72
518.17	1982.43
518.37	1961.95
518.57	1966.05
518.77	1947.62
518.97	1972.19
519.16	1951.71
519.36	2058.21
519.56	1996.77
519.76	1935.33
519.96	1978.34
520.16	2127.84
520.36	1943.52
520.56	2052.06
520.76	1920.99
520.96	1923.04
521.16	1992.67
521.35	2117.60
521.55	2115.55
521.75	2000.87
521.95	1951.71
522.15	1992.67
522.35	1875.94
522.55	1920.99
522.75	2041.82
522.95	1968.10
523.14	1931.23
523.34	1980.39
523.54	1929.19
523.74	1978.34
523.94	2000.87
524.14	1882.08
524.34	2074.59
524.54	2068.45
524.73	1916.90
524.93	2031.58
525.13	1982.43
525.33	1890.28
525.53	2154.46
525.73	2054.11
525.93	1998.82
526.13	1937.38
526.32	1978.34
526.52	2043.87
526.72	2062.30
526.92	1916.90
527.12	2041.82
527.32	1966.05
527.52	2090.98
527.71	1992.67
527.91	1914.85
528.11	1951.71
528.31	1966.05
528.51	1988.58
528.71	1945.57
528.90	2000.87
529.10	2019.30
529.30	2142.18
529.50	1816.55
529.70	2007.01
529.90	1892.32
530.09	1970.15
530.29	1904.61
530.49	1886.18
530.69	2148.32
530.89	1980.39
531.09	2068.45
531.28	1945.57
531.48	2011.11
531.68	1984.48
531.88	2095.07
532.08	2039.78
532.28	1951.71
532.47	2050.02
532.67	2154.46
532.87	2031.58
533.07	1990.63
533.27	1992.67
533.46	1980.39
533.66	2027.49
533.86	1986.53
534.06	1949.67
534.26	1994.72
534.45	1986.53
534.65	2070.50
534.85	2027.49
535.05	2033.63
535.25	2080.74
535.44	1837.03
535.64	1996.77
535.84	1964.00
536.04	1910.75
536.24	1931.23
536.43	1859.56
536.63	1931.23
536.83	1988.58
537.03	1992.67
537.22	1877.99
537.42	1816.55
537.62	2019.30
537.82	1964.00
538.02	2088.93
538.21	2105.31
538.41	2203.61
538.61	2025.44
538.81	1951.71
539.00	2131.94
539.20	1888.23
539.40	1906.66
539.60	1959.91
539.79	2066.40
539.99	1949.67
540.19	1937.38
540.39	1974.24
540.58	1964.00
540.78	2031.58
540.98	2101.22
541.18	1980.39
541.37	2072.54
541.57	2007.01
541.77	2031.58
541.97	1947.62
542.16	1945.57
542.36	1996.77
542.56	1980.39
542.76	2183.13
542.95	2021.35
543.15	2033.63
543.35	2007.01
543.54	1955.81
543.74	1880.04
543.94	2070.50
544.14	1920.99
544.33	1996.77
544.53	1955.81
544.73	1916.90
544.93	2021.35
545.12	1941.47
545.32	1910.75
545.52	1964.00
545.71	1894.37
545.91	1900.52
546.11	1923.04
546.30	1925.09
546.50	1884.13
546.70	1988.58
546.90	2004.96
547.09	1808.36
547.29	1984.48
547.49	1996.77
547.68	2011.11
547.88	1904.61
548.08	1984.48
548.27	2465.75
548.47	1957.86
548.67	1935.33
548.87	2043.87
549.06	2019.30
549.26	1966.05
549.46	2058.21
549.65	1990.63
549.85	1941.47
550.05	2072.54
550.24	1959.91
550.44	1953.76
550.64	1959.91
550.83	1955.81
551.03	2045.92
551.23	2082.78
551.42	1992.67
551.62	1957.86
551.82	1986.53
552.01	1990.63
552.21	2070.50
552.41	2037.73
552.60	2105.31
552.80	1972.19
553.00	1964.00
553.19	1951.71
553.39	2047.97
553.59	1978.34
553.78	2045.92
553.98	2107.36
554.17	1884.13
554.37	2035.68
554.57	2029.54
554.76	1931.23
554.96	1892.32
555.16	1961.95
555.35	1964.00
555.55	2025.44
555.75	2015.20
555.94	2043.87
556.14	1892.32
556.33	2080.74
556.53	1964.00
556.73	1910.75
556.92	2035.68
557.12	2035.68
557.32	2131.94
557.51	2115.55
557.71	2080.74
557.90	2058.21
558.10	2095.07
558.30	1920.99
558.49	2023.39
558.69	2011.11
558.88	2080.74
559.08	1953.76
559.28	1968.10
559.47	1949.67
559.67	2007.01
559.86	2152.42
560.06	2002.91
560.26	1886.18
560.45	2054.11
560.65	2017.25
560.84	2088.93
561.04	1894.37
561.24	1972.19
561.43	1900.52
561.63	2086.88
561.82	1908.71
562.02	1986.53
562.22	1959.91
562.41	2007.01
562.61	1992.67
562.80	1931.23
563.00	2148.32
563.19	1980.39
563.39	1951.71
563.59	1994.72
563.78	1867.75
563.98	1857.51
564.17	1943.52
564.37	1951.71
564.56	1939.43
564.76	1845.22
564.96	2054.11
565.15	2009.06
565.35	2172.89
565.54	1910.75
565.74	2060.26
565.93	2035.68
566.13	1888.23
566.32	1978.34
566.52	2052.06
566.71	2007.01
566.91	2023.39
567.11	1982.43
567.30	1929.19
567.50	2064.35
567.69	2007.01
567.89	1925.09
568.08	1882.08
568.28	2004.96
568.47	1902.56
568.67	2000.87
568.86	1941.47
569.06	2047.97
569.25	1953.76
569.45	1877.99
569.64	1941.47
569.84	1949.67
570.04	2033.63
570.23	1955.81
570.43	1947.62
570.62	2043.87
570.82	2138.08
571.01	1896.42
571.21	1951.71
571.40	1931.23
571.60	2019.30
571.79	2047.97
571.99	1916.90
572.18	1923.04
572.38	2013.15
572.57	1988.58
572.77	2027.49
572.96	2095.07
573.16	2019.30
573.35	1912.80
573.55	2039.78
573.74	2029.54
573.94	1923.04
574.13	1996.77
574.33	1955.81
574.52	2164.70
574.71	1961.95
574.91	2011.11
575.10	1892.32
575.30	1978.34
575.49	1992.67
575.69	1918.95
575.88	2029.54
576.08	1959.91
576.27	2086.88
576.47	2086.88
576.66	2142.18
576.86	2179.04
577.05	2037.73
577.25	2107.36
577.44	2170.85
577.64	2011.11
577.83	2072.54
578.02	1957.86
578.22	2088.93
578.41	2205.66
578.61	2035.68
578.80	1904.61
579.00	2013.15
579.19	1951.71
579.39	2064.35
579.58	2086.88
579.77	1953.76
579.97	2047.97
580.16	2148.32
580.36	2082.78
580.55	2033.63
580.75	2072.54
580.94	2062.30
581.13	2174.94
581.33	2176.99
581.52	1984.48
581.72	2162.66
581.91	2179.04
582.11	2039.78
582.30	2054.11
582.49	2029.54
582.69	2119.65
582.88	2103.26
583.08	2084.83
583.27	2127.84
583.47	1968.10
583.66	2002.91
583.85	1947.62
584.05	1957.86
584.24	2095.07
584.44	2052.06
584.63	2119.65
584.82	2203.61
585.02	2275.29
585.21	2164.70
585.41	2185.18
585.60	2187.23
585.79	2287.58
585.99	2217.95
586.18	2174.94
586.37	2564.06
586.57	3942.34
586.76	11855.69
586.96	30307.89
587.15	44555.61
587.34	54494.40
587.54	59690.10
587.73	56317.09
587.93	39552.42
588.12	29892.15
588.31	24002.19
588.51	20776.64
588.70	18953.95
588.89	17217.27
589.09	15353.62
589.28	13203.25
589.47	10835.80
589.67	8654.72
589.86	6547.36
590.06	4917.17
590.25	3788.74
590.44	3057.62
590.64	2627.54
590.83	2392.03
591.02	2254.81
591.22	2082.78
591.41	2191.33
591.60	2129.89
591.80	2224.09
591.99	1949.67
592.18	2056.16
592.38	2142.18
592.57	2025.44
592.76	2050.02
592.96	2013.15
593.15	1990.63
593.34	2088.93
593.54	1953.76
593.73	2101.22
593.92	2115.55
594.12	2086.88
594.31	2160.61
594.50	2121.70
594.70	2095.07
594.89	2201.57
595.08	2007.01
595.28	2109.41
595.47	2275.29
595.66	2160.61
595.86	1968.10
596.05	2002.91
596.24	1986.53
596.43	2127.84
596.63	2129.89
596.82	2023.39
597.01	2121.70
597.21	2054.11
597.40	2084.83
597.59	2123.74
597.79	2007.01
597.98	2068.45
598.17	2047.97
598.36	1990.63
598.56	1974.24
598.75	1966.05
598.94	2004.96
599.14	2011.11
599.33	1976.29
599.52	2066.40
599.71	1994.72
599.91	2052.06
600.10	2007.01
600.29	1955.81
600.48	2039.78
600.68	2004.96
600.87	1972.19
601.06	1925.09
601.26	2027.49
601.45	2009.06
601.64	1943.52
601.83	2047.97
602.03	1939.43
602.22	1900.52
602.41	2033.63
602.60	2293.72
602.80	2078.69
602.99	2054.11
603.18	1980.39
603.37	2021.35
603.57	2070.50
603.76	1978.34
603.95	2062.30
604.14	1935.33
604.34	1914.85
604.53	2011.11
604.72	2047.97
604.91	2035.68
605.10	2052.06
605.30	1867.75
605.49	2168.80
605.68	2088.93
605.87	2037.73
606.07	2019.30
606.26	1943.52
606.45	2086.88
606.64	2086.88
606.84	1918.95
607.03	2068.45
607.22	2117.60
607.41	2031.58
607.60	2025.44
607.80	2095.07
607.99	2000.87
608.18	1927.14
608.37	2131.94
608.56	2019.30
608.76	2115.55
608.95	2127.84
609.14	2082.78
609.33	2082.78
609.52	2250.72
609.72	1988.58
609.91	2140.13
610.10	2078.69
610.29	2158.56
610.48	2095.07
610.68	1988.58
610.87	1988.58
611.06	2080.74
611.25	2080.74
611.44	2025.44
611.63	1976.29
611.83	2062.30
612.02	1906.66
612.21	2150.37
612.40	1812.45
612.59	1925.09
612.79	1904.61
612.98	2023.39
613.17	2099.17
613.36	2017.25
613.55	2133.98
613.74	2084.83
613.93	2164.70
614.13	2201.57
614.32	2303.96
614.51	2222.05
614.70	2119.65
614.89	2011.11
615.08	2166.75
615.28	2441.18
615.47	1929.19
615.66	2103.26
615.85	2066.40
616.04	2179.04
616.23	2148.32
616.42	2090.98
616.62	2019.30
616.81	2027.49
617.00	1929.19
617.19	2007.01
617.38	1892.32
617.57	2045.92
617.76	2062.30
617.95	2080.74
618.15	2050.02
618.34	2131.94
618.53	1906.66
618.72	2002.91
618.91	2117.60
619.10	2060.26
619.29	2035.68
619.48	1908.71
619.68	1937.38
619.87	1964.00
620.06	1898.47
620.25	2004.96
620.44	1929.19
620.63	1920.99
620.82	1994.72
621.01	1976.29
621.20	2035.68
621.39	2043.87
621.59	2041.82
621.78	1964.00
621.97	2058.21
622.16	2045.92
622.35	1986.53
622.54	2113.50
622.73	1994.72
622.92	1851.36
623.11	2027.49
623.30	1927.14
623.49	1970.15
623.68	1978.34
623.88	2115.55
624.07	1998.82
624.26	1986.53
624.45	1994.72
624.64	1939.43
624.83	1961.95
625.02	1964.00
625.21	1959.91
625.40	1933.28
625.59	2054.11
625.78	2011.11
625.97	2121.70
626.16	2131.94
626.35	2082.78
626.54	2033.63
626.74	2123.74
626.93	1984.48
627.12	1978.34
627.31	2037.73
627.50	2009.06
627.69	2062.30
627.88	1910.75
628.07	1939.43
628.26	1902.56
628.45	1849.32
628.64	1933.28
628.83	1961.95
629.02	1861.60
629.21	2052.06
629.40	2019.30
629.59	1904.61
629.78	1912.80
629.97	2002.91
630.16	2000.87
630.35	1988.58
630.54	2043.87
630.73	1949.67
630.92	1978.34
631.11	1931.23
631.30	2002.91
631.49	2047.97
631.68	2056.16
631.87	1929.19
632.06	1912.80
632.25	2185.18
632.44	1996.77
632.63	2058.21
632.82	2074.59
633.01	2088.93
633.20	2093.02
633.39	2054.11
633.58	2002.91
633.77	2062.30
633.96	2086.88
634.15	2037.73
634.34	2082.78
634.53	1974.24
634.72	1927.14
634.91	1916.90
635.10	1959.91
635.29	2113.50
635.48	2078.69
635.67	1902.56
635.86	1978.34
636.05	2088.93
636.24	2011.11
636.43	1970.15
636.62	2029.54
636.81	1718.25
637.00	1994.72
637.19	1949.67
637.38	1949.67
637.57	2037.73
637.76	2101.22
637.95	2062.30
638.14	2150.37
638.33	2045.92
638.52	2101.22
638.71	2013.15
638.89	1968.10
639.08	2107.36
639.27	2183.13
639.46	2236.38
639.65	2559.96
639.84	2588.63
640.03	2824.15
640.22	2758.61
640.41	2764.76
640.60	2441.18
640.79	2306.01
640.98	2246.62
641.17	2291.68
641.36	2209.76
641.55	2146.27
641.74	2004.96
641.92	2033.63
642.11	2019.30
642.30	2039.78
642.49	1988.58
642.68	1974.24
642.87	1947.62
643.06	2031.58
643.25	1953.76
643.44	1925.09
643.63	1937.38
643.82	2076.64
644.00	1912.80
644.19	1976.29
644.38	1869.80
644.57	2084.83
644.76	1953.76
644.95	1947.62
645.14	2037.73
645.33	1957.86
645.52	1941.47
645.71	1892.32
645.89	1947.62
646.08	1980.39
646.27	1929.19
646.46	2150.37
646.65	1896.42
646.84	1941.47
647.03	1884.13
647.22	2060.26
647.40	1931.23
647.59	1920.99
647.78	1820.64
647.97	1894.37
648.16	1904.61
648.35	2017.25
648.54	2127.84
648.73	1972.19
648.91	2029.54
649.10	2043.87
649.29	1935.33
649.48	1939.43
649.67	2002.91
649.86	1980.39
650.05	2127.84
650.23	2125.79
650.42	2236.38
650.61	2273.25
650.80	2209.76
650.99	2332.64
651.18	2052.06
651.36	2093.02
651.55	2013.15
651.74	2060.26
651.93	1980.39
652.12	2097.12
652.31	2002.91
652.49	1918.95
652.68	2025.44
652.87	2168.80
653.06	2041.82
653.25	2097.12
653.44	1980.39
653.62	2076.64
653.81	1898.47
654.00	2025.44
654.19	2156.51
654.38	2131.94
654.56	1990.63
654.75	1974.24
654.94	2029.54
655.13	1984.48
655.32	1871.84
655.51	2035.68
655.69	1898.47
655.88	2070.50
656.07	1890.28
656.26	2045.92
656.45	1875.94
656.63	1976.29
656.82	2004.96
657.01	2127.84
657.20	1986.53
657.38	2097.12
657.57	1994.72
657.76	1880.04
657.95	2017.25
658.14	1961.95
658.32	1957.86
658.51	1845.22
658.70	1970.15
658.89	1912.80
659.08	2009.06
659.26	2054.11
659.45	1966.05
659.64	2095.07
659.83	2107.36
660.01	2330.59
660.20	1988.58
660.39	2070.50
660.58	1920.99
660.76	2060.26
660.95	1861.60
661.14	1994.72
661.33	1933.28
661.51	1843.17
661.70	1882.08
661.89	2025.44
662.08	2029.54
662.26	1888.23
662.45	1925.09
662.64	2095.07
662.83	2031.58
663.01	1951.71
663.20	1925.09
663.39	2070.50
663.58	1978.34
663.76	1929.19
663.95	2009.06
664.14	1961.95
664.32	1937.38
664.51	1906.66
664.70	1859.56
664.89	2045.92
665.07	1906.66
665.26	2017.25
665.45	1908.71
665.64	2013.15
665.82	2047.97
666.01	2031.58
666.20	1986.53
666.38	2050.02
666.57	2195.42
666.76	2818.00
666.95	6748.06
667.13	14944.03
667.32	21001.92
667.51	24653.45
667.69	27119.20
667.88	25751.16
668.07	18757.35
668.25	14503.71
668.44	11642.70
668.63	10162.02
668.81	9103.22
669.00	7905.16
669.19	6922.13
669.38	6049.70
669.56	5269.42
669.75	4298.69
669.94	3680.20
670.12	3020.75
670.31	2717.65
670.50	2455.51
670.68	2222.05
670.87	2148.32
671.06	2103.26
671.24	2093.02
671.43	2203.61
671.62	2076.64
671.80	2000.87
671.99	2025.44
672.18	2037.73
672.36	2072.54
672.55	2002.91
672.74	1927.14
672.92	1923.04
673.11	2045.92
673.29	1945.57
673.48	2033.63
673.67	1992.67
673.85	2133.98
674.04	1910.75
674.23	2009.06
674.41	2074.59
674.60	1888.23
674.79	1890.28
674.97	1894.37
675.16	2043.87
675.34	2056.16
675.53	1912.80
675.72	1992.67
675.90	2111.46
676.09	1966.05
676.28	2037.73
676.46	1906.66
676.65	2058.21
676.83	1906.66
677.02	1982.43
677.21	1961.95
677.39	1992.67
677.58	1976.29
677.77	1943.52
677.95	1839.08
678.14	1908.71
678.32	1947.62
678.51	1875.94
678.70	2148.32
678.88	1990.63
679.07	1947.62
679.25	1996.77
679.44	1994.72
679.63	1939.43
679.81	2031.58
680.00	2009.06
680.18	2009.06
680.37	2084.83
680.55	2060.26
680.74	1898.47
680.93	1859.56
681.11	1933.28
681.30	1916.90
681.48	1906.66
681.67	1947.62
681.85	1978.34
682.04	1918.95
682.23	2039.78
682.41	1968.10
682.60	1939.43
682.78	2000.87
682.97	1886.18
683.15	1937.38
683.34	1970.15
683.53	2086.88
683.71	1828.84
683.90	2047.97
684.08	2074.59
684.27	1875.94
684.45	1990.63
684.64	2066.40
684.82	1900.52
685.01	2047.97
685.19	1998.82
685.38	2090.98
685.57	2017.25
685.75	1920.99
685.94	1968.10
686.12	1957.86
686.31	1875.94
686.49	2076.64
686.68	1822.69
686.86	2056.16
687.05	1974.24
687.23	2050.02
687.42	1955.81
687.60	1931.23
687.79	2111.46
687.97	2101.22
688.16	1998.82
688.34	2060.26
688.53	1904.61
688.71	1941.47
688.90	2086.88
689.08	1920.99
689.27	1880.04
689.45	2037.73
689.64	1994.72
689.82	2000.87
690.01	1974.24
690.19	2002.91
690.38	1974.24
690.56	2078.69
690.75	1939.43
690.93	1949.67
691.12	1890.28
691.30	1968.10
691.49	1902.56
691.67	1984.48
691.86	2050.02
692.04	1861.60
692.23	2025.44
692.41	2041.82
692.60	2277.34
692.78	2154.46
692.97	2029.54
693.15	2064.35
693.34	2127.84
693.52	2074.59
693.71	1871.84
693.89	2004.96
694.08	1822.69
694.26	2027.49
694.44	2072.54
694.63	2074.59
694.81	1920.99
695.00	1843.17
695.18	2045.92
695.37	2113.50
695.55	1980.39
695.74	1972.19
695.92	1869.80
696.10	2019.30
696.29	1863.65
696.47	1875.94
696.66	1857.51
696.84	1859.56
697.03	1886.18
697.21	2058.21
697.40	2824.15
697.58	2015.20
697.76	1908.71
697.95	1992.67
698.13	1857.51
698.32	1949.67
698.50	1945.57
698.68	2050.02
698.87	2023.39
699.05	2084.83
699.24	1984.48
699.42	1873.89
699.61	1978.34
699.79	2007.01
699.97	2021.35
700.16	1832.93
700.34	1884.13
700.53	1953.76
700.71	2029.54
700.89	2004.96
701.08	1961.95
701.26	1935.33
701.45	2480.09
701.63	1949.67
701.81	1869.80
702.00	1957.86
702.18	1996.77
702.37	1961.95
702.55	2183.13
702.73	2232.29
702.92	2154.46
703.10	2236.38
703.28	2256.86
703.47	2074.59
703.65	2248.67
703.84	2222.05
704.02	2070.50
704.20	2211.81
704.39	2052.06
704.57	1978.34
704.75	2027.49
704.94	2043.87
705.12	2007.01
705.30	2303.96
705.49	3696.58
705.67	9391.98
705.86	18390.76
706.04	23318.17
706.22	26943.08
706.41	29036.10
706.59	25996.92
706.77	18306.79
706.96	14683.94
707.14	12607.30
707.32	10880.86
707.51	9705.32
707.69	8044.42
707.87	6754.20
708.06	5283.76
708.24	4091.84
708.42	3272.65
708.61	2877.40
708.79	2306.01
708.97	2168.80
709.16	2181.09
709.34	2152.42
709.52	2013.15
709.71	2054.11
709.89	2068.45
710.07	1998.82
710.26	1976.29
710.44	2011.11
710.62	2043.87
710.80	1953.76
710.99	2090.98
711.17	2021.35
711.35	1953.76
711.54	1892.32
711.72	2105.31
711.90	1920.99
712.09	1966.05
712.27	1990.63
712.45	2105.31
712.63	1884.13
712.82	1978.34
713.00	1945.57
713.18	2000.87
713.37	1959.91
713.55	2058.21
713.73	2062.30
713.91	1964.00
714.10	1929.19
714.28	1886.18
714.46	2017.25
714.65	1986.53
714.83	2015.20
715.01	1970.15
715.19	1929.19
715.38	1970.15
715.56	1959.91
715.74	1955.81
715.92	1929.19
716.11	2068.45
716.29	1837.03
716.47	1968.10
716.65	1957.86
716.84	1847.27
717.02	2027.49
717.20	1849.32
717.38	1892.32
717.57	2013.15
717.75	1933.28
717.93	1984.48
718.11	1982.43
718.30	1920.99
718.48	2019.30
718.66	2045.92
718.84	2068.45
719.03	1933.28
719.21	1871.84
719.39	2103.26
719.57	2007.01
719.75	2033.63
719.94	1843.17
720.12	1898.47
720.30	1972.19
720.48	2093.02
720.67	1888.23
720.85	1890.28
721.03	1902.56
721.21	1853.41
721.39	2131.94
721.58	2035.68
721.76	1996.77
721.94	1970.15
722.12	1880.04
722.30	2015.20
722.49	1939.43
722.67	1980.39
722.85	1972.19
723.03	1953.76
723.21	1845.22
723.40	1990.63
723.58	2078.69
723.76	2000.87
723.94	2066.40
724.12	2072.54
724.30	2193.37
724.49	2138.08
724.67	1968.10
724.85	2119.65
725.03	1873.89
725.21	2093.02
725.40	2074.59
725.58	1906.66
725.76	2037.73
725.94	1992.67
726.12	1939.43
726.30	1982.43
726.49	1925.09
726.67	1980.39
726.85	1980.39
727.03	2254.81
727.21	3149.78
727.39	4882.36
727.57	6148.00
727.76	7018.39
727.94	7380.88
728.12	7102.36
728.30	5941.16
728.48	4816.82
728.66	4384.70
728.84	3956.68
729.03	3389.39
729.21	3037.14
729.39	2590.68
729.57	2267.10
729.75	2222.05
729.93	2113.50
730.11	1939.43
730.30	1935.33
730.48	2011.11
730.66	2082.78
730.84	2052.06
731.02	1961.95
731.20	1931.23
731.38	2011.11
731.56	1976.29
731.74	1972.19
731.93	1947.62
732.11	1951.71
732.29	1910.75
732.47	1968.10
732.65	1935.33
732.83	2029.54
733.01	1984.48
733.19	1843.17
733.37	1998.82
733.56	2047.97
733.74	1945.57
733.92	2136.03
734.10	1896.42
734.28	2025.44
734.46	1929.19
734.64	1984.48
734.82	1947.62
735.00	1923.04
735.18	1931.23
735.36	1980.39
735.54	1953.76
735.73	2007.01
735.91	1974.24
736.09	2082.78
736.27	1898.47
736.45	2000.87
736.63	1853.41
736.81	1925.09
736.99	2082.78
737.17	2097.12
737.35	1937.38
737.53	1961.95
737.71	1933.28
737.89	2107.36
738.07	1959.91
738.25	1918.95
738.43	1849.32
738.61	1943.52
738.80	1839.08
738.98	1857.51
739.16	1910.75
739.34	1927.14
739.52	2031.58
739.70	1939.43
739.88	2039.78
740.06	1990.63
740.24	1800.16
740.42	2056.16
740.60	1871.84
740.78	1974.24
740.96	1847.27
741.14	1894.37
741.32	1918.95
741.50	1851.36
741.68	2127.84
741.86	2062.30
742.04	1916.90
742.22	1929.19
742.40	2004.96
742.58	1988.58
742.76	1929.19
742.94	2019.30
743.12	1820.64
743.30	1976.29
743.48	2015.20
743.66	1939.43
743.84	2000.87
744.02	1898.47
744.20	1992.67
744.38	1914.85
744.56	1857.51
744.74	2068.45
744.92	2035.68
745.10	2086.88
745.28	2054.11
745.46	2097.12
745.64	1949.67
745.82	2025.44
746.00	1900.52
746.18	1910.75
746.36	1902.56
746.54	1914.85
746.72	1990.63
746.90	1865.70
747.08	2002.91
747.26	1896.42
747.44	2078.69
747.62	2037.73
747.80	1966.05
747.98	2002.91
748.15	2019.30
748.33	2138.08
748.51	1982.43
748.69	2039.78
748.87	1886.18
749.05	1966.05
749.23	1957.86
749.41	1914.85
749.59	1976.29
749.77	2019.30
749.95	1959.91
750.13	1935.33
750.31	2007.01
750.49	1908.71
750.67	1980.39
750.85	2045.92
751.03	1886.18
751.20	2129.89
751.38	1970.15
751.56	1964.00
751.74	1953.76
751.92	1918.95
752.10	1787.88
752.28	1988.58
752.46	1916.90
752.64	2002.91
752.82	1994.72
753.00	2050.02
753.18	1990.63
753.35	1972.19
753.53	1990.63
753.71	1849.32
753.89	2035.68
754.07	1974.24
754.25	2054.11
754.43	1986.53
754.61	1863.65
754.79	1902.56
754.97	1914.85
755.14	2047.97
755.32	1906.66
755.50	1953.76
755.68	1998.82
755.86	1841.12
756.04	1953.76
756.22	1824.74
756.40	2000.87
756.57	2037.73
756.75	1939.43
756.93	2082.78
757.11	2068.45
757.29	1916.90
757.47	1918.95
757.65	1830.88
757.82	1853.41
758.00	1980.39
758.18	1912.80
758.36	1902.56
758.54	2138.08
758.72	1906.66
758.90	2029.54
759.07	1955.81
759.25	1867.75
759.43	1902.56
759.61	1837.03
759.79	2664.41
759.97	2015.20
760.15	1933.28
760.32	1865.70
760.50	2000.87
760.68	2129.89
760.86	1935.33
761.04	2060.26
761.22	2011.11
761.39	1959.91
761.57	1980.39
761.75	1900.52
761.93	2029.54
762.11	1974.24
762.28	1939.43
762.46	1937.38
762.64	2056.16
762.82	1855.46
763.00	1867.75
763.18	2047.97
763.35	1888.23
763.53	2105.31
763.71	1945.57
763.89	1964.00
764.07	1996.77
764.24	1933.28
764.42	2062.30
764.60	1972.19
764.78	2037.73
764.96	2023.39
765.13	2031.58
765.31	2004.96
765.49	2007.01
765.67	1890.28
765.84	1867.75
766.02	1974.24
766.20	1892.32
766.38	1916.90
766.56	2064.35
766.73	2078.69
766.91	1947.62
767.09	1947.62
767.27	2035.68
767.44	1871.84
767.62	2002.91
767.80	1900.52
767.98	1869.80
768.15	1945.57
768.33	1968.10
768.51	1951.71
768.69	2015.20
768.87	1978.34
769.04	1951.71
769.22	2058.21
769.40	2115.55
769.58	2039.78
769.75	1992.67
769.93	2017.25
770.11	1982.43
770.28	1818.60
770.46	2025.44
770.64	1994.72
770.82	1970.15
770.99	1943.52
771.17	1964.00
771.35	1964.00
771.53	1996.77
771.70	1972.19
771.88	2002.91
772.06	1929.19
772.23	1929.19
772.41	1986.53
772.59	1855.46
772.77	1890.28
772.94	2015.20
773.12	1935.33
773.30	1947.62
773.47	1890.28
773.65	1945.57
773.83	2125.79
774.01	1923.04
774.18	1808.36
774.36	2037.73
774.54	1900.52
774.71	1972.19
774.89	1818.60
775.07	1882.08
775.24	1890.28
775.42	1943.52
775.60	2064.35
775.78	1964.00
775.95	1875.94
776.13	1802.21
776.31	1863.65
776.48	1943.52
776.66	2041.82
776.84	1929.19
777.01	1918.95
777.19	1857.51
777.37	1906.66
777.54	1988.58
777.72	2080.74
777.90	1998.82
778.07	1925.09
778.25	2195.42
778.43	2013.15
778.60	1914.85
778.78	1961.95
778.96	1996.77
779.13	1892.32
779.31	2025.44
779.49	1898.47
779.66	1964.00
779.84	1912.80
780.01	1929.19
780.19	1912.80
780.37	2043.87
780.54	2007.01
780.72	1798.12
780.90	1957.86
781.07	1935.33
781.25	1886.18
781.43	2023.39
781.60	1929.19
781.78	2097.12
781.95	1970.15
782.13	1877.99
782.31	1937.38
782.48	1816.55
782.66	1949.67
782.83	2037.73
783.01	1994.72
783.19	2023.39
783.36	1947.62
783.54	1908.71
783.72	1974.24
783.89	1970.15
784.07	1904.61
784.24	1900.52
784.42	2062.30
784.60	1970.15
784.77	2007.01
784.95	1898.47
785.12	1943.52
785.30	2021.35
785.47	1810.40
785.65	1964.00
785.83	1863.65
786.00	1896.42
786.18	2015.20
786.35	1884.13
786.53	1869.80
786.71	2015.20
786.88	2050.02
787.06	1972.19
787.23	1992.67
787.41	1787.88
787.58	1992.67
787.76	1923.04
787.94	1888.23
788.11	1984.48
788.29	1859.56
788.46	1847.27
788.64	1828.84
788.81	1908.71
788.99	1966.05
789.16	1929.19
789.34	1994.72
789.52	1884.13
789.69	1933.28
789.87	1888.23
790.04	1929.19
790.22	1945.57
790.39	2082.78
790.57	1855.46
790.74	1880.04
790.92	1996.77
791.09	1867.75
791.27	1896.42
791.44	2068.45
791.62	1873.89
791.79	2070.50
791.97	1933.28
792.15	2162.66
792.32	1968.10
792.50	1984.48
792.67	2060.26
792.85	2062.30
793.02	1996.77
793.20	2009.06
793.37	1810.40
793.55	1923.04
793.72	1900.52
793.90	2064.35
794.07	1931.23
794.25	1937.38
794.42	1925.09
794.60	1898.47
794.77	1964.00
794.95	2000.87
795.12	1966.05
795.30	1988.58
795.47	1791.97
795.65	2185.18
795.82	1968.10
796.00	1859.56
796.17	1920.99
796.34	1968.10
796.52	1935.33
796.69	2000.87
796.87	1990.63
797.04	1968.10
797.22	2054.11
797.39	2023.39
797.57	1978.34
797.74	2058.21
797.92	1939.43
798.09	1959.91
798.27	2050.02
798.44	1884.13
798.62	1935.33
798.79	1972.19
798.96	1943.52
799.14	1910.75
799.31	2138.08
799.49	1974.24
799.66	1908.71
799.84	1953.76
800.01	1841.12
800.19	2002.91
800.36	1886.18
800.53	1992.67
800.71	1964.00
800.88	2076.64
801.06	1916.90
801.23	1898.47
801.41	1923.04
801.58	1923.04
801.75	1861.60
801.93	1992.67
802.10	2015.20
802.28	1910.75
802.45	1900.52
802.63	1988.58
802.80	2002.91
802.97	1865.70
803.15	1988.58
803.32	2029.54
803.50	1875.94
803.67	1947.62
803.84	1841.12
804.02	1990.63
804.19	1959.91
804.37	1859.56
804.54	1830.88
804.71	1902.56
804.89	1992.67
805.06	1855.46
805.24	1961.95
805.41	1918.95
805.58	1855.46
805.76	2140.13
805.93	1947.62
806.10	2004.96
806.28	2029.54
806.45	1957.86
806.63	1933.28
806.80	2007.01
806.97	1959.91
807.15	2017.25
807.32	1933.28
807.49	1925.09
807.67	1843.17
807.84	1931.23
808.01	1865.70
808.19	2074.59
808.36	2113.50
808.54	1896.42
808.71	1904.61
808.88	1918.95
809.06	1947.62
809.23	2041.82
809.40	1957.86
809.58	1943.52
809.75	2004.96
809.92	1935.33
810.10	2181.09
810.27	1920.99
810.44	1982.43
810.62	1974.24
810.79	1959.91
810.96	1959.91
811.14	1890.28
811.31	1976.29
811.48	2033.63
811.66	1968.10
811.83	2037.73
812.00	1978.34
812.18	2019.30
812.35	2209.76
812.52	1925.09
812.69	1943.52
812.87	1869.80
813.04	1933.28
813.21	1935.33
813.39	1888.23
813.56	1906.66
813.73	2158.56
813.91	1867.75
814.08	1976.29
814.25	2009.06
814.42	1816.55
814.60	1906.66
814.77	1970.15
814.94	1949.67
815.12	1896.42
815.29	2070.50
815.46	1906.66
815.63	1978.34
815.81	1933.28
815.98	1914.85
816.15	1976.29
816.33	1900.52
816.50	2002.91
816.67	1992.67
816.84	1937.38
817.02	1890.28
817.19	1943.52
817.36	1959.91
817.53	1992.67
817.71	1898.47
817.88	2045.92
818.05	1900.52
818.22	1966.05
818.40	2105.31
818.57	1884.13
818.74	1959.91
818.91	1910.75
819.09	2004.96
819.26	2007.01
819.43	1943.52
819.60	1984.48
819.78	1964.00
819.95	1996.77
820.12	1830.88
820.29	2025.44
820.47	2023.39
820.64	1894.37
820.81	1851.36
820.98	1880.04
821.15	1955.81
821.33	1961.95
821.50	1853.41
821.67	1998.82
821.84	1859.56
822.02	2023.39
822.19	2084.83
822.36	1867.75
822.53	1935.33
822.70	1882.08
822.88	1916.90
823.05	2109.41
823.22	1986.53
823.39	2041.82
823.56	1964.00
823.74	2066.40
823.91	1873.89
824.08	1818.60
824.25	1900.52
824.42	2047.97
824.60	1880.04
824.77	1984.48
824.94	1920.99
825.11	2017.25
825.28	1875.94
825.45	1925.09
825.63	2021.35
825.80	1939.43
825.97	2076.64
826.14	1943.52
826.31	1857.51
826.48	1966.05
826.66	1863.65
826.83	1818.60
827.00	1908.71
827.17	1841.12
827.34	2000.87
827.51	1908.71
827.69	1925.09
827.86	1894.37
828.03	1931.23
828.20	2007.01
828.37	1925.09
828.54	2015.20
828.71	1920.99
828.89	2099.17
829.06	1968.10
829.23	2193.37
829.40	1867.75
829.57	1855.46
829.74	2019.30
829.91	1839.08
830.09	1982.43
830.26	1908.71
830.43	2097.12
830.60	1959.91
830.77	1974.24
830.94	2041.82
831.11	2031.58
831.28	1974.24
831.46	2029.54
831.63	1871.84
831.80	2045.92
831.97	1896.42
832.14	1933.28
832.31	1957.86
832.48	1931.23
832.65	2037.73
832.82	1929.19
832.99	2037.73
833.17	1892.32
833.34	2101.22
833.51	1992.67
833.68	1886.18
833.85	2011.11
834.02	1896.42
834.19	1947.62
834.36	1949.67
834.53	1968.10
834.70	2127.84
834.87	2056.16
835.04	1828.84
835.22	1931.23
835.39	1957.86
835.56	1867.75
835.73	1972.19
835.90	2099.17
836.07	1867.75
836.24	2000.87
836.41	1865.70
836.58	1902.56
836.75	2021.35
836.92	1953.76
837.09	1900.52
837.26	2027.49
837.43	1929.19
837.60	1920.99
837.77	1910.75
837.94	1988.58
838.12	1976.29
838.29	1929.19
838.46	1906.66
838.63	1828.84
838.80	1994.72
838.97	2007.01
839.14	1908.71
839.31	2019.30
839.48	2045.92
839.65	1859.56
839.82	2023.39
839.99	1978.34
840.16	2017.25
840.33	1880.04
840.50	1998.82
840.67	1949.67
840.84	1843.17
841.01	2072.54
841.18	1923.04
841.35	1951.71
841.52	2002.91
841.69	2103.26
841.86	1941.47
842.03	1966.05
842.20	1990.63
842.37	1871.84
842.54	1976.29
842.71	1964.00
842.88	1892.32
843.05	2017.25
843.22	1943.52
843.39	2000.87
843.56	1920.99
843.73	1984.48
843.90	2023.39
844.07	1925.09
844.24	1986.53
844.41	1955.81
844.58	1980.39
844.75	1957.86
844.92	2011.11
845.09	1949.67
845.26	1939.43
845.43	2015.20
845.60	1931.23
845.77	1986.53
845.94	1966.05
846.10	2054.11
846.27	1861.60
846.44	1886.18
846.61	1875.94
846.78	1984.48
846.95	2002.91
847.12	1920.99
847.29	1882.08
847.46	1824.74
847.63	1982.43
847.80	1855.46
847.97	1931.23
848.14	2107.36
848.31	1900.52
848.48	1832.93
848.65	1955.81
848.82	1892.32
848.98	2084.83
849.15	2019.30
849.32	2011.11
849.49	2058.21
849.66	1968.10
849.83	1925.09
850.00	1902.56
850.17	2070.50
850.34	1941.47
850.51	1906.66
850.68	1875.94
850.85	2150.37
851.01	2009.06
851.18	1959.91
851.35	1972.19
851.52	1871.84
851.69	2029.54
851.86	1789.92
852.03	1937.38
852.20	1968.10
852.37	2013.15
852.53	1781.73
852.70	1929.19
852.87	1992.67
853.04	1953.76
853.21	1906.66
853.38	2043.87
853.55	2095.07
853.72	2033.63
853.89	1888.23
854.05	1884.13
854.22	1900.52
854.39	1900.52
854.56	1974.24
854.73	2045.92
854.90	1933.28
855.07	1923.04
855.23	1920.99
855.40	1925.09
855.57	1916.90
855.74	1839.08
855.91	2127.84
856.08	1908.71
856.25	1834.98
856.41	1949.67
856.58	1935.33
856.75	1964.00
856.92	1855.46
857.09	1986.53
857.26	1843.17
857.42	1992.67
857.59	1904.61
857.76	1935.33
857.93	1957.86
858.10	2056.16
858.27	1900.52
858.43	1980.39
858.60	1912.80
858.77	1804.26
858.94	1877.99
859.11	2105.31
859.27	1920.99
859.44	1869.80
859.61	2140.13
859.78	2002.91
859.95	1923.04
860.12	1871.84
860.28	2033.63
860.45	2025.44
860.62	1957.86
860.79	1935.33
860.95	1933.28
861.12	1966.05
861.29	1949.67
861.46	1888.23
861.63	1880.04
861.79	1955.81
861.96	1929.19
862.13	1888.23
862.30	2015.20
862.47	1865.70
862.63	1847.27
862.80	2015.20
862.97	2090.98
863.14	2052.06
863.30	1920.99
863.47	1859.56
863.64	2107.36
863.81	1937.38
863.97	1937.38
864.14	1937.38
864.31	1959.91
864.48	1939.43
864.65	1966.05
864.81	2031.58
864.98	2031.58
865.15	2007.01
865.32	2058.21
865.48	2037.73
865.65	2080.74
865.82	1918.95
865.98	1898.47
866.15	2017.25
866.32	1955.81
866.49	1910.75
866.65	2027.49
866.82	1863.65
866.99	1916.90
867.16	1959.91
867.32	1964.00
867.49	1920.99
867.66	1902.56
867.83	1937.38
867.99	1902.56
868.16	1951.71
868.33	1884.13
868.49	1875.94
868.66	1982.43
868.83	1959.91
868.99	1933.28
869.16	2023.39
869.33	1943.52
869.50	2045.92
869.66	1988.58
869.83	2007.01
870.00	1830.88
870.16	2007.01
870.33	1906.66
870.50	1943.52
870.66	1935.33
870.83	2013.15
871.00	1931.23
871.17	1970.15
871.33	2043.87
871.50	1914.85
871.67	1984.48
871.83	1871.84
872.00	2080.74
872.17	1888.23
872.33	2050.02
872.50	2068.45
872.67	1916.90
872.83	1941.47
873.00	2009.06
873.17	1931.23
873.33	2002.91
873.50	2017.25
873.67	1894.37
873.83	1886.18
874.00	1888.23
874.16	2039.78
874.33	1994.72
874.50	1925.09
874.66	1972.19
874.83	1929.19
875.00	2041.82
875.16	1945.57
875.33	1937.38
875.50	1853.41
875.66	1939.43
875.83	1914.85
875.99	1994.72
876.16	1882.08
876.33	1886.18
876.49	1923.04
876.66	1957.86
876.83	1945.57
876.99	1906.66
877.16	1892.32
877.32	1925.09
877.49	1912.80
877.66	1998.82
877.82	2035.68
877.99	1931.23
878.15	2013.15
878.32	1959.91
878.49	2027.49
878.65	1990.63
878.82	2029.54
878.98	1966.05
879.15	2021.35
879.32	2019.30
879.48	1929.19
879.65	1882.08
879.81	1933.28
879.98	1910.75
880.15	1871.84
880.31	2007.01
880.48	1937.38
880.64	1957.86
880.81	1957.86
880.97	2179.04
881.14	2058.21
881.31	1857.51
881.47	2113.50
881.64	1970.15
881.80	1837.03
881.97	1955.81
882.13	1976.29
882.30	1916.90
882.47	1877.99
882.63	1941.47
882.80	1877.99
882.96	1939.43
883.13	2029.54
883.29	1890.28
883.46	1873.89
883.62	2037.73
883.79	1966.05
883.95	2058.21
884.12	1906.66
884.29	2009.06
884.45	1957.86
884.62	1957.86
884.78	1894.37
884.95	2084.83
885.11	1886.18
885.28	1949.67
885.44	1902.56
885.61	1966.05
885.77	2004.96
885.94	2064.35
886.10	1900.52
886.27	1980.39
886.43	1978.34
886.60	2004.96
886.76	2000.87
886.93	1953.76
887.09	1968.10
887.26	1877.99
887.42	1947.62
887.59	2064.35
887.75	2160.61
887.92	2056.16
888.08	2011.11
888.25	2019.30
888.41	2009.06
888.58	1957.86
888.74	1927.14
888.91	1931.23
>>>>>End Processed Spectral Data<<<<<
