SpectraSuite Data File
++++++++++++++++++++++++++++++++++++
Date: Wed May 04 22:46:08 CEST 2016
User: root
Dark Spectrum Present: No
Reference Spectrum Present: No
Number of Sampled Component Spectra: 1
Spectrometers: USB4C02835
Integration Time (usec): 100000 (USB4C02835)
Spectra Averaged: 1 (USB4C02835)
Boxcar Smoothing: 0 (USB4C02835)
Correct for Electrical Dark: No (USB4C02835)
Strobe/Lamp Enabled: No (USB4C02835)
Correct for Detector Non-linearity: No (USB4C02835)
Correct for Stray Light: No (USB4C02835)
Number of Pixels in Processed Spectrum: 3648
>>>>>Begin Processed Spectral Data<<<<<
177.47	1650.66
177.69	1650.66
177.91	1650.66
178.13	1599.46
178.36	1630.18
178.58	1980.39
178.80	2021.35
179.02	1908.71
179.24	1970.15
179.46	1966.05
179.68	1994.72
179.90	1949.67
180.13	1976.29
180.35	1898.47
180.57	1894.37
180.79	1988.58
181.01	1984.48
181.23	1974.24
181.45	2066.40
181.67	2052.06
181.90	2082.78
182.12	1937.38
182.34	1886.18
182.56	2000.87
182.78	1980.39
183.00	1900.52
183.22	1970.15
183.44	1869.80
183.66	2129.89
183.89	2025.44
184.11	1904.61
184.33	1996.77
184.55	1992.67
184.77	1990.63
184.99	1988.58
185.21	1888.23
185.43	2111.46
185.65	1914.85
185.87	1906.66
186.10	2103.26
186.32	2121.70
186.54	2031.58
186.76	2015.20
186.98	2084.83
187.20	1964.00
187.42	1916.90
187.64	1882.08
187.86	1892.32
188.08	1970.15
188.30	1843.17
188.52	1882.08
188.75	2043.87
188.97	2062.30
189.19	1894.37
189.41	1898.47
189.63	1996.77
189.85	1880.04
190.07	1867.75
190.29	1822.69
190.51	2009.06
190.73	1888.23
190.95	1998.82
191.17	1847.27
191.39	1841.12
191.61	1894.37
191.84	1943.52
192.06	1937.38
192.28	1841.12
192.50	2150.37
192.72	1972.19
192.94	1906.66
193.16	1998.82
193.38	1923.04
193.60	1900.52
193.82	2009.06
194.04	2025.44
194.26	2019.30
194.48	1949.67
194.70	1865.70
194.92	1957.86
195.14	1972.19
195.36	1902.56
195.58	1964.00
195.80	1929.19
196.02	1841.12
196.24	1927.14
196.46	1923.04
196.69	1880.04
196.91	2187.23
197.13	1904.61
197.35	1920.99
197.57	2066.40
197.79	2011.11
198.01	1951.71
198.23	1972.19
198.45	2029.54
198.67	1898.47
198.89	1841.12
199.11	1947.62
199.33	1964.00
199.55	1773.54
199.77	1892.32
199.99	2045.92
200.21	1886.18
200.43	2045.92
200.65	1816.55
200.87	1845.22
201.09	1925.09
201.31	1937.38
201.53	2066.40
201.75	1966.05
201.97	1949.67
202.19	1957.86
202.41	1988.58
202.63	2125.79
202.85	1966.05
203.07	1984.48
203.29	1929.19
203.51	1892.32
203.73	1880.04
203.95	2244.57
204.17	1933.28
204.39	2031.58
204.61	1935.33
204.83	1906.66
205.05	1908.71
205.27	1945.57
205.49	2129.89
205.71	1937.38
205.93	1814.50
206.15	1929.19
206.37	2015.20
206.59	1933.28
206.81	1898.47
207.03	1886.18
207.25	1880.04
207.47	2023.39
207.69	1886.18
207.91	2039.78
208.13	2004.96
208.34	1900.52
208.56	1957.86
208.78	2004.96
209.00	1900.52
209.22	1984.48
209.44	1945.57
209.66	2002.91
209.88	1959.91
210.10	1966.05
210.32	1951.71
210.54	2031.58
210.76	1933.28
210.98	1996.77
211.20	1830.88
211.42	1914.85
211.64	2062.30
211.86	1976.29
212.08	1908.71
212.30	1964.00
212.52	2011.11
212.74	1992.67
212.96	1966.05
213.17	1939.43
213.39	1986.53
213.61	2078.69
213.83	1902.56
214.05	2011.11
214.27	2060.26
214.49	1875.94
214.71	1882.08
214.93	2017.25
215.15	1996.77
215.37	2037.73
215.59	1822.69
215.81	2027.49
216.03	2072.54
216.24	1988.58
216.46	1853.41
216.68	1943.52
216.90	1988.58
217.12	2090.98
217.34	1982.43
217.56	1935.33
217.78	2146.27
218.00	2021.35
218.22	1961.95
218.44	1955.81
218.66	1964.00
218.87	2080.74
219.09	1959.91
219.31	2009.06
219.53	1943.52
219.75	1908.71
219.97	1884.13
220.19	1912.80
220.41	1925.09
220.63	2080.74
220.85	2011.11
221.06	1943.52
221.28	2031.58
221.50	1986.53
221.72	1818.60
221.94	1937.38
222.16	1986.53
222.38	2000.87
222.60	2011.11
222.82	1902.56
223.03	2011.11
223.25	1791.97
223.47	1961.95
223.69	2099.17
223.91	1994.72
224.13	1953.76
224.35	1902.56
224.57	2039.78
224.78	1955.81
225.00	1791.97
225.22	1871.84
225.44	1925.09
225.66	1988.58
225.88	2013.15
226.10	1925.09
226.32	1865.70
226.53	2123.74
226.75	1904.61
226.97	1972.19
227.19	2019.30
227.41	1916.90
227.63	1941.47
227.85	1800.16
228.06	1982.43
228.28	2027.49
228.50	2052.06
228.72	1865.70
228.94	1861.60
229.16	1845.22
229.37	1863.65
229.59	1828.84
229.81	2002.91
230.03	1941.47
230.25	1916.90
230.47	1861.60
230.69	1847.27
230.90	2050.02
231.12	1890.28
231.34	1990.63
231.56	1941.47
231.78	1871.84
232.00	1982.43
232.21	1902.56
232.43	1935.33
232.65	1849.32
232.87	1986.53
233.09	1929.19
233.30	1851.36
233.52	1980.39
233.74	1947.62
233.96	1964.00
234.18	1986.53
234.40	1925.09
234.61	2142.18
234.83	1869.80
235.05	1843.17
235.27	2086.88
235.49	2015.20
235.70	1892.32
235.92	2031.58
236.14	2007.01
236.36	2117.60
236.58	1824.74
236.79	1957.86
237.01	1966.05
237.23	1986.53
237.45	2076.64
237.67	1937.38
237.88	1988.58
238.10	2129.89
238.32	1931.23
238.54	1920.99
238.76	1920.99
238.97	1945.57
239.19	1861.60
239.41	2009.06
239.63	2019.30
239.85	1929.19
240.06	2021.35
240.28	1902.56
240.50	1955.81
240.72	2000.87
240.93	2002.91
241.15	1920.99
241.37	1896.42
241.59	2011.11
241.81	1894.37
242.02	1865.70
242.24	1925.09
242.46	2037.73
242.68	1908.71
242.89	1970.15
243.11	2062.30
243.33	1978.34
243.55	1851.36
243.76	1959.91
243.98	1920.99
244.20	1964.00
244.42	1957.86
244.64	1929.19
244.85	1824.74
245.07	1875.94
245.29	1943.52
245.51	1939.43
245.72	1978.34
245.94	2045.92
246.16	1918.95
246.38	2013.15
246.59	1918.95
246.81	1964.00
247.03	1941.47
247.24	1869.80
247.46	1961.95
247.68	2009.06
247.90	1877.99
248.11	1957.86
248.33	1984.48
248.55	1898.47
248.77	1959.91
248.98	2023.39
249.20	2138.08
249.42	1951.71
249.64	1900.52
249.85	1937.38
250.07	1859.56
250.29	2033.63
250.50	1933.28
250.72	1888.23
250.94	1955.81
251.16	2050.02
251.37	1974.24
251.59	1980.39
251.81	2052.06
252.02	2023.39
252.24	1896.42
252.46	2019.30
252.68	1875.94
252.89	1916.90
253.11	1791.97
253.33	2043.87
253.54	2101.22
253.76	1890.28
253.98	1939.43
254.20	1839.08
254.41	1877.99
254.63	1925.09
254.85	1916.90
255.06	1929.19
255.28	1972.19
255.50	1890.28
255.71	1914.85
255.93	1845.22
256.15	1935.33
256.36	1986.53
256.58	1933.28
256.80	2035.68
257.02	1933.28
257.23	1980.39
257.45	1925.09
257.67	1955.81
257.88	1918.95
258.10	1986.53
258.32	1949.67
258.53	1951.71
258.75	2097.12
258.97	1937.38
259.18	1916.90
259.40	1904.61
259.62	2062.30
259.83	2037.73
260.05	1947.62
260.27	2281.44
260.48	2039.78
260.70	1908.71
260.92	1853.41
261.13	1970.15
261.35	1972.19
261.57	1951.71
261.78	1832.93
262.00	1886.18
262.22	2039.78
262.43	1845.22
262.65	1945.57
262.86	1968.10
263.08	2226.14
263.30	1964.00
263.51	1841.12
263.73	1900.52
263.95	2050.02
264.16	1882.08
264.38	1908.71
264.60	2013.15
264.81	1972.19
265.03	1990.63
265.25	2045.92
265.46	1929.19
265.68	2076.64
265.89	1961.95
266.11	1867.75
266.33	1957.86
266.54	1964.00
266.76	1970.15
266.98	1892.32
267.19	2066.40
267.41	2023.39
267.62	2015.20
267.84	1810.40
268.06	2043.87
268.27	1955.81
268.49	2064.35
268.70	2025.44
268.92	1869.80
269.14	1880.04
269.35	1820.64
269.57	2021.35
269.79	2000.87
270.00	1947.62
270.22	2148.32
270.43	1964.00
270.65	1867.75
270.87	2031.58
271.08	2015.20
271.30	1986.53
271.51	1929.19
271.73	1966.05
271.95	2062.30
272.16	1918.95
272.38	1978.34
272.59	1914.85
272.81	2047.97
273.02	1929.19
273.24	1947.62
273.46	2047.97
273.67	1853.41
273.89	1775.59
274.10	1920.99
274.32	2047.97
274.54	2039.78
274.75	2017.25
274.97	1933.28
275.18	2004.96
275.40	2017.25
275.61	1916.90
275.83	2027.49
276.05	1880.04
276.26	1904.61
276.48	1939.43
276.69	1916.90
276.91	1882.08
277.12	2021.35
277.34	2002.91
277.55	1933.28
277.77	1894.37
277.99	1955.81
278.20	1783.78
278.42	1843.17
278.63	1898.47
278.85	1941.47
279.06	1816.55
279.28	1933.28
279.49	2125.79
279.71	1978.34
279.93	2035.68
280.14	1886.18
280.36	1892.32
280.57	1978.34
280.79	1951.71
281.00	1912.80
281.22	1884.13
281.43	1955.81
281.65	1855.46
281.86	1869.80
282.08	2004.96
282.29	2117.60
282.51	1884.13
282.73	1908.71
282.94	1867.75
283.16	2103.26
283.37	2002.91
283.59	1992.67
283.80	2002.91
284.02	2000.87
284.23	1931.23
284.45	1851.36
284.66	1931.23
284.88	1863.65
285.09	1976.29
285.31	2015.20
285.52	1900.52
285.74	1841.12
285.95	2031.58
286.17	1990.63
286.38	2076.64
286.60	1966.05
286.81	1914.85
287.03	1920.99
287.24	2015.20
287.46	2068.45
287.67	1986.53
287.89	2144.22
288.10	1908.71
288.32	2025.44
288.53	2009.06
288.75	2011.11
288.96	2050.02
289.18	1914.85
289.39	1923.04
289.61	2017.25
289.82	2144.22
290.04	2074.59
290.25	1906.66
290.47	1914.85
290.68	1974.24
290.90	1961.95
291.11	1822.69
291.33	2056.16
291.54	1855.46
291.76	1951.71
291.97	1972.19
292.18	2002.91
292.40	1845.22
292.61	1902.56
292.83	2082.78
293.04	1980.39
293.26	1916.90
293.47	1980.39
293.69	1894.37
293.90	1935.33
294.12	1951.71
294.33	1925.09
294.55	1933.28
294.76	2007.01
294.97	2062.30
295.19	2148.32
295.40	1900.52
295.62	2002.91
295.83	2080.74
296.05	1912.80
296.26	2019.30
296.48	1877.99
296.69	1931.23
296.90	1972.19
297.12	2086.88
297.33	1961.95
297.55	1920.99
297.76	1951.71
297.98	2070.50
298.19	1970.15
298.41	1953.76
298.62	1873.89
298.83	2043.87
299.05	2047.97
299.26	1880.04
299.48	1867.75
299.69	1968.10
299.90	1992.67
300.12	1925.09
300.33	1935.33
300.55	2050.02
300.76	2009.06
300.98	1976.29
301.19	2021.35
301.40	1900.52
301.62	1908.71
301.83	1931.23
302.05	1968.10
302.26	1894.37
302.47	1945.57
302.69	1937.38
302.90	1900.52
303.12	1853.41
303.33	1923.04
303.54	2064.35
303.76	1937.38
303.97	1980.39
304.19	2181.09
304.40	1914.85
304.61	2025.44
304.83	2129.89
305.04	2002.91
305.26	2017.25
305.47	1914.85
305.68	1959.91
305.90	1904.61
306.11	2029.54
306.33	1890.28
306.54	1861.60
306.75	1875.94
306.97	1837.03
307.18	1851.36
307.39	1925.09
307.61	2023.39
307.82	1871.84
308.04	1939.43
308.25	1824.74
308.46	1851.36
308.68	1998.82
308.89	1923.04
309.10	1998.82
309.32	1937.38
309.53	1914.85
309.74	2088.93
309.96	1920.99
310.17	2027.49
310.39	1933.28
310.60	1970.15
310.81	1871.84
311.03	1957.86
311.24	2033.63
311.45	1902.56
311.67	2088.93
311.88	2017.25
312.09	1914.85
312.31	1929.19
312.52	1898.47
312.73	1900.52
312.95	1837.03
313.16	1877.99
313.37	2045.92
313.59	1992.67
313.80	2070.50
314.01	2084.83
314.23	1898.47
314.44	1865.70
314.65	1841.12
314.87	1935.33
315.08	1978.34
315.29	1898.47
315.51	1941.47
315.72	1908.71
315.93	2078.69
316.15	2045.92
316.36	1959.91
316.57	1939.43
316.79	2111.46
317.00	2025.44
317.21	1935.33
317.43	1894.37
317.64	2009.06
317.85	1904.61
318.07	1908.71
318.28	1966.05
318.49	2088.93
318.70	2220.00
318.92	2138.08
319.13	2168.80
319.34	2193.37
319.56	2013.15
319.77	2125.79
319.98	2074.59
320.20	2095.07
320.41	2064.35
320.62	2056.16
320.83	1945.57
321.05	2111.46
321.26	1996.77
321.47	1951.71
321.69	1972.19
321.90	1869.80
322.11	1894.37
322.32	2021.35
322.54	2074.59
322.75	1904.61
322.96	2144.22
323.18	1914.85
323.39	1796.07
323.60	1873.89
323.81	2029.54
324.03	1964.00
324.24	1937.38
324.45	1982.43
324.66	1939.43
324.88	1947.62
325.09	2090.98
325.30	1920.99
325.52	1964.00
325.73	1996.77
325.94	1845.22
326.15	1863.65
326.37	1923.04
326.58	1982.43
326.79	2099.17
327.00	1900.52
327.22	1935.33
327.43	1920.99
327.64	1898.47
327.85	2000.87
328.07	2035.68
328.28	2136.03
328.49	1951.71
328.70	1943.52
328.92	1941.47
329.13	1994.72
329.34	2021.35
329.55	2064.35
329.76	2043.87
329.98	1966.05
330.19	2070.50
330.40	2023.39
330.61	1955.81
330.83	1982.43
331.04	1880.04
331.25	2019.30
331.46	1972.19
331.68	1865.70
331.89	2095.07
332.10	1906.66
332.31	1834.98
332.52	1935.33
332.74	2086.88
332.95	1834.98
333.16	1935.33
333.37	2002.91
333.58	1929.19
333.80	1941.47
334.01	1853.41
334.22	1990.63
334.43	1910.75
334.64	1964.00
334.86	1832.93
335.07	1920.99
335.28	2041.82
335.49	1843.17
335.70	2007.01
335.92	2090.98
336.13	2195.42
336.34	2029.54
336.55	2013.15
336.76	1986.53
336.98	1816.55
337.19	1941.47
337.40	2043.87
337.61	2078.69
337.82	1964.00
338.04	2056.16
338.25	1769.44
338.46	1898.47
338.67	1920.99
338.88	1882.08
339.09	1918.95
339.31	1910.75
339.52	1841.12
339.73	1902.56
339.94	1945.57
340.15	2037.73
340.36	1984.48
340.58	2023.39
340.79	1904.61
341.00	2002.91
341.21	1855.46
341.42	2074.59
341.63	1964.00
341.85	1982.43
342.06	1986.53
342.27	1916.90
342.48	2029.54
342.69	1857.51
342.90	1988.58
343.12	2074.59
343.33	1775.59
343.54	2000.87
343.75	1961.95
343.96	1986.53
344.17	1920.99
344.38	1959.91
344.60	1925.09
344.81	1886.18
345.02	1894.37
345.23	2039.78
345.44	2097.12
345.65	2068.45
345.86	1988.58
346.07	1945.57
346.29	1906.66
346.50	1990.63
346.71	2029.54
346.92	2056.16
347.13	2123.74
347.34	1920.99
347.55	1976.29
347.76	1959.91
347.98	1808.36
348.19	1951.71
348.40	2047.97
348.61	1925.09
348.82	2021.35
349.03	2004.96
349.24	1886.18
349.45	2183.13
349.66	1779.68
349.88	1949.67
350.09	1941.47
350.30	2015.20
350.51	2074.59
350.72	2025.44
350.93	1902.56
351.14	1906.66
351.35	1986.53
351.56	1953.76
351.77	1974.24
351.99	1998.82
352.20	2045.92
352.41	2068.45
352.62	1734.63
352.83	1927.14
353.04	1906.66
353.25	1914.85
353.46	2025.44
353.67	2007.01
353.88	1896.42
354.09	1970.15
354.30	1920.99
354.52	1927.14
354.73	1990.63
354.94	1906.66
355.15	1947.62
355.36	2146.27
355.57	1961.95
355.78	1943.52
355.99	1849.32
356.20	1982.43
356.41	2084.83
356.62	1988.58
356.83	1992.67
357.04	2050.02
357.25	1857.51
357.46	1886.18
357.68	1857.51
357.89	1894.37
358.10	1906.66
358.31	1890.28
358.52	1943.52
358.73	1834.98
358.94	1828.84
359.15	1900.52
359.36	2002.91
359.57	1988.58
359.78	1941.47
359.99	1955.81
360.20	1920.99
360.41	1974.24
360.62	1996.77
360.83	1980.39
361.04	1974.24
361.25	1982.43
361.46	2050.02
361.67	1943.52
361.88	1976.29
362.09	2009.06
362.30	2019.30
362.51	1908.71
362.72	1988.58
362.93	2043.87
363.14	2027.49
363.35	1984.48
363.56	1847.27
363.78	2056.16
363.99	2031.58
364.20	1931.23
364.41	1961.95
364.62	2101.22
364.83	1953.76
365.04	1955.81
365.25	2002.91
365.46	2154.46
365.67	1863.65
365.88	1980.39
366.09	1955.81
366.30	1904.61
366.51	1927.14
366.72	1927.14
366.93	1929.19
367.14	1992.67
367.35	2052.06
367.56	1984.48
367.77	2093.02
367.98	1976.29
368.18	2017.25
368.39	2090.98
368.60	1810.40
368.81	2062.30
369.02	1912.80
369.23	1957.86
369.44	1830.88
369.65	1998.82
369.86	1988.58
370.07	2023.39
370.28	1931.23
370.49	1984.48
370.70	2060.26
370.91	1849.32
371.12	1939.43
371.33	2047.97
371.54	1916.90
371.75	2088.93
371.96	1863.65
372.17	2093.02
372.38	1882.08
372.59	2056.16
372.80	1929.19
373.01	1978.34
373.22	2035.68
373.43	1986.53
373.64	1857.51
373.85	2027.49
374.06	2033.63
374.26	2000.87
374.47	2000.87
374.68	2062.30
374.89	1978.34
375.10	1984.48
375.31	2023.39
375.52	1947.62
375.73	1929.19
375.94	1908.71
376.15	2041.82
376.36	1980.39
376.57	1902.56
376.78	1935.33
376.99	2007.01
377.20	2025.44
377.40	1933.28
377.61	2004.96
377.82	1964.00
378.03	2150.37
378.24	2031.58
378.45	1974.24
378.66	2039.78
378.87	1877.99
379.08	1839.08
379.29	1908.71
379.50	2017.25
379.71	1964.00
379.91	1943.52
380.12	1857.51
380.33	1937.38
380.54	2033.63
380.75	1931.23
380.96	1949.67
381.17	2033.63
381.38	1966.05
381.59	1959.91
381.80	1990.63
382.00	2150.37
382.21	2045.92
382.42	2191.33
382.63	2203.61
382.84	2052.06
383.05	2021.35
383.26	2176.99
383.47	1955.81
383.68	2027.49
383.88	2050.02
384.09	2011.11
384.30	2099.17
384.51	2047.97
384.72	1974.24
384.93	1871.84
385.14	1910.75
385.35	2064.35
385.55	1845.22
385.76	2113.50
385.97	1970.15
386.18	1865.70
386.39	1916.90
386.60	1986.53
386.81	1968.10
387.02	1974.24
387.22	1906.66
387.43	2078.69
387.64	2007.01
387.85	2150.37
388.06	2162.66
388.27	3923.91
388.48	8505.21
388.68	11892.55
388.89	14186.28
389.10	15437.59
389.31	14112.55
389.52	10860.38
389.73	9580.40
389.93	8734.59
390.14	7782.28
390.35	7194.51
390.56	6354.85
390.77	5328.81
390.98	4159.42
391.18	3104.72
391.39	2600.92
391.60	2158.56
391.81	2113.50
392.02	1955.81
392.23	2146.27
392.43	2013.15
392.64	2029.54
392.85	1964.00
393.06	2107.36
393.27	1998.82
393.47	1953.76
393.68	1972.19
393.89	1882.08
394.10	2033.63
394.31	1908.71
394.52	1931.23
394.72	1931.23
394.93	2037.73
395.14	1964.00
395.35	1984.48
395.56	1826.79
395.76	2050.02
395.97	2052.06
396.18	2148.32
396.39	2158.56
396.60	2355.16
396.80	2244.57
397.01	2176.99
397.22	2107.36
397.43	2140.13
397.64	2066.40
397.84	2113.50
398.05	2181.09
398.26	1986.53
398.47	1990.63
398.67	2068.45
398.88	2074.59
399.09	1931.23
399.30	2002.91
399.51	1964.00
399.71	1877.99
399.92	1988.58
400.13	1996.77
400.34	1886.18
400.54	1904.61
400.75	2054.11
400.96	2029.54
401.17	2058.21
401.37	1941.47
401.58	1953.76
401.79	1964.00
402.00	2101.22
402.21	2424.80
402.41	2371.55
402.62	2312.16
402.83	2381.79
403.04	2416.60
403.24	2557.91
403.45	2131.94
403.66	2170.85
403.87	2187.23
404.07	2242.53
404.28	2240.48
404.49	2174.94
404.70	2064.35
404.90	2066.40
405.11	1982.43
405.32	2041.82
405.52	1839.08
405.73	1908.71
405.94	1953.76
406.15	1910.75
406.35	2027.49
406.56	2029.54
406.77	1990.63
406.98	1998.82
407.18	1863.65
407.39	2004.96
407.60	1931.23
407.80	2088.93
408.01	1943.52
408.22	2004.96
408.43	1920.99
408.63	1984.48
408.84	2056.16
409.05	1959.91
409.25	1804.26
409.46	1896.42
409.67	1939.43
409.88	1943.52
410.08	2025.44
410.29	1896.42
410.50	2002.91
410.70	2037.73
410.91	1902.56
411.12	2056.16
411.32	1945.57
411.53	1906.66
411.74	2107.36
411.95	2156.51
412.15	2105.31
412.36	2123.74
412.57	2013.15
412.77	2097.12
412.98	2025.44
413.19	2017.25
413.39	2000.87
413.60	2013.15
413.81	2058.21
414.01	1882.08
414.22	1974.24
414.43	2021.35
414.63	2000.87
414.84	2043.87
415.05	1996.77
415.25	1925.09
415.46	2062.30
415.67	1998.82
415.87	1966.05
416.08	1974.24
416.29	1970.15
416.49	2023.39
416.70	1880.04
416.91	1898.47
417.11	1857.51
417.32	1984.48
417.53	2050.02
417.73	1943.52
417.94	1859.56
418.15	1945.57
418.35	1941.47
418.56	1976.29
418.77	2146.27
418.97	1920.99
419.18	1968.10
419.38	1791.97
419.59	1943.52
419.80	2078.69
420.00	1902.56
420.21	1920.99
420.42	1996.77
420.62	1966.05
420.83	1886.18
421.04	1955.81
421.24	1849.32
421.45	2062.30
421.65	1974.24
421.86	1935.33
422.07	1992.67
422.27	1990.63
422.48	1933.28
422.69	1902.56
422.89	1951.71
423.10	1978.34
423.30	1873.89
423.51	2002.91
423.72	2062.30
423.92	1943.52
424.13	1843.17
424.33	1941.47
424.54	2035.68
424.75	1961.95
424.95	2115.55
425.16	2031.58
425.36	1931.23
425.57	2019.30
425.78	2095.07
425.98	1996.77
426.19	1925.09
426.39	1892.32
426.60	1945.57
426.81	2082.78
427.01	2004.96
427.22	1830.88
427.42	1869.80
427.63	1861.60
427.83	2060.26
428.04	2121.70
428.25	2111.46
428.45	1994.72
428.66	2027.49
428.86	1951.71
429.07	1945.57
429.28	2015.20
429.48	1980.39
429.69	1892.32
429.89	2037.73
430.10	1822.69
430.30	1986.53
430.51	1998.82
430.71	1863.65
430.92	1994.72
431.13	1953.76
431.33	1990.63
431.54	1964.00
431.74	2078.69
431.95	2181.09
432.15	1830.88
432.36	2054.11
432.56	1939.43
432.77	2136.03
432.98	2082.78
433.18	2011.11
433.39	1898.47
433.59	1896.42
433.80	2113.50
434.00	2070.50
434.21	1961.95
434.41	1949.67
434.62	2123.74
434.82	1865.70
435.03	1916.90
435.23	2002.91
435.44	1834.98
435.64	1886.18
435.85	1990.63
436.06	1972.19
436.26	1941.47
436.47	1923.04
436.67	1925.09
436.88	1966.05
437.08	2097.12
437.29	2033.63
437.49	2002.91
437.70	2013.15
437.90	1978.34
438.11	2113.50
438.31	2064.35
438.52	2170.85
438.72	2154.46
438.93	2207.71
439.13	2002.91
439.34	2191.33
439.54	1974.24
439.75	2078.69
439.95	1935.33
440.16	1961.95
440.36	2027.49
440.57	1941.47
440.77	2017.25
440.98	2002.91
441.18	2033.63
441.39	1949.67
441.59	1947.62
441.80	2140.13
442.00	1990.63
442.21	2078.69
442.41	1841.12
442.62	2043.87
442.82	1884.13
443.02	1920.99
443.23	2052.06
443.43	1970.15
443.64	2041.82
443.84	1951.71
444.05	2062.30
444.25	2052.06
444.46	1986.53
444.66	1970.15
444.87	2027.49
445.07	1931.23
445.28	1994.72
445.48	2050.02
445.69	2050.02
445.89	2176.99
446.09	1957.86
446.30	2275.29
446.50	2668.50
446.71	4339.65
446.91	5320.62
447.12	6270.88
447.32	6530.97
447.53	5910.44
447.73	5001.14
447.93	4360.13
448.14	3962.82
448.34	3864.52
448.55	3393.48
448.75	3350.48
448.96	3231.69
449.16	2897.88
449.36	2740.18
449.57	2369.50
449.77	2140.13
449.98	2070.50
450.18	2025.44
450.39	2140.13
450.59	2013.15
450.79	2021.35
451.00	1982.43
451.20	2093.02
451.41	1882.08
451.61	1951.71
451.81	2013.15
452.02	1955.81
452.22	1947.62
452.43	1964.00
452.63	1847.27
452.84	2021.35
453.04	1861.60
453.24	2017.25
453.45	1892.32
453.65	1976.29
453.86	1990.63
454.06	2029.54
454.26	2025.44
454.47	1943.52
454.67	2054.11
454.87	1945.57
455.08	2056.16
455.28	2082.78
455.49	2017.25
455.69	1947.62
455.89	2129.89
456.10	2058.21
456.30	1998.82
456.51	2054.11
456.71	1961.95
456.91	1953.76
457.12	2007.01
457.32	1994.72
457.52	1935.33
457.73	1964.00
457.93	2000.87
458.14	1966.05
458.34	1857.51
458.54	1908.71
458.75	1964.00
458.95	2025.44
459.15	1941.47
459.36	2029.54
459.56	2103.26
459.76	2146.27
459.97	2099.17
460.17	1943.52
460.37	2045.92
460.58	1976.29
460.78	1982.43
460.99	1918.95
461.19	1912.80
461.39	1966.05
461.60	1925.09
461.80	2052.06
462.00	1925.09
462.21	1939.43
462.41	1906.66
462.61	1916.90
462.82	1908.71
463.02	2023.39
463.22	1976.29
463.43	2064.35
463.63	1976.29
463.83	2029.54
464.04	2037.73
464.24	2029.54
464.44	1947.62
464.64	1988.58
464.85	2007.01
465.05	2004.96
465.25	1927.14
465.46	1949.67
465.66	2029.54
465.86	2037.73
466.07	1982.43
466.27	1961.95
466.47	1781.73
466.68	1925.09
466.88	2093.02
467.08	2064.35
467.29	2017.25
467.49	2035.68
467.69	2007.01
467.89	2070.50
468.10	1959.91
468.30	2027.49
468.50	2064.35
468.71	2015.20
468.91	1951.71
469.11	2099.17
469.31	1968.10
469.52	1880.04
469.72	2066.40
469.92	2138.08
470.13	1996.77
470.33	2017.25
470.53	2050.02
470.73	2441.18
470.94	2807.77
471.14	2895.83
471.34	3350.48
471.54	3268.56
471.75	2828.24
471.95	2557.91
472.15	2623.45
472.36	2443.23
472.56	2516.95
472.76	2400.22
472.96	2375.64
473.17	2310.11
473.37	2215.90
473.57	2158.56
473.77	2072.54
473.98	2043.87
474.18	1992.67
474.38	2156.51
474.58	1943.52
474.79	1892.32
474.99	2027.49
475.19	2023.39
475.39	1910.75
475.60	2029.54
475.80	1886.18
476.00	1974.24
476.20	1923.04
476.41	2025.44
476.61	2097.12
476.81	2050.02
477.01	1929.19
477.21	2195.42
477.42	2117.60
477.62	1861.60
477.82	2060.26
478.02	1910.75
478.23	1959.91
478.43	1916.90
478.63	1925.09
478.83	1939.43
479.03	2029.54
479.24	2152.42
479.44	2093.02
479.64	1855.46
479.84	1820.64
480.04	1968.10
480.25	2000.87
480.45	1939.43
480.65	1939.43
480.85	1953.76
481.06	1980.39
481.26	2031.58
481.46	2029.54
481.66	1968.10
481.86	1933.28
482.06	2080.74
482.27	1964.00
482.47	1980.39
482.67	2101.22
482.87	1957.86
483.07	2035.68
483.28	1900.52
483.48	1953.76
483.68	1968.10
483.88	1914.85
484.08	1849.32
484.29	1955.81
484.49	2004.96
484.69	1880.04
484.89	2131.94
485.09	2011.11
485.29	2023.39
485.50	1953.76
485.70	1998.82
485.90	2025.44
486.10	1998.82
486.30	2066.40
486.50	1996.77
486.71	2009.06
486.91	2066.40
487.11	2099.17
487.31	1906.66
487.51	1990.63
487.71	1898.47
487.91	1875.94
488.12	1890.28
488.32	1841.12
488.52	2004.96
488.72	1834.98
488.92	1939.43
489.12	2084.83
489.32	2060.26
489.53	1988.58
489.73	1794.02
489.93	2093.02
490.13	1923.04
490.33	1871.84
490.53	2021.35
490.73	2076.64
490.94	1884.13
491.14	2052.06
491.34	2109.41
491.54	2281.44
491.74	2940.88
491.94	3524.55
492.14	3719.11
492.34	3928.00
492.54	3598.28
492.75	3104.72
492.95	3020.75
493.15	2721.75
493.35	2588.63
493.55	2557.91
493.75	2578.39
493.95	2398.17
494.15	2322.40
494.35	2181.09
494.56	2070.50
494.76	2070.50
494.96	2035.68
495.16	2039.78
495.36	1916.90
495.56	2029.54
495.76	1980.39
495.96	1929.19
496.16	1927.14
496.36	2166.75
496.56	1853.41
496.77	1992.67
496.97	2019.30
497.17	2011.11
497.37	1976.29
497.57	2025.44
497.77	1990.63
497.97	1951.71
498.17	1980.39
498.37	1910.75
498.57	2033.63
498.77	1892.32
498.97	1961.95
499.17	2129.89
499.38	1982.43
499.58	1980.39
499.78	2105.31
499.98	2099.17
500.18	1961.95
500.38	1998.82
500.58	2136.03
500.78	2545.63
500.98	4757.43
501.18	7022.48
501.38	8673.15
501.58	9783.15
501.78	9473.90
501.98	7542.67
502.18	6123.43
502.38	5420.97
502.58	4880.31
502.78	4536.25
502.98	4184.00
503.18	3928.00
503.38	3807.17
503.59	3205.07
503.79	3172.30
503.99	2691.03
504.19	2639.83
504.39	2541.53
504.59	2672.60
504.79	2662.36
504.99	2559.96
505.19	2353.12
505.39	2265.05
505.59	2324.44
505.79	2164.70
505.99	2197.47
506.19	2035.68
506.39	2285.53
506.59	1990.63
506.79	2000.87
506.99	2080.74
507.19	2095.07
507.39	1972.19
507.59	1966.05
507.79	1914.85
507.99	1894.37
508.19	1998.82
508.39	2011.11
508.59	2021.35
508.79	2062.30
508.99	2156.51
509.19	1957.86
509.39	2090.98
509.59	1849.32
509.79	1892.32
509.99	1984.48
510.19	1974.24
510.39	2088.93
510.59	1992.67
510.79	1902.56
510.99	1910.75
511.19	2009.06
511.39	2115.55
511.59	2031.58
511.79	2125.79
511.99	1959.91
512.19	2140.13
512.38	2004.96
512.58	1916.90
512.78	1900.52
512.98	2074.59
513.18	2068.45
513.38	1880.04
513.58	2037.73
513.78	1937.38
513.98	2000.87
514.18	1964.00
514.38	1990.63
514.58	2035.68
514.78	1880.04
514.98	1955.81
515.18	1968.10
515.38	1796.07
515.58	2170.85
515.78	1941.47
515.98	2013.15
516.18	1990.63
516.38	1984.48
516.57	1961.95
516.77	1853.41
516.97	1947.62
517.17	1986.53
517.37	1796.07
517.57	2004.96
517.77	1923.04
517.97	1964.00
518.17	2011.11
518.37	1923.04
518.57	1957.86
518.77	1953.76
518.97	1959.91
519.16	1978.34
519.36	2080.74
519.56	1935.33
519.76	2007.01
519.96	2047.97
520.16	2084.83
520.36	1902.56
520.56	2064.35
520.76	2043.87
520.96	1951.71
521.16	2023.39
521.35	2090.98
521.55	2107.36
521.75	1939.43
521.95	1896.42
522.15	1941.47
522.35	1884.13
522.55	1916.90
522.75	2056.16
522.95	1955.81
523.14	1873.89
523.34	1898.47
523.54	1927.14
523.74	2058.21
523.94	1974.24
524.14	1863.65
524.34	2025.44
524.54	2070.50
524.73	1947.62
524.93	2031.58
525.13	1955.81
525.33	1845.22
525.53	2195.42
525.73	2043.87
525.93	1945.57
526.13	1945.57
526.32	1943.52
526.52	2054.11
526.72	2052.06
526.92	1937.38
527.12	1880.04
527.32	1877.99
527.52	1972.19
527.71	1966.05
527.91	1988.58
528.11	1925.09
528.31	1945.57
528.51	1955.81
528.71	2004.96
528.90	2035.68
529.10	2023.39
529.30	2119.65
529.50	1812.45
529.70	1943.52
529.90	1980.39
530.09	1972.19
530.29	1884.13
530.49	1886.18
530.69	2205.66
530.89	2027.49
531.09	2009.06
531.28	1964.00
531.48	2047.97
531.68	1902.56
531.88	2019.30
532.08	2007.01
532.28	2000.87
532.47	2009.06
532.67	2080.74
532.87	2037.73
533.07	1951.71
533.27	2056.16
533.46	2039.78
533.66	2009.06
533.86	2041.82
534.06	2058.21
534.26	2011.11
534.45	1894.37
534.65	2017.25
534.85	2025.44
535.05	1931.23
535.25	2062.30
535.44	1886.18
535.64	2021.35
535.84	1855.46
536.04	1908.71
536.24	2013.15
536.43	1886.18
536.63	2015.20
536.83	1949.67
537.03	2019.30
537.22	1900.52
537.42	1794.02
537.62	2037.73
537.82	1914.85
538.02	2068.45
538.21	2050.02
538.41	2224.09
538.61	2025.44
538.81	1943.52
539.00	2068.45
539.20	1830.88
539.40	1949.67
539.60	1964.00
539.79	2050.02
539.99	1961.95
540.19	1888.23
540.39	1978.34
540.58	1998.82
540.78	2086.88
540.98	2019.30
541.18	2090.98
541.37	1966.05
541.57	1941.47
541.77	1992.67
541.97	1939.43
542.16	1849.32
542.36	1945.57
542.56	1941.47
542.76	2140.13
542.95	2060.26
543.15	2041.82
543.35	2101.22
543.54	1953.76
543.74	1943.52
543.94	2109.41
544.14	1896.42
544.33	2043.87
544.53	1961.95
544.73	2035.68
544.93	1886.18
545.12	1886.18
545.32	1955.81
545.52	2007.01
545.71	1808.36
545.91	1912.80
546.11	1929.19
546.30	1826.79
546.50	1943.52
546.70	2054.11
546.90	2023.39
547.09	1900.52
547.29	2000.87
547.49	2080.74
547.68	1941.47
547.88	2002.91
548.08	1984.48
548.27	2510.81
548.47	1824.74
548.67	1957.86
548.87	2019.30
549.06	1939.43
549.26	1994.72
549.46	2076.64
549.65	1929.19
549.85	1968.10
550.05	2047.97
550.24	1910.75
550.44	1935.33
550.64	2039.78
550.83	1935.33
551.03	2033.63
551.23	2133.98
551.42	1986.53
551.62	1961.95
551.82	1966.05
552.01	1951.71
552.21	2027.49
552.41	1955.81
552.60	2090.98
552.80	1984.48
553.00	1925.09
553.19	1957.86
553.39	2187.23
553.59	1964.00
553.78	1933.28
553.98	1970.15
554.17	1914.85
554.37	2047.97
554.57	1970.15
554.76	1843.17
554.96	1925.09
555.16	2054.11
555.35	1935.33
555.55	1939.43
555.75	2004.96
555.94	2099.17
556.14	1882.08
556.33	2041.82
556.53	1990.63
556.73	1978.34
556.92	1992.67
557.12	2099.17
557.32	2121.70
557.51	2058.21
557.71	2002.91
557.90	2074.59
558.10	2111.46
558.30	1935.33
558.49	1961.95
558.69	1920.99
558.88	2043.87
559.08	1953.76
559.28	1955.81
559.47	1986.53
559.67	2043.87
559.86	2185.18
560.06	1923.04
560.26	1984.48
560.45	2076.64
560.65	2023.39
560.84	2031.58
561.04	1910.75
561.24	2013.15
561.43	1882.08
561.63	2068.45
561.82	2019.30
562.02	2062.30
562.22	1912.80
562.41	1818.60
562.61	1996.77
562.80	1951.71
563.00	2099.17
563.19	2015.20
563.39	2056.16
563.59	1988.58
563.78	1935.33
563.98	1781.73
564.17	1925.09
564.37	1814.50
564.56	2002.91
564.76	1892.32
564.96	2029.54
565.15	1990.63
565.35	2179.04
565.54	1955.81
565.74	2041.82
565.93	2004.96
566.13	1953.76
566.32	2035.68
566.52	1982.43
566.71	1935.33
566.91	2043.87
567.11	1964.00
567.30	1875.94
567.50	1951.71
567.69	2027.49
567.89	2029.54
568.08	1931.23
568.28	2029.54
568.47	1912.80
568.67	1951.71
568.86	1959.91
569.06	2136.03
569.25	1935.33
569.45	1933.28
569.64	1925.09
569.84	1976.29
570.04	2023.39
570.23	1984.48
570.43	2004.96
570.62	2035.68
570.82	2131.94
571.01	1845.22
571.21	1988.58
571.40	1916.90
571.60	2033.63
571.79	2035.68
571.99	1984.48
572.18	1972.19
572.38	2070.50
572.57	1990.63
572.77	2033.63
572.96	2230.24
573.16	2037.73
573.35	1970.15
573.55	2072.54
573.74	2121.70
573.94	1992.67
574.13	1902.56
574.33	2060.26
574.52	2148.32
574.71	1990.63
574.91	2107.36
575.10	1931.23
575.30	1937.38
575.49	1941.47
575.69	1974.24
575.88	2031.58
576.08	2031.58
576.27	2140.13
576.47	2056.16
576.66	2111.46
576.86	2090.98
577.05	1986.53
577.25	2121.70
577.44	2222.05
577.64	1951.71
577.83	2031.58
578.02	2011.11
578.22	2105.31
578.41	2140.13
578.61	1994.72
578.80	1929.19
579.00	1941.47
579.19	1986.53
579.39	1966.05
579.58	2138.08
579.77	2050.02
579.97	2084.83
580.16	2121.70
580.36	2033.63
580.55	2160.61
580.75	1988.58
580.94	1939.43
581.13	2117.60
581.33	2117.60
581.52	2043.87
581.72	2224.09
581.91	2193.37
582.11	1996.77
582.30	2144.22
582.49	2047.97
582.69	2082.78
582.88	2027.49
583.08	1986.53
583.27	2138.08
583.47	2029.54
583.66	1992.67
583.85	2031.58
584.05	2015.20
584.24	2119.65
584.44	2078.69
584.63	2068.45
584.82	2103.26
585.02	2119.65
585.21	2160.61
585.41	2254.81
585.60	2146.27
585.79	2340.83
585.99	2256.86
586.18	2213.85
586.37	2666.46
586.57	3993.54
586.76	12101.45
586.96	30643.76
587.15	45061.46
587.34	54576.32
587.54	60576.87
587.73	57293.97
587.93	40326.55
588.12	30103.09
588.31	24350.35
588.51	21223.10
588.70	19144.41
588.89	17573.62
589.09	15376.15
589.28	13322.04
589.47	10999.64
589.67	8845.18
589.86	6551.45
590.06	4984.76
590.25	3805.13
590.44	3055.57
590.64	2740.18
590.83	2381.79
591.02	2324.44
591.22	2131.94
591.41	2179.04
591.60	2138.08
591.80	2207.71
591.99	2013.15
592.18	2013.15
592.38	2074.59
592.57	2002.91
592.76	2011.11
592.96	1945.57
593.15	2076.64
593.34	2119.65
593.54	2013.15
593.73	2121.70
593.92	2095.07
594.12	2070.50
594.31	2111.46
594.50	2191.33
594.70	2054.11
594.89	2199.52
595.08	1925.09
595.28	2176.99
595.47	2254.81
595.66	2084.83
595.86	1904.61
596.05	1976.29
596.24	2021.35
596.43	2084.83
596.63	2156.51
596.82	2029.54
597.01	2076.64
597.21	2164.70
597.40	2021.35
597.59	2047.97
597.79	1988.58
597.98	2062.30
598.17	2086.88
598.36	2058.21
598.56	2101.22
598.75	2011.11
598.94	1982.43
599.14	1980.39
599.33	1990.63
599.52	2052.06
599.71	2013.15
599.91	2000.87
600.10	2068.45
600.29	1910.75
600.48	2058.21
600.68	1972.19
600.87	2009.06
601.06	1961.95
601.26	1998.82
601.45	2043.87
601.64	1980.39
601.83	2111.46
602.03	1925.09
602.22	1929.19
602.41	2125.79
602.60	2224.09
602.80	2019.30
602.99	2047.97
603.18	1910.75
603.37	1945.57
603.57	2037.73
603.76	2078.69
603.95	2031.58
604.14	1992.67
604.34	1902.56
604.53	2004.96
604.72	2043.87
604.91	2019.30
605.10	2050.02
605.30	1990.63
605.49	2146.27
605.68	2047.97
605.87	2064.35
606.07	1884.13
606.26	1986.53
606.45	2050.02
606.64	1972.19
606.84	1949.67
607.03	2021.35
607.22	2043.87
607.41	2031.58
607.60	2121.70
607.80	2136.03
607.99	1992.67
608.18	1982.43
608.37	1929.19
608.56	1959.91
608.76	2158.56
608.95	2181.09
609.14	2041.82
609.33	2076.64
609.52	2174.94
609.72	2035.68
609.91	2068.45
610.10	2146.27
610.29	2125.79
610.48	2017.25
610.68	2007.01
610.87	2045.92
611.06	1961.95
611.25	2041.82
611.44	2136.03
611.63	1941.47
611.83	2078.69
612.02	1832.93
612.21	2002.91
612.40	1851.36
612.59	1865.70
612.79	1837.03
612.98	2013.15
613.17	2090.98
613.36	2015.20
613.55	2201.57
613.74	2109.41
613.93	2156.51
614.13	2215.90
614.32	2176.99
614.51	2256.86
614.70	1986.53
614.89	2082.78
615.08	2050.02
615.28	2490.33
615.47	1920.99
615.66	2088.93
615.85	2054.11
616.04	2189.28
616.23	2086.88
616.42	2027.49
616.62	2115.55
616.81	2064.35
617.00	2002.91
617.19	2084.83
617.38	2043.87
617.57	2004.96
617.76	2068.45
617.95	2060.26
618.15	2064.35
618.34	2125.79
618.53	1943.52
618.72	2037.73
618.91	2095.07
619.10	2078.69
619.29	1947.62
619.48	2037.73
619.68	1968.10
619.87	1998.82
620.06	1939.43
620.25	2013.15
620.44	1931.23
620.63	1966.05
620.82	1923.04
621.01	2004.96
621.20	2009.06
621.39	2101.22
621.59	2029.54
621.78	1955.81
621.97	2058.21
622.16	2090.98
622.35	1914.85
622.54	2097.12
622.73	2109.41
622.92	1910.75
623.11	2043.87
623.30	1986.53
623.49	2031.58
623.68	1923.04
623.88	2090.98
624.07	1857.51
624.26	1894.37
624.45	2009.06
624.64	1923.04
624.83	1980.39
625.02	1972.19
625.21	2013.15
625.40	1978.34
625.59	2009.06
625.78	1908.71
625.97	2086.88
626.16	2123.74
626.35	2144.22
626.54	2086.88
626.74	2183.13
626.93	2013.15
627.12	2029.54
627.31	2086.88
627.50	2045.92
627.69	2017.25
627.88	1931.23
628.07	1947.62
628.26	1869.80
628.45	1943.52
628.64	2004.96
628.83	2013.15
629.02	1863.65
629.21	1974.24
629.40	1966.05
629.59	1986.53
629.78	1941.47
629.97	2017.25
630.16	2007.01
630.35	2056.16
630.54	2043.87
630.73	1882.08
630.92	1951.71
631.11	1832.93
631.30	1998.82
631.49	1972.19
631.68	2015.20
631.87	1918.95
632.06	1912.80
632.25	2121.70
632.44	2033.63
632.63	2097.12
632.82	2023.39
633.01	1961.95
633.20	2054.11
633.39	2062.30
633.58	1988.58
633.77	2033.63
633.96	2111.46
634.15	2136.03
634.34	2023.39
634.53	1966.05
634.72	2004.96
634.91	1845.22
635.10	2068.45
635.29	2088.93
635.48	1964.00
635.67	1937.38
635.86	1875.94
636.05	2015.20
636.24	1902.56
636.43	1957.86
636.62	2056.16
636.81	1853.41
637.00	1978.34
637.19	1996.77
637.38	2000.87
637.57	1931.23
637.76	2076.64
637.95	2101.22
638.14	2045.92
638.33	2129.89
638.52	2080.74
638.71	1970.15
638.89	1931.23
639.08	2189.28
639.27	2082.78
639.46	2181.09
639.65	2498.52
639.84	2613.21
640.03	2783.19
640.22	2568.15
640.41	2715.61
640.60	2275.29
640.79	2328.54
640.98	2222.05
641.17	2267.10
641.36	2179.04
641.55	2195.42
641.74	1988.58
641.92	2080.74
642.11	1945.57
642.30	2011.11
642.49	1951.71
642.68	1974.24
642.87	1925.09
643.06	2041.82
643.25	1875.94
643.44	1904.61
643.63	1894.37
643.82	2027.49
644.00	1916.90
644.19	1966.05
644.38	1896.42
644.57	1978.34
644.76	2056.16
644.95	1992.67
645.14	2007.01
645.33	1943.52
645.52	1976.29
645.71	1871.84
645.89	1976.29
646.08	1943.52
646.27	1978.34
646.46	2078.69
646.65	1867.75
646.84	1941.47
647.03	1896.42
647.22	2076.64
647.40	1982.43
647.59	1943.52
647.78	1810.40
647.97	1933.28
648.16	1918.95
648.35	1988.58
648.54	2033.63
648.73	1894.37
648.91	2045.92
649.10	1955.81
649.29	1914.85
649.48	1959.91
649.67	1976.29
649.86	2047.97
650.05	2023.39
650.23	2185.18
650.42	2058.21
650.61	2181.09
650.80	2176.99
650.99	2240.48
651.18	2187.23
651.36	2185.18
651.55	2062.30
651.74	2095.07
651.93	1892.32
652.12	1957.86
652.31	2050.02
652.49	1949.67
652.68	1984.48
652.87	2002.91
653.06	2045.92
653.25	2138.08
653.44	2007.01
653.62	2166.75
653.81	1890.28
654.00	1945.57
654.19	1972.19
654.38	2152.42
654.56	2015.20
654.75	1970.15
654.94	2043.87
655.13	1990.63
655.32	1982.43
655.51	1998.82
655.69	1982.43
655.88	2002.91
656.07	1855.46
656.26	2041.82
656.45	1847.27
656.63	1949.67
656.82	2015.20
657.01	1943.52
657.20	1904.61
657.38	2009.06
657.57	1972.19
657.76	1822.69
657.95	2029.54
658.14	1908.71
658.32	2039.78
658.51	1900.52
658.70	1976.29
658.89	1953.76
659.08	1996.77
659.26	2066.40
659.45	1947.62
659.64	2101.22
659.83	1937.38
660.01	2306.01
660.20	2025.44
660.39	2176.99
660.58	1738.73
660.76	2027.49
660.95	1888.23
661.14	1949.67
661.33	1900.52
661.51	1959.91
661.70	1980.39
661.89	2054.11
662.08	1949.67
662.26	1904.61
662.45	1959.91
662.64	2084.83
662.83	2064.35
663.01	1843.17
663.20	1890.28
663.39	2045.92
663.58	1847.27
663.76	1978.34
663.95	2074.59
664.14	1961.95
664.32	1970.15
664.51	1902.56
664.70	1849.32
664.89	1961.95
665.07	1873.89
665.26	2041.82
665.45	1865.70
665.64	2009.06
665.82	1888.23
666.01	2017.25
666.20	1939.43
666.38	2086.88
666.57	2107.36
666.76	2863.06
666.95	6703.00
667.13	14997.28
667.32	20932.29
667.51	24850.05
667.69	27043.43
667.88	25814.65
668.07	18601.70
668.25	14618.40
668.44	11777.87
668.63	10047.33
668.81	8886.14
669.00	7874.44
669.19	6999.96
669.38	6072.23
669.56	5377.97
669.75	4343.74
669.94	3700.68
670.12	3067.86
670.31	2648.02
670.50	2383.84
670.68	2236.38
670.87	2162.66
671.06	2084.83
671.24	2146.27
671.43	2160.61
671.62	2105.31
671.80	2000.87
671.99	2095.07
672.18	2054.11
672.36	2090.98
672.55	2002.91
672.74	1982.43
672.92	1941.47
673.11	2007.01
673.29	1896.42
673.48	2060.26
673.67	1982.43
673.85	2066.40
674.04	1953.76
674.23	1923.04
674.41	2138.08
674.60	1888.23
674.79	1849.32
674.97	1867.75
675.16	2047.97
675.34	2007.01
675.53	1929.19
675.72	1937.38
675.90	2138.08
676.09	1914.85
676.28	1968.10
676.46	1857.51
676.65	2019.30
676.83	1869.80
677.02	1968.10
677.21	1898.47
677.39	2013.15
677.58	1849.32
677.77	1910.75
677.95	1976.29
678.14	1951.71
678.32	1910.75
678.51	1978.34
678.70	2013.15
678.88	1990.63
679.07	1906.66
679.25	2045.92
679.44	1953.76
679.63	1988.58
679.81	1920.99
680.00	2029.54
680.18	2019.30
680.37	2103.26
680.55	1970.15
680.74	1886.18
680.93	1816.55
681.11	1935.33
681.30	1896.42
681.48	1947.62
681.67	1925.09
681.85	2023.39
682.04	1890.28
682.23	2074.59
682.41	1949.67
682.60	2004.96
682.78	1945.57
682.97	1914.85
683.15	1939.43
683.34	2004.96
683.53	2029.54
683.71	1798.12
683.90	2078.69
684.08	2060.26
684.27	1902.56
684.45	1976.29
684.64	2025.44
684.82	1896.42
685.01	1953.76
685.19	1914.85
685.38	2045.92
685.57	1959.91
685.75	1949.67
685.94	1912.80
686.12	1884.13
686.31	1961.95
686.49	2109.41
686.68	1851.36
686.86	1945.57
687.05	1912.80
687.23	2002.91
687.42	1953.76
687.60	1867.75
687.79	2029.54
687.97	2084.83
688.16	1941.47
688.34	2047.97
688.53	1859.56
688.71	1955.81
688.90	2066.40
689.08	1978.34
689.27	1898.47
689.45	1992.67
689.64	1947.62
689.82	1888.23
690.01	1992.67
690.19	1931.23
690.38	2000.87
690.56	2068.45
690.75	1941.47
690.93	1982.43
691.12	1910.75
691.30	1900.52
691.49	1927.14
691.67	1894.37
691.86	2111.46
692.04	1925.09
692.23	1968.10
692.41	1964.00
692.60	2275.29
692.78	2133.98
692.97	2050.02
693.15	2101.22
693.34	2199.52
693.52	2043.87
693.71	1923.04
693.89	1916.90
694.08	1849.32
694.26	1996.77
694.44	2041.82
694.63	2039.78
694.81	1830.88
695.00	1902.56
695.18	2033.63
695.37	2131.94
695.55	2045.92
695.74	1873.89
695.92	1877.99
696.10	2074.59
696.29	1906.66
696.47	1877.99
696.66	1892.32
696.84	1892.32
697.03	2041.82
697.21	2105.31
697.40	2736.09
697.58	2025.44
697.76	1949.67
697.95	1935.33
698.13	1839.08
698.32	1871.84
698.50	1923.04
698.68	1986.53
698.87	1966.05
699.05	2101.22
699.24	1947.62
699.42	1896.42
699.61	1941.47
699.79	1998.82
699.97	1980.39
700.16	1867.75
700.34	1904.61
700.53	2066.40
700.71	2078.69
700.89	2119.65
701.08	1964.00
701.26	1984.48
701.45	2471.90
701.63	1927.14
701.81	1890.28
702.00	1949.67
702.18	1957.86
702.37	1951.71
702.55	2133.98
702.73	2252.77
702.92	2101.22
703.10	2316.25
703.28	2242.53
703.47	2103.26
703.65	2117.60
703.84	2213.85
704.02	2002.91
704.20	2203.61
704.39	1964.00
704.57	2041.82
704.75	2109.41
704.94	2117.60
705.12	2068.45
705.30	2246.62
705.49	3612.62
705.67	9015.16
705.86	18149.10
706.04	22795.94
706.22	26482.28
706.41	28497.49
706.59	25673.34
706.77	18274.03
706.96	14401.32
707.14	12398.40
707.32	10714.97
707.51	9355.12
707.69	8005.51
707.87	6649.75
708.06	5140.40
708.24	4108.23
708.42	3354.57
708.61	2820.05
708.79	2285.53
708.97	2242.53
709.16	2195.42
709.34	2031.58
709.52	2054.11
709.71	1992.67
709.89	2072.54
710.07	1974.24
710.26	1951.71
710.44	1976.29
710.62	2037.73
710.80	1982.43
710.99	2105.31
711.17	2023.39
711.35	1982.43
711.54	1998.82
711.72	2002.91
711.90	1996.77
712.09	1988.58
712.27	1972.19
712.45	1945.57
712.63	1986.53
712.82	1941.47
713.00	1953.76
713.18	1996.77
713.37	2060.26
713.55	2007.01
713.73	1974.24
713.91	2019.30
714.10	1918.95
714.28	2007.01
714.46	1986.53
714.65	1988.58
714.83	1916.90
715.01	2011.11
715.19	1980.39
715.38	1916.90
715.56	1941.47
715.74	1902.56
715.92	1894.37
716.11	1990.63
716.29	1875.94
716.47	1937.38
716.65	1941.47
716.84	1955.81
717.02	2052.06
717.20	1837.03
717.38	1959.91
717.57	1986.53
717.75	1970.15
717.93	1908.71
718.11	2090.98
718.30	1927.14
718.48	2000.87
718.66	2078.69
718.84	2052.06
719.03	1988.58
719.21	1929.19
719.39	2099.17
719.57	2107.36
719.75	1961.95
719.94	1976.29
720.12	1900.52
720.30	1982.43
720.48	2123.74
720.67	1939.43
720.85	1898.47
721.03	1910.75
721.21	1947.62
721.39	2076.64
721.58	2039.78
721.76	1937.38
721.94	1961.95
722.12	2047.97
722.30	2084.83
722.49	1896.42
722.67	1996.77
722.85	1918.95
723.03	1865.70
723.21	1955.81
723.40	1970.15
723.58	2070.50
723.76	2168.80
723.94	2127.84
724.12	2027.49
724.30	2105.31
724.49	2142.18
724.67	2007.01
724.85	2023.39
725.03	1869.80
725.21	2002.91
725.40	2039.78
725.58	1939.43
725.76	2021.35
725.94	2023.39
726.12	1906.66
726.30	1959.91
726.49	1968.10
726.67	1904.61
726.85	2029.54
727.03	2199.52
727.21	3182.54
727.39	4628.41
727.57	5941.16
727.76	6707.10
727.94	7264.15
728.12	6801.30
728.30	5762.98
728.48	4749.24
728.66	4321.21
728.84	3925.96
729.03	3442.64
729.21	2961.36
729.39	2562.01
729.57	2322.40
729.75	2154.46
729.93	2150.37
730.11	2050.02
730.30	1978.34
730.48	2035.68
730.66	2162.66
730.84	2007.01
731.02	1976.29
731.20	1986.53
731.38	2041.82
731.56	1818.60
731.74	1884.13
731.93	1986.53
732.11	1951.71
732.29	1996.77
732.47	1974.24
732.65	1955.81
732.83	2080.74
733.01	2000.87
733.19	1875.94
733.37	1953.76
733.56	1990.63
733.74	1933.28
733.92	2037.73
734.10	1959.91
734.28	2025.44
734.46	1857.51
734.64	1961.95
734.82	1992.67
735.00	1841.12
735.18	1918.95
735.36	1953.76
735.54	1914.85
735.73	1935.33
735.91	1918.95
736.09	2043.87
736.27	1937.38
736.45	2002.91
736.63	1882.08
736.81	1931.23
736.99	2021.35
737.17	2064.35
737.35	1939.43
737.53	2007.01
737.71	1961.95
737.89	2004.96
738.07	1894.37
738.25	1882.08
738.43	1920.99
738.61	1957.86
738.80	1882.08
738.98	1996.77
739.16	1908.71
739.34	1912.80
739.52	2078.69
739.70	1957.86
739.88	2007.01
740.06	2050.02
740.24	1845.22
740.42	2037.73
740.60	1843.17
740.78	1937.38
740.96	1806.31
741.14	2009.06
741.32	1998.82
741.50	1923.04
741.68	2142.18
741.86	2158.56
742.04	1904.61
742.22	1918.95
742.40	2043.87
742.58	2011.11
742.76	1873.89
742.94	1931.23
743.12	1869.80
743.30	2043.87
743.48	2013.15
743.66	1900.52
743.84	1990.63
744.02	2021.35
744.20	1902.56
744.38	1859.56
744.56	1951.71
744.74	2023.39
744.92	2045.92
745.10	2031.58
745.28	1927.14
745.46	2076.64
745.64	1898.47
745.82	1976.29
746.00	1953.76
746.18	1984.48
746.36	1908.71
746.54	1947.62
746.72	1957.86
746.90	1927.14
747.08	2123.74
747.26	1970.15
747.44	2011.11
747.62	1980.39
747.80	2007.01
747.98	2088.93
748.15	1937.38
748.33	2093.02
748.51	1949.67
748.69	2097.12
748.87	1863.65
749.05	1961.95
749.23	1974.24
749.41	2011.11
749.59	1966.05
749.77	2002.91
749.95	1925.09
750.13	1869.80
750.31	2019.30
750.49	1918.95
750.67	2047.97
750.85	2103.26
751.03	1992.67
751.20	2099.17
751.38	1953.76
751.56	1900.52
751.74	2009.06
751.92	1900.52
752.10	1843.17
752.28	2023.39
752.46	1837.03
752.64	1916.90
752.82	1914.85
753.00	1925.09
753.18	1939.43
753.35	1988.58
753.53	1898.47
753.71	1980.39
753.89	1996.77
754.07	1939.43
754.25	2039.78
754.43	2002.91
754.61	1923.04
754.79	1998.82
754.97	1871.84
755.14	2072.54
755.32	1912.80
755.50	1970.15
755.68	2029.54
755.86	1859.56
756.04	1912.80
756.22	1839.08
756.40	1949.67
756.57	2107.36
756.75	1937.38
756.93	2076.64
757.11	2015.20
757.29	1867.75
757.47	1886.18
757.65	1892.32
757.82	1804.26
758.00	1847.27
758.18	1902.56
758.36	1892.32
758.54	2080.74
758.72	1916.90
758.90	2004.96
759.07	2039.78
759.25	1925.09
759.43	1912.80
759.61	1906.66
759.79	2635.74
759.97	2076.64
760.15	1939.43
760.32	1910.75
760.50	1933.28
760.68	2084.83
760.86	1841.12
761.04	2093.02
761.22	2029.54
761.39	1906.66
761.57	1990.63
761.75	1925.09
761.93	1900.52
762.11	1898.47
762.28	2025.44
762.46	1937.38
762.64	2029.54
762.82	1867.75
763.00	1984.48
763.18	2101.22
763.35	1867.75
763.53	1933.28
763.71	1957.86
763.89	1937.38
764.07	2019.30
764.24	1908.71
764.42	1959.91
764.60	1914.85
764.78	2000.87
764.96	2043.87
765.13	2033.63
765.31	1961.95
765.49	2007.01
765.67	1886.18
765.84	1951.71
766.02	1902.56
766.20	1863.65
766.38	1968.10
766.56	1998.82
766.73	2039.78
766.91	1900.52
767.09	1959.91
767.27	2023.39
767.44	1912.80
767.62	1925.09
767.80	1966.05
767.98	1892.32
768.15	2017.25
768.33	1982.43
768.51	2033.63
768.69	1980.39
768.87	2039.78
769.04	1976.29
769.22	2043.87
769.40	2039.78
769.58	2121.70
769.75	2023.39
769.93	2066.40
770.11	1937.38
770.28	1910.75
770.46	1978.34
770.64	1961.95
770.82	1970.15
770.99	1949.67
771.17	2019.30
771.35	1935.33
771.53	1906.66
771.70	1892.32
771.88	2000.87
772.06	1957.86
772.23	2011.11
772.41	1986.53
772.59	1931.23
772.77	1867.75
772.94	1873.89
773.12	1990.63
773.30	1859.56
773.47	1990.63
773.65	1853.41
773.83	2095.07
774.01	1945.57
774.18	1832.93
774.36	2031.58
774.54	1892.32
774.71	1898.47
774.89	1832.93
775.07	1941.47
775.24	1931.23
775.42	1888.23
775.60	2004.96
775.78	1966.05
775.95	1873.89
776.13	1806.31
776.31	1818.60
776.48	1972.19
776.66	2072.54
776.84	1904.61
777.01	1859.56
777.19	1857.51
777.37	1910.75
777.54	1959.91
777.72	2138.08
777.90	2066.40
778.07	1841.12
778.25	2211.81
778.43	2082.78
778.60	1925.09
778.78	1980.39
778.96	2043.87
779.13	1884.13
779.31	2031.58
779.49	1968.10
779.66	2009.06
779.84	2033.63
780.01	1939.43
780.19	1826.79
780.37	2004.96
780.54	1961.95
780.72	1884.13
780.90	1904.61
781.07	1955.81
781.25	1894.37
781.43	2029.54
781.60	1877.99
781.78	2019.30
781.95	1972.19
782.13	1855.46
782.31	1880.04
782.48	1834.98
782.66	1976.29
782.83	2193.37
783.01	2050.02
783.19	2007.01
783.36	1904.61
783.54	1916.90
783.72	2062.30
783.89	1978.34
784.07	1968.10
784.24	2009.06
784.42	2082.78
784.60	1966.05
784.77	1982.43
784.95	1802.21
785.12	1898.47
785.30	1955.81
785.47	1929.19
785.65	1861.60
785.83	1949.67
786.00	1929.19
786.18	1937.38
786.35	1839.08
786.53	1867.75
786.71	2070.50
786.88	1984.48
787.06	1925.09
787.23	1986.53
787.41	1867.75
787.58	1945.57
787.76	1880.04
787.94	1970.15
788.11	1988.58
788.29	1920.99
788.46	1890.28
788.64	1843.17
788.81	1955.81
788.99	1923.04
789.16	1865.70
789.34	1916.90
789.52	1882.08
789.69	1892.32
789.87	1761.25
790.04	1961.95
790.22	1910.75
790.39	2033.63
790.57	1861.60
790.74	1998.82
790.92	2093.02
791.09	1910.75
791.27	1953.76
791.44	2093.02
791.62	1968.10
791.79	2035.68
791.97	1992.67
792.15	2244.57
792.32	2019.30
792.50	1955.81
792.67	2117.60
792.85	2033.63
793.02	1978.34
793.20	1943.52
793.37	1816.55
793.55	1931.23
793.72	1802.21
793.90	1951.71
794.07	1976.29
794.25	1900.52
794.42	1923.04
794.60	1900.52
794.77	1925.09
794.95	2029.54
795.12	1970.15
795.30	1943.52
795.47	1845.22
795.65	2164.70
795.82	1978.34
796.00	1855.46
796.17	1964.00
796.34	1937.38
796.52	2004.96
796.69	2041.82
796.87	2058.21
797.04	2029.54
797.22	1920.99
797.39	1912.80
797.57	1939.43
797.74	1988.58
797.92	1986.53
798.09	1937.38
798.27	2062.30
798.44	1953.76
798.62	1877.99
798.79	1964.00
798.96	1964.00
799.14	1968.10
799.31	2119.65
799.49	1970.15
799.66	1927.14
799.84	1970.15
800.01	1765.35
800.19	2000.87
800.36	1828.84
800.53	1984.48
800.71	2060.26
800.88	2060.26
801.06	1943.52
801.23	1896.42
801.41	1910.75
801.58	1923.04
801.75	1884.13
801.93	1980.39
802.10	1957.86
802.28	1925.09
802.45	1867.75
802.63	2023.39
802.80	2037.73
802.97	1902.56
803.15	2031.58
803.32	1945.57
803.50	1918.95
803.67	1892.32
803.84	1925.09
804.02	1949.67
804.19	1904.61
804.37	1771.49
804.54	1890.28
804.71	1972.19
804.89	1937.38
805.06	1912.80
805.24	1859.56
805.41	1863.65
805.58	1925.09
805.76	2160.61
805.93	2052.06
806.10	2064.35
806.28	2031.58
806.45	1945.57
806.63	2074.59
806.80	1976.29
806.97	1923.04
807.15	2066.40
807.32	1931.23
807.49	1882.08
807.67	1890.28
807.84	1974.24
808.01	1912.80
808.19	2117.60
808.36	2166.75
808.54	1949.67
808.71	1904.61
808.88	1896.42
809.06	2002.91
809.23	2052.06
809.40	1837.03
809.58	1992.67
809.75	1933.28
809.92	1892.32
810.10	2052.06
810.27	1929.19
810.44	1945.57
810.62	2080.74
810.79	1953.76
810.96	1888.23
811.14	1964.00
811.31	2031.58
811.48	1957.86
811.66	1974.24
811.83	2029.54
812.00	2000.87
812.18	1974.24
812.35	2064.35
812.52	1984.48
812.69	1929.19
812.87	1914.85
813.04	1890.28
813.21	1931.23
813.39	1865.70
813.56	1884.13
813.73	1957.86
813.91	1869.80
814.08	1961.95
814.25	1951.71
814.42	1843.17
814.60	1957.86
814.77	1949.67
814.94	1978.34
815.12	1931.23
815.29	2068.45
815.46	1951.71
815.63	1910.75
815.81	1964.00
815.98	1904.61
816.15	2015.20
816.33	1904.61
816.50	1900.52
816.67	2017.25
816.84	1957.86
817.02	1843.17
817.19	1906.66
817.36	2039.78
817.53	1970.15
817.71	1908.71
817.88	2025.44
818.05	1939.43
818.22	1943.52
818.40	2045.92
818.57	1945.57
818.74	2015.20
818.91	2007.01
819.09	2011.11
819.26	1966.05
819.43	1923.04
819.60	1888.23
819.78	1992.67
819.95	2045.92
820.12	1935.33
820.29	2043.87
820.47	2025.44
820.64	1978.34
820.81	1875.94
820.98	1937.38
821.15	1953.76
821.33	2080.74
821.50	1882.08
821.67	2035.68
821.84	1968.10
822.02	2050.02
822.19	2015.20
822.36	1927.14
822.53	2015.20
822.70	1910.75
822.88	1953.76
823.05	2013.15
823.22	1949.67
823.39	2064.35
823.56	1978.34
823.74	2125.79
823.91	1941.47
824.08	1945.57
824.25	1875.94
824.42	2068.45
824.60	1845.22
824.77	2007.01
824.94	1925.09
825.11	1957.86
825.28	1865.70
825.45	2047.97
825.63	1976.29
825.80	1951.71
825.97	1974.24
826.14	1976.29
826.31	1853.41
826.48	2056.16
826.66	1978.34
826.83	1896.42
827.00	1968.10
827.17	1914.85
827.34	1855.46
827.51	1918.95
827.69	1902.56
827.86	1806.31
828.03	1853.41
828.20	1935.33
828.37	1945.57
828.54	1925.09
828.71	1912.80
828.89	2076.64
829.06	1941.47
829.23	2084.83
829.40	1912.80
829.57	1947.62
829.74	2000.87
829.91	1902.56
830.09	1955.81
830.26	1900.52
830.43	1980.39
830.60	1945.57
830.77	2011.11
830.94	2029.54
831.11	1996.77
831.28	1953.76
831.46	2023.39
831.63	1925.09
831.80	2009.06
831.97	1935.33
832.14	1906.66
832.31	2000.87
832.48	2009.06
832.65	2019.30
832.82	1994.72
832.99	1976.29
833.17	1920.99
833.34	2068.45
833.51	2054.11
833.68	1791.97
833.85	1937.38
834.02	1882.08
834.19	1888.23
834.36	1898.47
834.53	1929.19
834.70	2113.50
834.87	1970.15
835.04	1918.95
835.22	1920.99
835.39	1861.60
835.56	1847.27
835.73	1964.00
835.90	2029.54
836.07	1886.18
836.24	2037.73
836.41	1886.18
836.58	1888.23
836.75	2076.64
836.92	1951.71
837.09	1886.18
837.26	2078.69
837.43	1964.00
837.60	1982.43
837.77	1941.47
837.94	1949.67
838.12	2041.82
838.29	1923.04
838.46	1898.47
838.63	1896.42
838.80	2097.12
838.97	2007.01
839.14	1978.34
839.31	2004.96
839.48	2031.58
839.65	1902.56
839.82	2035.68
839.99	2009.06
840.16	2035.68
840.33	1920.99
840.50	2000.87
840.67	1834.98
840.84	1781.73
841.01	1961.95
841.18	1894.37
841.35	1949.67
841.52	1990.63
841.69	2103.26
841.86	1978.34
842.03	1998.82
842.20	2074.59
842.37	1951.71
842.54	1886.18
842.71	1949.67
842.88	1787.88
843.05	1986.53
843.22	1923.04
843.39	1982.43
843.56	1974.24
843.73	1923.04
843.90	1871.84
844.07	1925.09
844.24	1918.95
844.41	1925.09
844.58	1951.71
844.75	1961.95
844.92	1980.39
845.09	1880.04
845.26	1904.61
845.43	1916.90
845.60	1966.05
845.77	2050.02
845.94	2039.78
846.10	1910.75
846.27	1822.69
846.44	1855.46
846.61	1898.47
846.78	1935.33
846.95	2017.25
847.12	1812.45
847.29	1912.80
847.46	1888.23
847.63	2058.21
847.80	1908.71
847.97	1949.67
848.14	2138.08
848.31	1916.90
848.48	1820.64
848.65	1986.53
848.82	1916.90
848.98	2136.03
849.15	1970.15
849.32	2082.78
849.49	1984.48
849.66	1953.76
849.83	2015.20
850.00	1884.13
850.17	2017.25
850.34	1914.85
850.51	1890.28
850.68	1925.09
850.85	2148.32
851.01	1939.43
851.18	1892.32
851.35	1980.39
851.52	1943.52
851.69	2076.64
851.86	1927.14
852.03	1908.71
852.20	2035.68
852.37	1980.39
852.53	1812.45
852.70	1910.75
852.87	1978.34
853.04	1972.19
853.21	1943.52
853.38	1972.19
853.55	2043.87
853.72	1959.91
853.89	1861.60
854.05	1890.28
854.22	1927.14
854.39	2023.39
854.56	1931.23
854.73	2074.59
854.90	1849.32
855.07	1984.48
855.23	1875.94
855.40	1849.32
855.57	1877.99
855.74	1818.60
855.91	2068.45
856.08	1816.55
856.25	1820.64
856.41	1871.84
856.58	1927.14
856.75	1937.38
856.92	1902.56
857.09	2058.21
857.26	1837.03
857.42	1849.32
857.59	2013.15
857.76	2009.06
857.93	1986.53
858.10	1959.91
858.27	1900.52
858.43	1970.15
858.60	1839.08
858.77	1875.94
858.94	1890.28
859.11	1992.67
859.27	1857.51
859.44	1937.38
859.61	2074.59
859.78	1998.82
859.95	1982.43
860.12	1900.52
860.28	2181.09
860.45	2117.60
860.62	1837.03
860.79	1947.62
860.95	1920.99
861.12	1863.65
861.29	1935.33
861.46	1877.99
861.63	1871.84
861.79	1988.58
861.96	1904.61
862.13	1957.86
862.30	1964.00
862.47	1894.37
862.63	1847.27
862.80	2068.45
862.97	1933.28
863.14	1988.58
863.30	1964.00
863.47	1865.70
863.64	2058.21
863.81	2019.30
863.97	1894.37
864.14	1886.18
864.31	1925.09
864.48	2039.78
864.65	1937.38
864.81	1957.86
864.98	2019.30
865.15	1976.29
865.32	2027.49
865.48	2062.30
865.65	2107.36
865.82	1941.47
865.98	1920.99
866.15	1966.05
866.32	1941.47
866.49	1869.80
866.65	2039.78
866.82	1824.74
866.99	1918.95
867.16	1888.23
867.32	1916.90
867.49	1976.29
867.66	1882.08
867.83	1908.71
867.99	1791.97
868.16	1851.36
868.33	1898.47
868.49	1953.76
868.66	1923.04
868.83	2064.35
868.99	1992.67
869.16	1980.39
869.33	2027.49
869.50	1980.39
869.66	1931.23
869.83	1955.81
870.00	1841.12
870.16	1984.48
870.33	1996.77
870.50	2002.91
870.66	2002.91
870.83	2015.20
871.00	1896.42
871.17	1968.10
871.33	1980.39
871.50	1916.90
871.67	1970.15
871.83	1812.45
872.00	2064.35
872.17	1875.94
872.33	2062.30
872.50	2039.78
872.67	1900.52
872.83	1990.63
873.00	1925.09
873.17	2007.01
873.33	2111.46
873.50	1949.67
873.67	1880.04
873.83	1843.17
874.00	1955.81
874.16	2093.02
874.33	2052.06
874.50	1888.23
874.66	1990.63
874.83	1937.38
875.00	2013.15
875.16	2076.64
875.33	2035.68
875.50	1779.68
875.66	1943.52
875.83	1984.48
875.99	1935.33
876.16	1935.33
876.33	1906.66
876.49	1875.94
876.66	2002.91
876.83	1855.46
876.99	1873.89
877.16	1892.32
877.32	1918.95
877.49	1898.47
877.66	1976.29
877.82	2070.50
877.99	1923.04
878.15	2041.82
878.32	1896.42
878.49	2021.35
878.65	1941.47
878.82	1959.91
878.98	1925.09
879.15	1980.39
879.32	1982.43
879.48	1937.38
879.65	1918.95
879.81	1949.67
879.98	2035.68
880.15	1875.94
880.31	2043.87
880.48	1910.75
880.64	2009.06
880.81	2019.30
880.97	2068.45
881.14	2078.69
881.31	1867.75
881.47	2066.40
881.64	1884.13
881.80	1951.71
881.97	1927.14
882.13	1955.81
882.30	1861.60
882.47	1888.23
882.63	1945.57
882.80	1920.99
882.96	1912.80
883.13	2086.88
883.29	1890.28
883.46	1933.28
883.62	2097.12
883.79	1955.81
883.95	1996.77
884.12	2007.01
884.29	2017.25
884.45	1939.43
884.62	1976.29
884.78	1855.46
884.95	2070.50
885.11	1904.61
885.28	2035.68
885.44	1931.23
885.61	1939.43
885.77	2015.20
885.94	1992.67
886.10	1951.71
886.27	1898.47
886.43	2074.59
886.60	2058.21
886.76	1945.57
886.93	1964.00
887.09	1935.33
887.26	1843.17
887.42	1935.33
887.59	2138.08
887.75	2015.20
887.92	1941.47
888.08	2058.21
888.25	1998.82
888.41	1988.58
888.58	1935.33
888.74	1884.13
888.91	1933.28
>>>>>End Processed Spectral Data<<<<<
