SpectraSuite Data File
++++++++++++++++++++++++++++++++++++
Date: Wed May 04 22:45:44 CEST 2016
User: root
Dark Spectrum Present: No
Reference Spectrum Present: No
Number of Sampled Component Spectra: 1
Spectrometers: USB4C02835
Integration Time (usec): 100000 (USB4C02835)
Spectra Averaged: 1 (USB4C02835)
Boxcar Smoothing: 0 (USB4C02835)
Correct for Electrical Dark: No (USB4C02835)
Strobe/Lamp Enabled: No (USB4C02835)
Correct for Detector Non-linearity: No (USB4C02835)
Correct for Stray Light: No (USB4C02835)
Number of Pixels in Processed Spectrum: 3648
>>>>>Begin Processed Spectral Data<<<<<
177.47	1593.32
177.69	1593.32
177.91	1593.32
178.13	1568.74
178.36	1658.85
178.58	1920.99
178.80	2004.96
179.02	1841.12
179.24	1882.08
179.46	1828.84
179.68	1968.10
179.90	2021.35
180.13	1947.62
180.35	1939.43
180.57	1898.47
180.79	1982.43
181.01	1937.38
181.23	2045.92
181.45	1994.72
181.67	2017.25
181.90	2084.83
182.12	1976.29
182.34	1925.09
182.56	1976.29
182.78	1955.81
183.00	1912.80
183.22	2045.92
183.44	1826.79
183.66	2201.57
183.89	2109.41
184.11	1992.67
184.33	1982.43
184.55	2072.54
184.77	1939.43
184.99	1970.15
185.21	1898.47
185.43	2144.22
185.65	1949.67
185.87	1906.66
186.10	2152.42
186.32	2099.17
186.54	2009.06
186.76	1996.77
186.98	1947.62
187.20	1923.04
187.42	1855.46
187.64	1916.90
187.86	1984.48
188.08	2031.58
188.30	1902.56
188.52	1953.76
188.75	2050.02
188.97	2058.21
189.19	1875.94
189.41	1886.18
189.63	1994.72
189.85	1959.91
190.07	1841.12
190.29	1767.40
190.51	1992.67
190.73	1859.56
190.95	1980.39
191.17	1978.34
191.39	1853.41
191.61	1951.71
191.84	1927.14
192.06	2000.87
192.28	1834.98
192.50	2105.31
192.72	1980.39
192.94	1914.85
193.16	2023.39
193.38	1976.29
193.60	1988.58
193.82	1927.14
194.04	2031.58
194.26	2002.91
194.48	1953.76
194.70	1898.47
194.92	1927.14
195.14	2025.44
195.36	1857.51
195.58	2009.06
195.80	1937.38
196.02	1830.88
196.24	2000.87
196.46	1949.67
196.69	1970.15
196.91	2220.00
197.13	1974.24
197.35	1882.08
197.57	2070.50
197.79	1984.48
198.01	1933.28
198.23	2002.91
198.45	2013.15
198.67	1902.56
198.89	1898.47
199.11	1941.47
199.33	1861.60
199.55	1794.02
199.77	1859.56
199.99	2027.49
200.21	1957.86
200.43	1988.58
200.65	1824.74
200.87	1830.88
201.09	1898.47
201.31	2017.25
201.53	2011.11
201.75	1959.91
201.97	1970.15
202.19	1923.04
202.41	1988.58
202.63	2062.30
202.85	1949.67
203.07	1959.91
203.29	2002.91
203.51	1810.40
203.73	1890.28
203.95	2166.75
204.17	2043.87
204.39	1929.19
204.61	2025.44
204.83	1929.19
205.05	1933.28
205.27	2029.54
205.49	2154.46
205.71	1984.48
205.93	1882.08
206.15	1964.00
206.37	1972.19
206.59	1970.15
206.81	1814.50
207.03	1939.43
207.25	1916.90
207.47	1994.72
207.69	1931.23
207.91	2080.74
208.13	2074.59
208.34	1845.22
208.56	1959.91
208.78	2064.35
209.00	1966.05
209.22	1886.18
209.44	1869.80
209.66	1877.99
209.88	1990.63
210.10	1970.15
210.32	1943.52
210.54	2076.64
210.76	1900.52
210.98	2058.21
211.20	1769.44
211.42	1935.33
211.64	2084.83
211.86	2033.63
212.08	1988.58
212.30	1976.29
212.52	1974.24
212.74	1990.63
212.96	1882.08
213.17	1923.04
213.39	1990.63
213.61	2062.30
213.83	1914.85
214.05	1933.28
214.27	2007.01
214.49	1939.43
214.71	1863.65
214.93	2023.39
215.15	1957.86
215.37	1978.34
215.59	1898.47
215.81	2023.39
216.03	2041.82
216.24	1964.00
216.46	1910.75
216.68	1961.95
216.90	1941.47
217.12	2025.44
217.34	1910.75
217.56	1972.19
217.78	2105.31
218.00	2052.06
218.22	1945.57
218.44	1972.19
218.66	1953.76
218.87	2125.79
219.09	1937.38
219.31	1955.81
219.53	1984.48
219.75	1988.58
219.97	1949.67
220.19	2007.01
220.41	1933.28
220.63	1984.48
220.85	1976.29
221.06	1843.17
221.28	2058.21
221.50	1968.10
221.72	1984.48
221.94	1955.81
222.16	1992.67
222.38	2058.21
222.60	1937.38
222.82	1794.02
223.03	2041.82
223.25	1880.04
223.47	1980.39
223.69	2033.63
223.91	1988.58
224.13	1947.62
224.35	1906.66
224.57	2017.25
224.78	2013.15
225.00	1839.08
225.22	1906.66
225.44	1918.95
225.66	2004.96
225.88	1964.00
226.10	2041.82
226.32	1994.72
226.53	2076.64
226.75	1890.28
226.97	1916.90
227.19	1941.47
227.41	1894.37
227.63	1929.19
227.85	1882.08
228.06	1865.70
228.28	1925.09
228.50	2023.39
228.72	1908.71
228.94	1978.34
229.16	1814.50
229.37	1841.12
229.59	1869.80
229.81	2002.91
230.03	2002.91
230.25	1900.52
230.47	1900.52
230.69	1814.50
230.90	1986.53
231.12	1900.52
231.34	2037.73
231.56	1968.10
231.78	1847.27
232.00	2009.06
232.21	1880.04
232.43	1939.43
232.65	1826.79
232.87	1968.10
233.09	1896.42
233.30	1886.18
233.52	1914.85
233.74	1923.04
233.96	1931.23
234.18	1970.15
234.40	1935.33
234.61	2119.65
234.83	1884.13
235.05	1804.26
235.27	2113.50
235.49	2021.35
235.70	1896.42
235.92	1998.82
236.14	1972.19
236.36	2164.70
236.58	1798.12
236.79	2011.11
237.01	1984.48
237.23	2002.91
237.45	2095.07
237.67	1859.56
237.88	1957.86
238.10	2056.16
238.32	1828.84
238.54	1933.28
238.76	1951.71
238.97	1980.39
239.19	1875.94
239.41	1935.33
239.63	2078.69
239.85	1984.48
240.06	1906.66
240.28	1961.95
240.50	2029.54
240.72	1871.84
240.93	1923.04
241.15	2041.82
241.37	1941.47
241.59	2047.97
241.81	2004.96
242.02	1902.56
242.24	2045.92
242.46	2019.30
242.68	1970.15
242.89	1920.99
243.11	2007.01
243.33	1925.09
243.55	1959.91
243.76	1949.67
243.98	1916.90
244.20	1908.71
244.42	1992.67
244.64	1871.84
244.85	1847.27
245.07	1929.19
245.29	1910.75
245.51	1957.86
245.72	2015.20
245.94	1984.48
246.16	1972.19
246.38	1925.09
246.59	1906.66
246.81	1890.28
247.03	1904.61
247.24	1791.97
247.46	1894.37
247.68	2023.39
247.90	1920.99
248.11	1839.08
248.33	1986.53
248.55	1927.14
248.77	1910.75
248.98	2017.25
249.20	2086.88
249.42	1992.67
249.64	1961.95
249.85	1904.61
250.07	1925.09
250.29	2086.88
250.50	2000.87
250.72	1828.84
250.94	1982.43
251.16	2062.30
251.37	2000.87
251.59	1984.48
251.81	1996.77
252.02	2007.01
252.24	1906.66
252.46	2072.54
252.68	1908.71
252.89	1988.58
253.11	1871.84
253.33	2009.06
253.54	2062.30
253.76	1785.83
253.98	1955.81
254.20	1918.95
254.41	1959.91
254.63	1890.28
254.85	1877.99
255.06	1908.71
255.28	2007.01
255.50	1949.67
255.71	1953.76
255.93	1851.36
256.15	1916.90
256.36	1970.15
256.58	1974.24
256.80	2004.96
257.02	1931.23
257.23	1871.84
257.45	1994.72
257.67	2011.11
257.88	1964.00
258.10	1994.72
258.32	1998.82
258.53	1923.04
258.75	2088.93
258.97	1882.08
259.18	1916.90
259.40	1935.33
259.62	2058.21
259.83	2117.60
260.05	1972.19
260.27	2289.63
260.48	2027.49
260.70	1882.08
260.92	1900.52
261.13	1994.72
261.35	1988.58
261.57	1896.42
261.78	1890.28
262.00	1830.88
262.22	2004.96
262.43	1894.37
262.65	1892.32
262.86	1920.99
263.08	2164.70
263.30	1943.52
263.51	1814.50
263.73	1943.52
263.95	2070.50
264.16	1935.33
264.38	1857.51
264.60	1982.43
264.81	1953.76
265.03	2105.31
265.25	2002.91
265.46	2023.39
265.68	2007.01
265.89	2019.30
266.11	1908.71
266.33	1953.76
266.54	1998.82
266.76	2050.02
266.98	1982.43
267.19	1945.57
267.41	2017.25
267.62	1920.99
267.84	1875.94
268.06	2015.20
268.27	1939.43
268.49	2011.11
268.70	1998.82
268.92	1961.95
269.14	1935.33
269.35	1873.89
269.57	1988.58
269.79	1964.00
270.00	1902.56
270.22	2209.76
270.43	1826.79
270.65	1720.29
270.87	2037.73
271.08	1957.86
271.30	1931.23
271.51	1945.57
271.73	2009.06
271.95	2097.12
272.16	1843.17
272.38	1988.58
272.59	1937.38
272.81	2060.26
273.02	1964.00
273.24	1937.38
273.46	2074.59
273.67	1832.93
273.89	1945.57
274.10	1900.52
274.32	2043.87
274.54	2037.73
274.75	1920.99
274.97	1916.90
275.18	1982.43
275.40	1972.19
275.61	1961.95
275.83	1972.19
276.05	1955.81
276.26	1970.15
276.48	1990.63
276.69	1920.99
276.91	1902.56
277.12	2150.37
277.34	2060.26
277.55	2033.63
277.77	1951.71
277.99	1988.58
278.20	1843.17
278.42	1861.60
278.63	1931.23
278.85	1810.40
279.06	1855.46
279.28	1939.43
279.49	2054.11
279.71	1955.81
279.93	2009.06
280.14	1955.81
280.36	1910.75
280.57	2060.26
280.79	1978.34
281.00	1867.75
281.22	1894.37
281.43	2019.30
281.65	1800.16
281.86	1867.75
282.08	1984.48
282.29	2066.40
282.51	1912.80
282.73	1869.80
282.94	1875.94
283.16	1982.43
283.37	2009.06
283.59	1974.24
283.80	2013.15
284.02	1986.53
284.23	1955.81
284.45	1966.05
284.66	1933.28
284.88	1916.90
285.09	1980.39
285.31	2074.59
285.52	2017.25
285.74	1886.18
285.95	2076.64
286.17	2013.15
286.38	2021.35
286.60	1859.56
286.81	1906.66
287.03	1902.56
287.24	1941.47
287.46	1951.71
287.67	1939.43
287.89	2142.18
288.10	1869.80
288.32	1933.28
288.53	2060.26
288.75	1863.65
288.96	1992.67
289.18	1953.76
289.39	1957.86
289.61	2101.22
289.82	2088.93
290.04	2115.55
290.25	1884.13
290.47	1964.00
290.68	1912.80
290.90	2080.74
291.11	1812.45
291.33	2084.83
291.54	1818.60
291.76	1890.28
291.97	1994.72
292.18	1988.58
292.40	1898.47
292.61	1898.47
292.83	2142.18
293.04	2002.91
293.26	1943.52
293.47	2007.01
293.69	1859.56
293.90	2002.91
294.12	2033.63
294.33	2002.91
294.55	1951.71
294.76	2037.73
294.97	2035.68
295.19	2072.54
295.40	1959.91
295.62	2009.06
295.83	2011.11
296.05	1888.23
296.26	1980.39
296.48	1994.72
296.69	1945.57
296.90	1920.99
297.12	1976.29
297.33	2058.21
297.55	1957.86
297.76	1984.48
297.98	1996.77
298.19	1935.33
298.41	1910.75
298.62	1855.46
298.83	2052.06
299.05	2011.11
299.26	1902.56
299.48	1912.80
299.69	1982.43
299.90	1945.57
300.12	1894.37
300.33	2015.20
300.55	1914.85
300.76	1927.14
300.98	1888.23
301.19	2062.30
301.40	1933.28
301.62	1986.53
301.83	1998.82
302.05	1947.62
302.26	1957.86
302.47	1970.15
302.69	1896.42
302.90	2025.44
303.12	1818.60
303.33	2019.30
303.54	2119.65
303.76	1935.33
303.97	2015.20
304.19	2086.88
304.40	1857.51
304.61	2015.20
304.83	2029.54
305.04	2082.78
305.26	2080.74
305.47	1923.04
305.68	1976.29
305.90	1865.70
306.11	1939.43
306.33	1978.34
306.54	1900.52
306.75	1875.94
306.97	1906.66
307.18	1935.33
307.39	1892.32
307.61	2050.02
307.82	1902.56
308.04	2029.54
308.25	1929.19
308.46	1957.86
308.68	1927.14
308.89	1976.29
309.10	2035.68
309.32	1947.62
309.53	1947.62
309.74	2013.15
309.96	1925.09
310.17	1937.38
310.39	1953.76
310.60	1976.29
310.81	2027.49
311.03	1828.84
311.24	2009.06
311.45	1984.48
311.67	2037.73
311.88	2013.15
312.09	1914.85
312.31	1914.85
312.52	1918.95
312.73	1927.14
312.95	1834.98
313.16	1949.67
313.37	2011.11
313.59	1988.58
313.80	2031.58
314.01	2090.98
314.23	1935.33
314.44	1929.19
314.65	1849.32
314.87	1933.28
315.08	1966.05
315.29	1927.14
315.51	1900.52
315.72	1855.46
315.93	2097.12
316.15	1992.67
316.36	1937.38
316.57	1947.62
316.79	1927.14
317.00	1935.33
317.21	2037.73
317.43	1884.13
317.64	1929.19
317.85	1916.90
318.07	1914.85
318.28	2043.87
318.49	2113.50
318.70	2191.33
318.92	2117.60
319.13	2148.32
319.34	2195.42
319.56	2050.02
319.77	2058.21
319.98	2152.42
320.20	2056.16
320.41	2031.58
320.62	2076.64
320.83	1945.57
321.05	2129.89
321.26	1927.14
321.47	1939.43
321.69	2138.08
321.90	1886.18
322.11	1968.10
322.32	2035.68
322.54	2074.59
322.75	1877.99
322.96	2140.13
323.18	1873.89
323.39	1898.47
323.60	1884.13
323.81	2011.11
324.03	1890.28
324.24	1964.00
324.45	1988.58
324.66	1923.04
324.88	2013.15
325.09	2013.15
325.30	1927.14
325.52	1918.95
325.73	2000.87
325.94	1859.56
326.15	1785.83
326.37	1937.38
326.58	2031.58
326.79	2023.39
327.00	1902.56
327.22	2037.73
327.43	1970.15
327.64	1898.47
327.85	1982.43
328.07	1920.99
328.28	2058.21
328.49	1820.64
328.70	1945.57
328.92	1906.66
329.13	1912.80
329.34	1863.65
329.55	1986.53
329.76	2064.35
329.98	1980.39
330.19	2068.45
330.40	1976.29
330.61	1986.53
330.83	2070.50
331.04	1888.23
331.25	1896.42
331.46	1929.19
331.68	1892.32
331.89	2017.25
332.10	1953.76
332.31	1906.66
332.52	1890.28
332.74	2023.39
332.95	1896.42
333.16	1894.37
333.37	1992.67
333.58	1945.57
333.80	2009.06
334.01	1857.51
334.22	2004.96
334.43	1834.98
334.64	1961.95
334.86	1920.99
335.07	1843.17
335.28	2041.82
335.49	1806.31
335.70	1966.05
335.92	2050.02
336.13	2056.16
336.34	1998.82
336.55	1998.82
336.76	1961.95
336.98	1824.74
337.19	1955.81
337.40	2105.31
337.61	2144.22
337.82	1984.48
338.04	2121.70
338.25	1794.02
338.46	1968.10
338.67	1908.71
338.88	1859.56
339.09	1789.92
339.31	1904.61
339.52	1882.08
339.73	1894.37
339.94	2037.73
340.15	1988.58
340.36	1931.23
340.58	1933.28
340.79	1855.46
341.00	2041.82
341.21	1923.04
341.42	2080.74
341.63	1914.85
341.85	2060.26
342.06	1986.53
342.27	1865.70
342.48	2013.15
342.69	1877.99
342.90	1867.75
343.12	2019.30
343.33	1959.91
343.54	1974.24
343.75	1976.29
343.96	1968.10
344.17	1853.41
344.38	1994.72
344.60	1853.41
344.81	1886.18
345.02	1951.71
345.23	2056.16
345.44	2119.65
345.65	1964.00
345.86	2015.20
346.07	1886.18
346.29	1888.23
346.50	2007.01
346.71	2025.44
346.92	2109.41
347.13	2060.26
347.34	1964.00
347.55	1871.84
347.76	2029.54
347.98	1902.56
348.19	1929.19
348.40	1982.43
348.61	1869.80
348.82	2017.25
349.03	1941.47
349.24	1857.51
349.45	2107.36
349.66	1808.36
349.88	1941.47
350.09	1841.12
350.30	2082.78
350.51	2086.88
350.72	2037.73
350.93	2023.39
351.14	1959.91
351.35	1990.63
351.56	1980.39
351.77	1886.18
351.99	1996.77
352.20	2058.21
352.41	2074.59
352.62	1822.69
352.83	1875.94
353.04	1937.38
353.25	1972.19
353.46	2066.40
353.67	2007.01
353.88	1794.02
354.09	1996.77
354.30	1945.57
354.52	2033.63
354.73	1959.91
354.94	1925.09
355.15	1984.48
355.36	2062.30
355.57	1996.77
355.78	1988.58
355.99	1982.43
356.20	1964.00
356.41	2027.49
356.62	1970.15
356.83	1943.52
357.04	2066.40
357.25	1794.02
357.46	1886.18
357.68	1904.61
357.89	1832.93
358.10	1982.43
358.31	1990.63
358.52	1923.04
358.73	1945.57
358.94	1908.71
359.15	1880.04
359.36	1961.95
359.57	1949.67
359.78	1910.75
359.99	1976.29
360.20	1933.28
360.41	1908.71
360.62	1931.23
360.83	1957.86
361.04	1976.29
361.25	1914.85
361.46	2127.84
361.67	1906.66
361.88	2088.93
362.09	2047.97
362.30	2002.91
362.51	1875.94
362.72	1935.33
362.93	2054.11
363.14	2021.35
363.35	1988.58
363.56	1939.43
363.78	2107.36
363.99	1994.72
364.20	1847.27
364.41	1945.57
364.62	2142.18
364.83	1982.43
365.04	1935.33
365.25	1998.82
365.46	2154.46
365.67	1970.15
365.88	1939.43
366.09	1970.15
366.30	1953.76
366.51	1937.38
366.72	1886.18
366.93	1964.00
367.14	1929.19
367.35	2105.31
367.56	1961.95
367.77	2131.94
367.98	1937.38
368.18	1986.53
368.39	1970.15
368.60	1947.62
368.81	1959.91
369.02	2023.39
369.23	1988.58
369.44	1800.16
369.65	1910.75
369.86	1988.58
370.07	1990.63
370.28	1882.08
370.49	2002.91
370.70	2002.91
370.91	1865.70
371.12	1947.62
371.33	2064.35
371.54	1908.71
371.75	2015.20
371.96	1857.51
372.17	1935.33
372.38	1988.58
372.59	2000.87
372.80	1898.47
373.01	1939.43
373.22	1904.61
373.43	1894.37
373.64	1853.41
373.85	2047.97
374.06	2050.02
374.26	1923.04
374.47	2000.87
374.68	2095.07
374.89	1998.82
375.10	1953.76
375.31	2029.54
375.52	1974.24
375.73	1949.67
375.94	1857.51
376.15	2041.82
376.36	1955.81
376.57	1947.62
376.78	1875.94
376.99	1945.57
377.20	2045.92
377.40	1839.08
377.61	2029.54
377.82	1898.47
378.03	2035.68
378.24	2013.15
378.45	1937.38
378.66	1976.29
378.87	1884.13
379.08	1867.75
379.29	1900.52
379.50	2050.02
379.71	1945.57
379.91	2119.65
380.12	1957.86
380.33	1990.63
380.54	2021.35
380.75	1951.71
380.96	2004.96
381.17	2080.74
381.38	2004.96
381.59	1953.76
381.80	1992.67
382.00	2125.79
382.21	2082.78
382.42	2115.55
382.63	2158.56
382.84	1998.82
383.05	2033.63
383.26	2086.88
383.47	1992.67
383.68	1908.71
383.88	1988.58
384.09	1953.76
384.30	2095.07
384.51	2045.92
384.72	1951.71
384.93	1918.95
385.14	1935.33
385.35	2013.15
385.55	1882.08
385.76	2041.82
385.97	1914.85
386.18	1841.12
386.39	1945.57
386.60	1918.95
386.81	1982.43
387.02	1998.82
387.22	1857.51
387.43	2099.17
387.64	1976.29
387.85	2140.13
388.06	2242.53
388.27	3952.58
388.48	8437.63
388.68	11890.51
388.89	14180.14
389.10	15505.17
389.31	13922.09
389.52	11030.36
389.73	9582.45
389.93	8613.76
390.14	8001.41
390.35	7180.18
390.56	6391.71
390.77	5164.98
390.98	3975.11
391.18	3182.54
391.39	2570.20
391.60	2176.99
391.81	2138.08
392.02	1966.05
392.23	2105.31
392.43	2064.35
392.64	2045.92
392.85	1994.72
393.06	2095.07
393.27	2011.11
393.47	1935.33
393.68	1935.33
393.89	1867.75
394.10	2060.26
394.31	1898.47
394.52	1896.42
394.72	1890.28
394.93	2011.11
395.14	1880.04
395.35	2025.44
395.56	1933.28
395.76	1953.76
395.97	1984.48
396.18	2113.50
396.39	2138.08
396.60	2320.35
396.80	2152.42
397.01	2101.22
397.22	2121.70
397.43	2150.37
397.64	1920.99
397.84	2107.36
398.05	2107.36
398.26	1959.91
398.47	2095.07
398.67	2041.82
398.88	2041.82
399.09	2125.79
399.30	1961.95
399.51	2017.25
399.71	1970.15
399.92	1937.38
400.13	2015.20
400.34	1961.95
400.54	1966.05
400.75	2097.12
400.96	1912.80
401.17	2111.46
401.37	1998.82
401.58	1951.71
401.79	1978.34
402.00	2125.79
402.21	2332.64
402.41	2322.40
402.62	2299.87
402.83	2365.40
403.04	2387.93
403.24	2510.81
403.45	2082.78
403.66	2250.72
403.87	2170.85
404.07	2217.95
404.28	2256.86
404.49	2189.28
404.70	2088.93
404.90	2019.30
405.11	2090.98
405.32	2033.63
405.52	1920.99
405.73	1933.28
405.94	1871.84
406.15	1988.58
406.35	2082.78
406.56	2002.91
406.77	1990.63
406.98	2029.54
407.18	1943.52
407.39	2127.84
407.60	2019.30
407.80	2074.59
408.01	1986.53
408.22	1949.67
408.43	1918.95
408.63	2004.96
408.84	2009.06
409.05	2019.30
409.25	1873.89
409.46	1904.61
409.67	1927.14
409.88	1939.43
410.08	1984.48
410.29	1882.08
410.50	1980.39
410.70	2004.96
410.91	1847.27
411.12	1974.24
411.32	1974.24
411.53	1816.55
411.74	2011.11
411.95	2045.92
412.15	1994.72
412.36	2043.87
412.57	2103.26
412.77	2064.35
412.98	1992.67
413.19	1980.39
413.39	2000.87
413.60	1964.00
413.81	2115.55
414.01	1912.80
414.22	2013.15
414.43	2017.25
414.63	2009.06
414.84	2086.88
415.05	1980.39
415.25	1839.08
415.46	1980.39
415.67	1888.23
415.87	1978.34
416.08	1923.04
416.29	1834.98
416.49	2007.01
416.70	2000.87
416.91	1955.81
417.11	1996.77
417.32	2035.68
417.53	2023.39
417.73	1980.39
417.94	1959.91
418.15	1978.34
418.35	1937.38
418.56	1955.81
418.77	2142.18
418.97	1949.67
419.18	1939.43
419.38	1783.78
419.59	1966.05
419.80	2058.21
420.00	1933.28
420.21	1951.71
420.42	2054.11
420.62	2004.96
420.83	1853.41
421.04	1955.81
421.24	2004.96
421.45	1964.00
421.65	2072.54
421.86	1890.28
422.07	2060.26
422.27	1955.81
422.48	1990.63
422.69	1912.80
422.89	1886.18
423.10	1988.58
423.30	1923.04
423.51	2047.97
423.72	1953.76
423.92	1927.14
424.13	1861.60
424.33	1947.62
424.54	2011.11
424.75	1970.15
424.95	2088.93
425.16	2019.30
425.36	1912.80
425.57	2052.06
425.78	2043.87
425.98	1972.19
426.19	1890.28
426.39	1908.71
426.60	1945.57
426.81	2127.84
427.01	1910.75
427.22	1798.12
427.42	1882.08
427.63	1865.70
427.83	2086.88
428.04	2041.82
428.25	2037.73
428.45	2041.82
428.66	2047.97
428.86	2023.39
429.07	2047.97
429.28	2019.30
429.48	1980.39
429.69	1910.75
429.89	1931.23
430.10	1781.73
430.30	1978.34
430.51	2037.73
430.71	1859.56
430.92	1900.52
431.13	1972.19
431.33	1953.76
431.54	1988.58
431.74	2045.92
431.95	2105.31
432.15	1923.04
432.36	2039.78
432.56	1945.57
432.77	2099.17
432.98	2066.40
433.18	1986.53
433.39	1968.10
433.59	2033.63
433.80	2076.64
434.00	2164.70
434.21	1941.47
434.41	1947.62
434.62	2140.13
434.82	1964.00
435.03	1957.86
435.23	1984.48
435.44	1781.73
435.64	1957.86
435.85	1955.81
436.06	2039.78
436.26	2086.88
436.47	1935.33
436.67	1869.80
436.88	1949.67
437.08	2068.45
437.29	2062.30
437.49	1976.29
437.70	2058.21
437.90	2004.96
438.11	2086.88
438.31	2062.30
438.52	2203.61
438.72	2164.70
438.93	2277.34
439.13	2133.98
439.34	2174.94
439.54	1976.29
439.75	2035.68
439.95	2070.50
440.16	1933.28
440.36	2086.88
440.57	2037.73
440.77	1988.58
440.98	1996.77
441.18	2052.06
441.39	1898.47
441.59	1900.52
441.80	2136.03
442.00	1968.10
442.21	2023.39
442.41	1902.56
442.62	2080.74
442.82	1925.09
443.02	2025.44
443.23	1955.81
443.43	1986.53
443.64	2148.32
443.84	1994.72
444.05	2082.78
444.25	1951.71
444.46	1939.43
444.66	1957.86
444.87	2107.36
445.07	1875.94
445.28	1953.76
445.48	2056.16
445.69	2025.44
445.89	2129.89
446.09	1959.91
446.30	2238.43
446.50	2613.21
446.71	4247.49
446.91	5291.95
447.12	6164.39
447.32	6506.40
447.53	6023.08
447.73	4992.95
447.93	4388.80
448.14	4069.31
448.34	3833.80
448.55	3407.82
448.75	3364.81
448.96	3166.16
449.16	2758.61
449.36	2701.27
449.57	2359.26
449.77	2176.99
449.98	1966.05
450.18	2025.44
450.39	2078.69
450.59	2027.49
450.79	1945.57
451.00	1947.62
451.20	2082.78
451.41	1976.29
451.61	2043.87
451.81	1961.95
452.02	1970.15
452.22	1882.08
452.43	1890.28
452.63	1974.24
452.84	1947.62
453.04	1943.52
453.24	2052.06
453.45	1884.13
453.65	1914.85
453.86	1927.14
454.06	2000.87
454.26	1964.00
454.47	1964.00
454.67	2133.98
454.87	1980.39
455.08	1957.86
455.28	2162.66
455.49	1927.14
455.69	1959.91
455.89	2172.89
456.10	2068.45
456.30	1914.85
456.51	2011.11
456.71	2023.39
456.91	2011.11
457.12	1976.29
457.32	2058.21
457.52	1908.71
457.73	2013.15
457.93	2045.92
458.14	2000.87
458.34	1890.28
458.54	1947.62
458.75	1935.33
458.95	2035.68
459.15	1996.77
459.36	2004.96
459.56	1882.08
459.76	2105.31
459.97	1959.91
460.17	1898.47
460.37	2050.02
460.58	2009.06
460.78	2019.30
460.99	1890.28
461.19	1968.10
461.39	1904.61
461.60	1847.27
461.80	1970.15
462.00	1882.08
462.21	1988.58
462.41	1923.04
462.61	1912.80
462.82	1894.37
463.02	2062.30
463.22	1972.19
463.43	2027.49
463.63	2041.82
463.83	2043.87
464.04	1998.82
464.24	1964.00
464.44	1892.32
464.64	2062.30
464.85	1980.39
465.05	2097.12
465.25	2017.25
465.46	1923.04
465.66	1996.77
465.86	2013.15
466.07	1943.52
466.27	1941.47
466.47	1968.10
466.68	1849.32
466.88	2097.12
467.08	2101.22
467.29	2066.40
467.49	1998.82
467.69	1888.23
467.89	1968.10
468.10	1968.10
468.30	2052.06
468.50	2002.91
468.71	2138.08
468.91	1880.04
469.11	2111.46
469.31	1976.29
469.52	1851.36
469.72	2154.46
469.92	2158.56
470.13	1955.81
470.33	1937.38
470.53	2146.27
470.73	2402.27
470.94	2832.34
471.14	3024.85
471.34	3317.71
471.54	3143.63
471.75	2861.01
471.95	2678.74
472.15	2576.34
472.36	2557.91
472.56	2506.71
472.76	2424.80
472.96	2310.11
473.17	2334.68
473.37	2238.43
473.57	2119.65
473.77	2097.12
473.98	2019.30
474.18	1910.75
474.38	2242.53
474.58	1890.28
474.79	1933.28
474.99	2013.15
475.19	2068.45
475.39	1949.67
475.60	1998.82
475.80	1949.67
476.00	1947.62
476.20	1968.10
476.41	1957.86
476.61	2076.64
476.81	2011.11
477.01	1853.41
477.21	2043.87
477.42	2111.46
477.62	1849.32
477.82	2007.01
478.02	2074.59
478.23	1974.24
478.43	1941.47
478.63	1974.24
478.83	1912.80
479.03	1966.05
479.24	2070.50
479.44	2068.45
479.64	1945.57
479.84	1908.71
480.04	1896.42
480.25	1980.39
480.45	1955.81
480.65	1953.76
480.85	2050.02
481.06	1976.29
481.26	2021.35
481.46	2068.45
481.66	2015.20
481.86	1902.56
482.06	2064.35
482.27	1916.90
482.47	1843.17
482.67	2025.44
482.87	1898.47
483.07	2015.20
483.28	1933.28
483.48	1935.33
483.68	2039.78
483.88	1849.32
484.08	1869.80
484.29	1898.47
484.49	1982.43
484.69	1820.64
484.89	2064.35
485.09	2074.59
485.29	2043.87
485.50	2002.91
485.70	1964.00
485.90	2088.93
486.10	2041.82
486.30	1978.34
486.50	2009.06
486.71	2009.06
486.91	2043.87
487.11	2105.31
487.31	1808.36
487.51	2025.44
487.71	1906.66
487.91	1851.36
488.12	1853.41
488.32	1845.22
488.52	1933.28
488.72	1880.04
488.92	1914.85
489.12	2064.35
489.32	2078.69
489.53	1976.29
489.73	1886.18
489.93	2084.83
490.13	1955.81
490.33	1935.33
490.53	2009.06
490.73	2033.63
490.94	1923.04
491.14	2023.39
491.34	2103.26
491.54	2285.53
491.74	2928.60
491.94	3551.18
492.14	3794.89
492.34	3841.99
492.54	3563.47
492.75	2936.79
492.95	2791.38
493.15	2764.76
493.35	2707.41
493.55	2609.11
493.75	2467.80
493.95	2459.61
494.15	2301.92
494.35	2148.32
494.56	2127.84
494.76	2037.73
494.96	2037.73
495.16	1953.76
495.36	1933.28
495.56	1910.75
495.76	1961.95
495.96	1904.61
496.16	1931.23
496.36	2103.26
496.56	1982.43
496.77	1984.48
496.97	1972.19
497.17	2084.83
497.37	1861.60
497.57	2011.11
497.77	1964.00
497.97	1918.95
498.17	2039.78
498.37	1994.72
498.57	2101.22
498.77	1939.43
498.97	2025.44
499.17	2050.02
499.38	1972.19
499.58	1976.29
499.78	1988.58
499.98	2052.06
500.18	1966.05
500.38	1882.08
500.58	2140.13
500.78	2611.16
500.98	4769.72
501.18	6928.28
501.38	8648.57
501.58	9551.73
501.78	9394.03
501.98	7587.72
502.18	6270.88
502.38	5255.09
502.58	4878.26
502.78	4429.76
502.98	4253.63
503.18	4085.70
503.38	3708.87
503.59	3135.44
503.79	3102.67
503.99	2715.61
504.19	2547.67
504.39	2625.50
504.59	2680.79
504.79	2592.73
504.99	2506.71
505.19	2357.21
505.39	2299.87
505.59	2318.30
505.79	2297.82
505.99	2220.00
506.19	2097.12
506.39	2209.76
506.59	1988.58
506.79	2068.45
506.99	2164.70
507.19	1992.67
507.39	1974.24
507.59	2015.20
507.79	1890.28
507.99	1925.09
508.19	1994.72
508.39	2009.06
508.59	1970.15
508.79	2037.73
508.99	2152.42
509.19	1927.14
509.39	2015.20
509.59	1959.91
509.79	1910.75
509.99	1996.77
510.19	2050.02
510.39	2031.58
510.59	1994.72
510.79	1863.65
510.99	1902.56
511.19	1961.95
511.39	2154.46
511.59	2084.83
511.79	2019.30
511.99	2004.96
512.19	2164.70
512.38	1947.62
512.58	1918.95
512.78	1953.76
512.98	2097.12
513.18	2142.18
513.38	1906.66
513.58	2088.93
513.78	1978.34
513.98	1961.95
514.18	1945.57
514.38	1976.29
514.58	2011.11
514.78	1966.05
514.98	1847.27
515.18	1966.05
515.38	1900.52
515.58	2095.07
515.78	2029.54
515.98	1941.47
516.18	2023.39
516.38	2047.97
516.57	1871.84
516.77	1976.29
516.97	1994.72
517.17	1953.76
517.37	1828.84
517.57	2078.69
517.77	1986.53
517.97	1996.77
518.17	2109.41
518.37	1943.52
518.57	2013.15
518.77	1957.86
518.97	1916.90
519.16	2029.54
519.36	2119.65
519.56	1949.67
519.76	1990.63
519.96	1996.77
520.16	2111.46
520.36	1884.13
520.56	2093.02
520.76	1970.15
520.96	1959.91
521.16	2099.17
521.35	2011.11
521.55	2066.40
521.75	1949.67
521.95	2043.87
522.15	1931.23
522.35	1875.94
522.55	1964.00
522.75	2090.98
522.95	1906.66
523.14	1912.80
523.34	1990.63
523.54	1929.19
523.74	2090.98
523.94	1937.38
524.14	1869.80
524.34	2066.40
524.54	2050.02
524.73	1947.62
524.93	2050.02
525.13	2019.30
525.33	1943.52
525.53	2203.61
525.73	2043.87
525.93	1945.57
526.13	1943.52
526.32	2031.58
526.52	2070.50
526.72	2107.36
526.92	1906.66
527.12	1949.67
527.32	1898.47
527.52	2019.30
527.71	1959.91
527.91	1916.90
528.11	2015.20
528.31	1959.91
528.51	1902.56
528.71	2007.01
528.90	2013.15
529.10	1996.77
529.30	2080.74
529.50	1824.74
529.70	2074.59
529.90	1859.56
530.09	2015.20
530.29	1904.61
530.49	1943.52
530.69	2181.09
530.89	1951.71
531.09	2035.68
531.28	1972.19
531.48	2076.64
531.68	2004.96
531.88	1980.39
532.08	1994.72
532.28	1880.04
532.47	2050.02
532.67	2035.68
532.87	2025.44
533.07	1931.23
533.27	2025.44
533.46	1945.57
533.66	2056.16
533.86	1992.67
534.06	1996.77
534.26	2027.49
534.45	1949.67
534.65	2056.16
534.85	2029.54
535.05	1941.47
535.25	2056.16
535.44	1884.13
535.64	2054.11
535.84	1970.15
536.04	1939.43
536.24	1929.19
536.43	1918.95
536.63	1988.58
536.83	1918.95
537.03	1957.86
537.22	1884.13
537.42	1865.70
537.62	2043.87
537.82	1955.81
538.02	2097.12
538.21	2035.68
538.41	2238.43
538.61	2033.63
538.81	1920.99
539.00	2047.97
539.20	1968.10
539.40	1968.10
539.60	2025.44
539.79	2009.06
539.99	1996.77
540.19	1951.71
540.39	2007.01
540.58	1980.39
540.78	2095.07
540.98	1992.67
541.18	2033.63
541.37	1998.82
541.57	1951.71
541.77	2015.20
541.97	1877.99
542.16	1857.51
542.36	2007.01
542.56	1916.90
542.76	2152.42
542.95	2004.96
543.15	2043.87
543.35	2064.35
543.54	1867.75
543.74	1968.10
543.94	2035.68
544.14	1986.53
544.33	2027.49
544.53	1929.19
544.73	2021.35
544.93	1990.63
545.12	1937.38
545.32	2019.30
545.52	1964.00
545.71	1912.80
545.91	1929.19
546.11	1927.14
546.30	1947.62
546.50	2013.15
546.70	1990.63
546.90	1945.57
547.09	1773.54
547.29	1961.95
547.49	2027.49
547.68	1929.19
547.88	1902.56
548.08	2062.30
548.27	2465.75
548.47	1898.47
548.67	2000.87
548.87	1980.39
549.06	1892.32
549.26	2027.49
549.46	2011.11
549.65	1908.71
549.85	2043.87
550.05	2033.63
550.24	1886.18
550.44	2047.97
550.64	2031.58
550.83	2078.69
551.03	2080.74
551.23	2033.63
551.42	1988.58
551.62	1904.61
551.82	2017.25
552.01	1923.04
552.21	1998.82
552.41	1933.28
552.60	2086.88
552.80	2011.11
553.00	1882.08
553.19	2004.96
553.39	2121.70
553.59	1918.95
553.78	2080.74
553.98	2004.96
554.17	1908.71
554.37	2052.06
554.57	2097.12
554.76	1877.99
554.96	1957.86
555.16	1961.95
555.35	1980.39
555.55	2023.39
555.75	1951.71
555.94	2031.58
556.14	1869.80
556.33	1992.67
556.53	1957.86
556.73	1939.43
556.92	2058.21
557.12	2035.68
557.32	2043.87
557.51	2070.50
557.71	1906.66
557.90	2045.92
558.10	2050.02
558.30	1994.72
558.49	1949.67
558.69	2000.87
558.88	2035.68
559.08	1968.10
559.28	1984.48
559.47	1998.82
559.67	1976.29
559.86	2166.75
560.06	1994.72
560.26	1923.04
560.45	2050.02
560.65	1990.63
560.84	2031.58
561.04	1898.47
561.24	2105.31
561.43	1953.76
561.63	2093.02
561.82	2021.35
562.02	2002.91
562.22	1882.08
562.41	1931.23
562.61	1947.62
562.80	1916.90
563.00	2205.66
563.19	2023.39
563.39	2017.25
563.59	2002.91
563.78	1863.65
563.98	1771.49
564.17	1920.99
564.37	1896.42
564.56	1974.24
564.76	1947.62
564.96	2095.07
565.15	1984.48
565.35	2115.55
565.54	1916.90
565.74	2052.06
565.93	2013.15
566.13	2029.54
566.32	2002.91
566.52	2111.46
566.71	1959.91
566.91	1996.77
567.11	1964.00
567.30	1947.62
567.50	2050.02
567.69	2045.92
567.89	1957.86
568.08	1902.56
568.28	2041.82
568.47	1906.66
568.67	2019.30
568.86	1990.63
569.06	2058.21
569.25	2004.96
569.45	1816.55
569.64	1970.15
569.84	1959.91
570.04	2025.44
570.23	1931.23
570.43	1890.28
570.62	2050.02
570.82	2052.06
571.01	1857.51
571.21	1906.66
571.40	1927.14
571.60	2090.98
571.79	2062.30
571.99	1994.72
572.18	1923.04
572.38	2009.06
572.57	2007.01
572.77	2037.73
572.96	2095.07
573.16	2013.15
573.35	1955.81
573.55	2058.21
573.74	2019.30
573.94	1994.72
574.13	1939.43
574.33	2097.12
574.52	2107.36
574.71	2025.44
574.91	2095.07
575.10	1968.10
575.30	1923.04
575.49	1929.19
575.69	1957.86
575.88	2097.12
576.08	2060.26
576.27	2140.13
576.47	2017.25
576.66	2238.43
576.86	2125.79
577.05	2017.25
577.25	1951.71
577.44	2140.13
577.64	2011.11
577.83	2050.02
578.02	2009.06
578.22	2105.31
578.41	2136.03
578.61	2021.35
578.80	1933.28
579.00	2039.78
579.19	2000.87
579.39	2019.30
579.58	2037.73
579.77	2033.63
579.97	2088.93
580.16	2090.98
580.36	2039.78
580.55	2142.18
580.75	2035.68
580.94	1988.58
581.13	2183.13
581.33	2162.66
581.52	2072.54
581.72	2193.37
581.91	2154.46
582.11	2045.92
582.30	2086.88
582.49	2047.97
582.69	2136.03
582.88	2072.54
583.08	1984.48
583.27	2009.06
583.47	2074.59
583.66	1990.63
583.85	1974.24
584.05	2007.01
584.24	2029.54
584.44	2011.11
584.63	2099.17
584.82	2265.05
585.02	2189.28
585.21	2230.24
585.41	2209.76
585.60	2142.18
585.79	2226.14
585.99	2246.62
586.18	2166.75
586.37	2596.82
586.57	3956.68
586.76	11593.55
586.96	30473.78
587.15	44391.77
587.34	54676.67
587.54	59767.92
587.73	55942.31
587.93	39415.21
588.12	29642.30
588.31	23762.58
588.51	20602.57
588.70	18751.20
588.89	17422.07
589.09	15210.26
589.28	13223.73
589.47	10786.65
589.67	8578.94
589.86	6641.56
590.06	4921.27
590.25	3848.13
590.44	3119.06
590.64	2686.94
590.83	2377.69
591.02	2248.67
591.22	2271.20
591.41	2056.16
591.60	2066.40
591.80	2176.99
591.99	2009.06
592.18	2050.02
592.38	2222.05
592.57	1992.67
592.76	2017.25
592.96	2097.12
593.15	2004.96
593.34	2074.59
593.54	1941.47
593.73	2084.83
593.92	2041.82
594.12	2095.07
594.31	2019.30
594.50	2160.61
594.70	2088.93
594.89	2201.57
595.08	1867.75
595.28	2066.40
595.47	2330.59
595.66	2052.06
595.86	1935.33
596.05	2002.91
596.24	2011.11
596.43	2195.42
596.63	2111.46
596.82	2066.40
597.01	2035.68
597.21	2129.89
597.40	2050.02
597.59	2019.30
597.79	2052.06
597.98	2125.79
598.17	2029.54
598.36	2041.82
598.56	2093.02
598.75	2011.11
598.94	1996.77
599.14	2109.41
599.33	1970.15
599.52	2021.35
599.71	2043.87
599.91	2025.44
600.10	2070.50
600.29	1992.67
600.48	2015.20
600.68	2072.54
600.87	2013.15
601.06	1935.33
601.26	2017.25
601.45	2002.91
601.64	1931.23
601.83	2082.78
602.03	1949.67
602.22	1906.66
602.41	2158.56
602.60	2213.85
602.80	2043.87
602.99	2009.06
603.18	2002.91
603.37	2084.83
603.57	1996.77
603.76	2076.64
603.95	2105.31
604.14	1964.00
604.34	1951.71
604.53	2015.20
604.72	1988.58
604.91	2058.21
605.10	1953.76
605.30	1937.38
605.49	2166.75
605.68	2117.60
605.87	1998.82
606.07	1906.66
606.26	2056.16
606.45	2039.78
606.64	2058.21
606.84	1914.85
607.03	1941.47
607.22	2123.74
607.41	2021.35
607.60	1994.72
607.80	2019.30
607.99	1953.76
608.18	2019.30
608.37	2070.50
608.56	1886.18
608.76	2072.54
608.95	2150.37
609.14	2172.89
609.33	2156.51
609.52	2201.57
609.72	2138.08
609.91	2111.46
610.10	2025.44
610.29	2070.50
610.48	2101.22
610.68	1978.34
610.87	1949.67
611.06	2031.58
611.25	1892.32
611.44	2117.60
611.63	1996.77
611.83	2033.63
612.02	1933.28
612.21	2115.55
612.40	1884.13
612.59	1953.76
612.79	1880.04
612.98	2009.06
613.17	2185.18
613.36	2002.91
613.55	2211.81
613.74	2101.22
613.93	2133.98
614.13	2252.77
614.32	2185.18
614.51	2277.34
614.70	2056.16
614.89	2064.35
615.08	2138.08
615.28	2420.70
615.47	1929.19
615.66	2054.11
615.85	2072.54
616.04	2195.42
616.23	2064.35
616.42	2115.55
616.62	2080.74
616.81	2050.02
617.00	2011.11
617.19	2088.93
617.38	1945.57
617.57	2076.64
617.76	2084.83
617.95	1966.05
618.15	2090.98
618.34	2140.13
618.53	1896.42
618.72	2109.41
618.91	2136.03
619.10	2033.63
619.29	2023.39
619.48	1990.63
619.68	1945.57
619.87	2039.78
620.06	1914.85
620.25	2068.45
620.44	1978.34
620.63	1943.52
620.82	1904.61
621.01	2000.87
621.20	1937.38
621.39	2041.82
621.59	2027.49
621.78	1961.95
621.97	1988.58
622.16	2041.82
622.35	1933.28
622.54	2066.40
622.73	2066.40
622.92	1873.89
623.11	2121.70
623.30	2033.63
623.49	1986.53
623.68	1880.04
623.88	2060.26
624.07	1964.00
624.26	1966.05
624.45	2039.78
624.64	1984.48
624.83	1992.67
625.02	1943.52
625.21	1947.62
625.40	2041.82
625.59	2074.59
625.78	2011.11
625.97	2103.26
626.16	2160.61
626.35	2172.89
626.54	2078.69
626.74	2181.09
626.93	2062.30
627.12	2011.11
627.31	2101.22
627.50	2109.41
627.69	2029.54
627.88	1914.85
628.07	2015.20
628.26	1814.50
628.45	1943.52
628.64	1886.18
628.83	2080.74
629.02	1861.60
629.21	2021.35
629.40	1984.48
629.59	1943.52
629.78	1906.66
629.97	1996.77
630.16	2054.11
630.35	1953.76
630.54	1986.53
630.73	1914.85
630.92	1992.67
631.11	1927.14
631.30	2017.25
631.49	2105.31
631.68	1931.23
631.87	1982.43
632.06	1925.09
632.25	2179.04
632.44	2068.45
632.63	2031.58
632.82	2082.78
633.01	2072.54
633.20	2099.17
633.39	2111.46
633.58	1933.28
633.77	2064.35
633.96	2084.83
634.15	1968.10
634.34	2047.97
634.53	1998.82
634.72	1914.85
634.91	1888.23
635.10	2009.06
635.29	2060.26
635.48	1978.34
635.67	1886.18
635.86	1900.52
636.05	2103.26
636.24	1996.77
636.43	1941.47
636.62	1968.10
636.81	1800.16
637.00	2019.30
637.19	1947.62
637.38	2045.92
637.57	2021.35
637.76	2068.45
637.95	2072.54
638.14	2099.17
638.33	2107.36
638.52	2058.21
638.71	1898.47
638.89	2029.54
639.08	2215.90
639.27	2136.03
639.46	2242.53
639.65	2641.88
639.84	2650.07
640.03	2793.43
640.22	2824.15
640.41	2813.91
640.60	2332.64
640.79	2303.96
640.98	2170.85
641.17	2322.40
641.36	2252.77
641.55	2097.12
641.74	2070.50
641.92	1980.39
642.11	1974.24
642.30	1937.38
642.49	1918.95
642.68	1898.47
642.87	1980.39
643.06	1996.77
643.25	1941.47
643.44	1871.84
643.63	1908.71
643.82	2058.21
644.00	2002.91
644.19	1968.10
644.38	1908.71
644.57	1941.47
644.76	1916.90
644.95	2011.11
645.14	1947.62
645.33	1933.28
645.52	1955.81
645.71	1886.18
645.89	1937.38
646.08	1925.09
646.27	1906.66
646.46	2154.46
646.65	1888.23
646.84	1980.39
647.03	1937.38
647.22	1972.19
647.40	1974.24
647.59	1920.99
647.78	1892.32
647.97	1900.52
648.16	1812.45
648.35	2027.49
648.54	2060.26
648.73	1970.15
648.91	2031.58
649.10	1984.48
649.29	1968.10
649.48	1945.57
649.67	2021.35
649.86	2088.93
650.05	2076.64
650.23	2211.81
650.42	2078.69
650.61	2232.29
650.80	2187.23
650.99	2220.00
651.18	2146.27
651.36	2080.74
651.55	2000.87
651.74	2021.35
651.93	1980.39
652.12	1968.10
652.31	1982.43
652.49	1949.67
652.68	2002.91
652.87	2115.55
653.06	2015.20
653.25	2185.18
653.44	2029.54
653.62	2101.22
653.81	1994.72
654.00	2035.68
654.19	1947.62
654.38	2166.75
654.56	2035.68
654.75	2017.25
654.94	2045.92
655.13	1964.00
655.32	2035.68
655.51	1980.39
655.69	1904.61
655.88	2011.11
656.07	1914.85
656.26	2023.39
656.45	1865.70
656.63	2072.54
656.82	1908.71
657.01	2064.35
657.20	1976.29
657.38	2033.63
657.57	1957.86
657.76	1865.70
657.95	2056.16
658.14	2015.20
658.32	1918.95
658.51	1929.19
658.70	1949.67
658.89	2009.06
659.08	1964.00
659.26	2121.70
659.45	1935.33
659.64	2043.87
659.83	1961.95
660.01	2246.62
660.20	2011.11
660.39	2179.04
660.58	1894.37
660.76	2033.63
660.95	1916.90
661.14	1992.67
661.33	1898.47
661.51	1912.80
661.70	2050.02
661.89	1982.43
662.08	1933.28
662.26	1900.52
662.45	1880.04
662.64	2062.30
662.83	2027.49
663.01	1818.60
663.20	1863.65
663.39	2152.42
663.58	1927.14
663.76	1923.04
663.95	1966.05
664.14	1953.76
664.32	1970.15
664.51	1923.04
664.70	1818.60
664.89	1933.28
665.07	1873.89
665.26	2082.78
665.45	1906.66
665.64	1984.48
665.82	2076.64
666.01	2045.92
666.20	1951.71
666.38	2162.66
666.57	2107.36
666.76	2842.58
666.95	6657.95
667.13	14972.70
667.32	20932.29
667.51	24770.18
667.69	26783.34
667.88	25691.77
668.07	18536.17
668.25	14481.19
668.44	11706.19
668.63	10159.97
668.81	8804.22
669.00	7665.55
669.19	6999.96
669.38	6002.60
669.56	5339.05
669.75	4210.62
669.94	3592.14
670.12	3063.76
670.31	2668.50
670.50	2478.04
670.68	2265.05
670.87	2131.94
671.06	2105.31
671.24	2070.50
671.43	2164.70
671.62	2027.49
671.80	1980.39
671.99	2023.39
672.18	2031.58
672.36	2062.30
672.55	2015.20
672.74	1988.58
672.92	1988.58
673.11	2088.93
673.29	1916.90
673.48	2029.54
673.67	1968.10
673.85	2027.49
674.04	1865.70
674.23	1923.04
674.41	2123.74
674.60	1968.10
674.79	1916.90
674.97	1945.57
675.16	2023.39
675.34	1996.77
675.53	1859.56
675.72	1943.52
675.90	2054.11
676.09	1959.91
676.28	1980.39
676.46	1837.03
676.65	2105.31
676.83	1929.19
677.02	1925.09
677.21	1951.71
677.39	1986.53
677.58	1900.52
677.77	1947.62
677.95	1904.61
678.14	1949.67
678.32	2023.39
678.51	1882.08
678.70	2168.80
678.88	1935.33
679.07	2062.30
679.25	1966.05
679.44	1998.82
679.63	1925.09
679.81	1961.95
680.00	2031.58
680.18	2011.11
680.37	1998.82
680.55	2041.82
680.74	1849.32
680.93	1884.13
681.11	2047.97
681.30	1896.42
681.48	2043.87
681.67	1941.47
681.85	1994.72
682.04	1902.56
682.23	2070.50
682.41	1957.86
682.60	1900.52
682.78	1916.90
682.97	1806.31
683.15	1984.48
683.34	1970.15
683.53	2088.93
683.71	1886.18
683.90	2113.50
684.08	2176.99
684.27	1978.34
684.45	2015.20
684.64	2062.30
684.82	1927.14
685.01	1980.39
685.19	1935.33
685.38	2037.73
685.57	1927.14
685.75	1869.80
685.94	1923.04
686.12	1923.04
686.31	1849.32
686.49	2088.93
686.68	1853.41
686.86	2013.15
687.05	1904.61
687.23	2117.60
687.42	1914.85
687.60	1916.90
687.79	2011.11
687.97	2027.49
688.16	2045.92
688.34	2029.54
688.53	1777.64
688.71	1976.29
688.90	2004.96
689.08	1916.90
689.27	1796.07
689.45	2054.11
689.64	2021.35
689.82	1988.58
690.01	2021.35
690.19	2031.58
690.38	1941.47
690.56	2015.20
690.75	1992.67
690.93	1912.80
691.12	1984.48
691.30	1978.34
691.49	1949.67
691.67	1986.53
691.86	2144.22
692.04	1943.52
692.23	1959.91
692.41	2103.26
692.60	2236.38
692.78	2095.07
692.97	2066.40
693.15	2154.46
693.34	2146.27
693.52	2043.87
693.71	1877.99
693.89	1970.15
694.08	1851.36
694.26	2041.82
694.44	2086.88
694.63	2062.30
694.81	1892.32
695.00	1880.04
695.18	1970.15
695.37	2121.70
695.55	1984.48
695.74	1888.23
695.92	1959.91
696.10	2050.02
696.29	1781.73
696.47	1970.15
696.66	1894.37
696.84	1916.90
697.03	1920.99
697.21	2148.32
697.40	2688.98
697.58	2095.07
697.76	2025.44
697.95	1947.62
698.13	1929.19
698.32	1929.19
698.50	1976.29
698.68	2050.02
698.87	1990.63
699.05	2021.35
699.24	2019.30
699.42	1923.04
699.61	1984.48
699.79	1970.15
699.97	1937.38
700.16	1873.89
700.34	1886.18
700.53	1990.63
700.71	2039.78
700.89	2007.01
701.08	1998.82
701.26	2017.25
701.45	2420.70
701.63	1931.23
701.81	1906.66
702.00	1851.36
702.18	1949.67
702.37	1996.77
702.55	2183.13
702.73	2209.76
702.92	2154.46
703.10	2387.93
703.28	2203.61
703.47	2084.83
703.65	2187.23
703.84	2166.75
704.02	2015.20
704.20	2197.47
704.39	2109.41
704.57	1982.43
704.75	2150.37
704.94	2093.02
705.12	2054.11
705.30	2220.00
705.49	3659.72
705.67	9262.96
705.86	18411.24
706.04	23346.84
706.22	27059.81
706.41	28802.63
706.59	25921.14
706.77	18214.63
706.96	14395.17
707.14	12531.52
707.32	10942.30
707.51	9635.69
707.69	8138.63
707.87	6700.95
708.06	5291.95
708.24	4120.51
708.42	3223.50
708.61	2895.83
708.79	2340.83
708.97	2277.34
709.16	2199.52
709.34	2140.13
709.52	1992.67
709.71	2039.78
709.89	1980.39
710.07	1974.24
710.26	1996.77
710.44	1953.76
710.62	2078.69
710.80	1980.39
710.99	1953.76
711.17	2107.36
711.35	1882.08
711.54	1853.41
711.72	2072.54
711.90	1980.39
712.09	2025.44
712.27	1892.32
712.45	2023.39
712.63	1935.33
712.82	1941.47
713.00	2029.54
713.18	2076.64
713.37	2002.91
713.55	1998.82
713.73	1943.52
713.91	1974.24
714.10	1949.67
714.28	1888.23
714.46	2056.16
714.65	1966.05
714.83	1978.34
715.01	1939.43
715.19	2043.87
715.38	1935.33
715.56	1972.19
715.74	1865.70
715.92	1880.04
716.11	2093.02
716.29	1789.92
716.47	2023.39
716.65	1882.08
716.84	1789.92
717.02	1998.82
717.20	1908.71
717.38	1955.81
717.57	1964.00
717.75	1908.71
717.93	1947.62
718.11	1996.77
718.30	1902.56
718.48	1980.39
718.66	2066.40
718.84	1978.34
719.03	1875.94
719.21	1904.61
719.39	2115.55
719.57	1974.24
719.75	2097.12
719.94	1888.23
720.12	1947.62
720.30	2025.44
720.48	2070.50
720.67	1869.80
720.85	1908.71
721.03	1880.04
721.21	1888.23
721.39	2002.91
721.58	1964.00
721.76	2043.87
721.94	1970.15
722.12	1908.71
722.30	2043.87
722.49	2007.01
722.67	2002.91
722.85	1902.56
723.03	1845.22
723.21	1935.33
723.40	1996.77
723.58	2060.26
723.76	2086.88
723.94	2121.70
724.12	2056.16
724.30	2144.22
724.49	2133.98
724.67	1894.37
724.85	2103.26
725.03	1904.61
725.21	2076.64
725.40	2133.98
725.58	2000.87
725.76	2107.36
725.94	1955.81
726.12	1982.43
726.30	1968.10
726.49	1970.15
726.67	1906.66
726.85	1982.43
727.03	2224.09
727.21	3151.82
727.39	4939.70
727.57	6176.67
727.76	6838.17
727.94	7276.43
728.12	7020.44
728.30	5932.97
728.48	4687.80
728.66	4429.76
728.84	3909.57
729.03	3387.34
729.21	2992.08
729.39	2680.79
729.57	2295.77
729.75	2209.76
729.93	2142.18
730.11	2023.39
730.30	1943.52
730.48	2002.91
730.66	2023.39
730.84	2000.87
731.02	1941.47
731.20	1927.14
731.38	1933.28
731.56	1941.47
731.74	1949.67
731.93	1982.43
732.11	1974.24
732.29	1980.39
732.47	1984.48
732.65	1978.34
732.83	2064.35
733.01	1906.66
733.19	1882.08
733.37	1970.15
733.56	1986.53
733.74	1941.47
733.92	2054.11
734.10	1886.18
734.28	2021.35
734.46	1863.65
734.64	1941.47
734.82	1896.42
735.00	1912.80
735.18	1912.80
735.36	2015.20
735.54	2013.15
735.73	1943.52
735.91	1980.39
736.09	2050.02
736.27	1980.39
736.45	1980.39
736.63	1789.92
736.81	1972.19
736.99	2019.30
737.17	2054.11
737.35	1863.65
737.53	1992.67
737.71	1871.84
737.89	2133.98
738.07	1918.95
738.25	1863.65
738.43	1828.84
738.61	2047.97
738.80	1949.67
738.98	1980.39
739.16	1943.52
739.34	1890.28
739.52	2037.73
739.70	1947.62
739.88	1986.53
740.06	2052.06
740.24	1773.54
740.42	2002.91
740.60	1837.03
740.78	1980.39
740.96	1904.61
741.14	1959.91
741.32	1994.72
741.50	1882.08
741.68	2195.42
741.86	2015.20
742.04	1849.32
742.22	1882.08
742.40	1970.15
742.58	1964.00
742.76	1896.42
742.94	2068.45
743.12	1841.12
743.30	1943.52
743.48	2023.39
743.66	1972.19
743.84	1894.37
744.02	1951.71
744.20	1941.47
744.38	1894.37
744.56	1877.99
744.74	2168.80
744.92	2023.39
745.10	2105.31
745.28	2011.11
745.46	2068.45
745.64	1986.53
745.82	2033.63
746.00	1925.09
746.18	2039.78
746.36	1849.32
746.54	2035.68
746.72	1931.23
746.90	1865.70
747.08	2052.06
747.26	1931.23
747.44	1970.15
747.62	2043.87
747.80	2002.91
747.98	2088.93
748.15	1927.14
748.33	2170.85
748.51	2004.96
748.69	2029.54
748.87	1863.65
749.05	1857.51
749.23	1980.39
749.41	1984.48
749.59	1945.57
749.77	2070.50
749.95	1892.32
750.13	1939.43
750.31	1980.39
750.49	1945.57
750.67	1990.63
750.85	2064.35
751.03	2000.87
751.20	2129.89
751.38	1939.43
751.56	1892.32
751.74	1939.43
751.92	1945.57
752.10	1918.95
752.28	2068.45
752.46	1871.84
752.64	1974.24
752.82	2002.91
753.00	2039.78
753.18	1925.09
753.35	1990.63
753.53	1959.91
753.71	1927.14
753.89	2009.06
754.07	1937.38
754.25	2050.02
754.43	1968.10
754.61	1896.42
754.79	1961.95
754.97	1947.62
755.14	1959.91
755.32	1847.27
755.50	1998.82
755.68	2031.58
755.86	1822.69
756.04	1832.93
756.22	1837.03
756.40	2004.96
756.57	2056.16
756.75	2025.44
756.93	2064.35
757.11	2033.63
757.29	1855.46
757.47	1882.08
757.65	1849.32
757.82	1880.04
758.00	1896.42
758.18	1894.37
758.36	1869.80
758.54	2074.59
758.72	1947.62
758.90	2060.26
759.07	1951.71
759.25	1884.13
759.43	1961.95
759.61	1869.80
759.79	2580.44
759.97	2101.22
760.15	1918.95
760.32	1943.52
760.50	2031.58
760.68	2074.59
760.86	1853.41
761.04	2138.08
761.22	2002.91
761.39	1964.00
761.57	2017.25
761.75	1830.88
761.93	2021.35
762.11	1884.13
762.28	1943.52
762.46	1916.90
762.64	1990.63
762.82	1947.62
763.00	1945.57
763.18	2136.03
763.35	1937.38
763.53	2029.54
763.71	2021.35
763.89	1888.23
764.07	1949.67
764.24	1996.77
764.42	1984.48
764.60	1886.18
764.78	1986.53
764.96	2009.06
765.13	1951.71
765.31	2041.82
765.49	1972.19
765.67	1904.61
765.84	1916.90
766.02	1914.85
766.20	1918.95
766.38	1939.43
766.56	2043.87
766.73	2101.22
766.91	1918.95
767.09	2002.91
767.27	1998.82
767.44	1871.84
767.62	2025.44
767.80	1961.95
767.98	1900.52
768.15	1959.91
768.33	1961.95
768.51	1943.52
768.69	1990.63
768.87	1910.75
769.04	1978.34
769.22	2138.08
769.40	2019.30
769.58	2166.75
769.75	1937.38
769.93	2025.44
770.11	1918.95
770.28	1906.66
770.46	1974.24
770.64	1910.75
770.82	1882.08
770.99	1861.60
771.17	2015.20
771.35	1970.15
771.53	1996.77
771.70	1920.99
771.88	1996.77
772.06	1873.89
772.23	1939.43
772.41	2007.01
772.59	1918.95
772.77	1945.57
772.94	1933.28
773.12	1964.00
773.30	1976.29
773.47	1906.66
773.65	1906.66
773.83	2103.26
774.01	1986.53
774.18	1798.12
774.36	1953.76
774.54	1834.98
774.71	1933.28
774.89	1896.42
775.07	1816.55
775.24	1882.08
775.42	1898.47
775.60	2082.78
775.78	1888.23
775.95	1890.28
776.13	1857.51
776.31	1894.37
776.48	1916.90
776.66	2060.26
776.84	1824.74
777.01	1931.23
777.19	1943.52
777.37	1853.41
777.54	1966.05
777.72	2086.88
777.90	1920.99
778.07	1830.88
778.25	2176.99
778.43	1955.81
778.60	1834.98
778.78	2019.30
778.96	2058.21
779.13	1898.47
779.31	2013.15
779.49	1947.62
779.66	1970.15
779.84	1939.43
780.01	1929.19
780.19	1888.23
780.37	2052.06
780.54	2039.78
780.72	1877.99
780.90	1900.52
781.07	1920.99
781.25	1882.08
781.43	1959.91
781.60	1933.28
781.78	2035.68
781.95	1980.39
782.13	1871.84
782.31	1953.76
782.48	1894.37
782.66	1961.95
782.83	2056.16
783.01	2009.06
783.19	1988.58
783.36	1951.71
783.54	1902.56
783.72	2076.64
783.89	1900.52
784.07	1951.71
784.24	1918.95
784.42	2115.55
784.60	1984.48
784.77	2056.16
784.95	1851.36
785.12	1970.15
785.30	2000.87
785.47	1843.17
785.65	1970.15
785.83	1937.38
786.00	1943.52
786.18	1916.90
786.35	1857.51
786.53	1970.15
786.71	1998.82
786.88	1968.10
787.06	1966.05
787.23	1951.71
787.41	1910.75
787.58	1880.04
787.76	1877.99
787.94	1925.09
788.11	2080.74
788.29	1900.52
788.46	1900.52
788.64	1845.22
788.81	1949.67
788.99	1884.13
789.16	1877.99
789.34	1925.09
789.52	1920.99
789.69	1974.24
789.87	1796.07
790.04	1898.47
790.22	1964.00
790.39	2078.69
790.57	1933.28
790.74	1968.10
790.92	1961.95
791.09	1820.64
791.27	1984.48
791.44	2039.78
791.62	1886.18
791.79	1994.72
791.97	1896.42
792.15	2099.17
792.32	2027.49
792.50	1984.48
792.67	2070.50
792.85	2060.26
793.02	2017.25
793.20	1984.48
793.37	1845.22
793.55	1980.39
793.72	1869.80
793.90	2000.87
794.07	1910.75
794.25	1880.04
794.42	1955.81
794.60	1982.43
794.77	2058.21
794.95	1955.81
795.12	2013.15
795.30	1992.67
795.47	1857.51
795.65	2189.28
795.82	2015.20
796.00	1869.80
796.17	1910.75
796.34	1890.28
796.52	1937.38
796.69	2021.35
796.87	1959.91
797.04	1949.67
797.22	2072.54
797.39	2019.30
797.57	2037.73
797.74	1988.58
797.92	1923.04
798.09	1918.95
798.27	2107.36
798.44	1955.81
798.62	1859.56
798.79	2027.49
798.96	1982.43
799.14	1920.99
799.31	2207.71
799.49	1949.67
799.66	1867.75
799.84	1982.43
800.01	1894.37
800.19	2090.98
800.36	1785.83
800.53	1964.00
800.71	2023.39
800.88	2099.17
801.06	1892.32
801.23	1939.43
801.41	1906.66
801.58	1894.37
801.75	1882.08
801.93	1949.67
802.10	1998.82
802.28	1935.33
802.45	1884.13
802.63	1976.29
802.80	2002.91
802.97	1931.23
803.15	1935.33
803.32	1998.82
803.50	1849.32
803.67	1906.66
803.84	1863.65
804.02	1986.53
804.19	1929.19
804.37	1816.55
804.54	1873.89
804.71	1980.39
804.89	1890.28
805.06	1927.14
805.24	1859.56
805.41	1896.42
805.58	1925.09
805.76	2156.51
805.93	1980.39
806.10	2152.42
806.28	1978.34
806.45	1927.14
806.63	1953.76
806.80	1953.76
806.97	1998.82
807.15	1955.81
807.32	1970.15
807.49	1986.53
807.67	1888.23
807.84	2017.25
808.01	1873.89
808.19	2107.36
808.36	2107.36
808.54	1964.00
808.71	1906.66
808.88	2043.87
809.06	1984.48
809.23	2082.78
809.40	1902.56
809.58	2037.73
809.75	1896.42
809.92	1875.94
810.10	2148.32
810.27	1918.95
810.44	1943.52
810.62	2023.39
810.79	1916.90
810.96	1802.21
811.14	1908.71
811.31	2074.59
811.48	2043.87
811.66	1941.47
811.83	2039.78
812.00	1976.29
812.18	2002.91
812.35	2148.32
812.52	1955.81
812.69	1920.99
812.87	1865.70
813.04	1943.52
813.21	1996.77
813.39	1886.18
813.56	1873.89
813.73	2045.92
813.91	1886.18
814.08	2023.39
814.25	1894.37
814.42	1898.47
814.60	1867.75
814.77	1959.91
814.94	1976.29
815.12	2060.26
815.29	2009.06
815.46	1957.86
815.63	1890.28
815.81	1923.04
815.98	1873.89
816.15	1906.66
816.33	1925.09
816.50	1908.71
816.67	1986.53
816.84	1904.61
817.02	1890.28
817.19	1953.76
817.36	2007.01
817.53	2019.30
817.71	1986.53
817.88	2086.88
818.05	1890.28
818.22	1966.05
818.40	2070.50
818.57	1845.22
818.74	2002.91
818.91	1972.19
819.09	1966.05
819.26	2068.45
819.43	1851.36
819.60	1912.80
819.78	2009.06
819.95	2039.78
820.12	1894.37
820.29	2041.82
820.47	1966.05
820.64	1843.17
820.81	1824.74
820.98	1830.88
821.15	1931.23
821.33	2000.87
821.50	1847.27
821.67	1982.43
821.84	1841.12
822.02	1976.29
822.19	1978.34
822.36	1976.29
822.53	2002.91
822.70	1916.90
822.88	1880.04
823.05	2027.49
823.22	1923.04
823.39	2033.63
823.56	1996.77
823.74	2035.68
823.91	1894.37
824.08	1855.46
824.25	1873.89
824.42	2148.32
824.60	1923.04
824.77	2035.68
824.94	1951.71
825.11	2025.44
825.28	1851.36
825.45	1972.19
825.63	1937.38
825.80	1951.71
825.97	1996.77
826.14	1941.47
826.31	1820.64
826.48	1951.71
826.66	1890.28
826.83	1912.80
827.00	1894.37
827.17	1925.09
827.34	1877.99
827.51	1970.15
827.69	1949.67
827.86	1908.71
828.03	1982.43
828.20	1935.33
828.37	1906.66
828.54	1953.76
828.71	1904.61
828.89	2054.11
829.06	1933.28
829.23	2058.21
829.40	1961.95
829.57	1906.66
829.74	1994.72
829.91	1888.23
830.09	1955.81
830.26	1968.10
830.43	2000.87
830.60	1884.13
830.77	2013.15
830.94	2002.91
831.11	1988.58
831.28	1982.43
831.46	1982.43
831.63	1834.98
831.80	1986.53
831.97	1882.08
832.14	1859.56
832.31	2007.01
832.48	1935.33
832.65	2084.83
832.82	1996.77
832.99	1972.19
833.17	1841.12
833.34	2056.16
833.51	1931.23
833.68	1800.16
833.85	1984.48
834.02	1892.32
834.19	1857.51
834.36	1898.47
834.53	1970.15
834.70	2064.35
834.87	1986.53
835.04	1925.09
835.22	1947.62
835.39	1904.61
835.56	1890.28
835.73	1869.80
835.90	2084.83
836.07	1873.89
836.24	1959.91
836.41	1853.41
836.58	1820.64
836.75	2090.98
836.92	1970.15
837.09	1927.14
837.26	2031.58
837.43	2023.39
837.60	1949.67
837.77	1972.19
837.94	2025.44
838.12	2080.74
838.29	1943.52
838.46	1816.55
838.63	1851.36
838.80	2037.73
838.97	2056.16
839.14	1992.67
839.31	1939.43
839.48	2035.68
839.65	1920.99
839.82	2050.02
839.99	1912.80
840.16	1953.76
840.33	1970.15
840.50	1986.53
840.67	1861.60
840.84	1775.59
841.01	1984.48
841.18	1882.08
841.35	1978.34
841.52	1990.63
841.69	2031.58
841.86	1933.28
842.03	1806.31
842.20	2041.82
842.37	1976.29
842.54	1923.04
842.71	1945.57
842.88	1884.13
843.05	1988.58
843.22	1882.08
843.39	1990.63
843.56	1884.13
843.73	1914.85
843.90	1976.29
844.07	2000.87
844.24	2035.68
844.41	2027.49
844.58	1931.23
844.75	1966.05
844.92	1894.37
845.09	1916.90
845.26	1841.12
845.43	2023.39
845.60	1974.24
845.77	1949.67
845.94	1947.62
846.10	2007.01
846.27	1867.75
846.44	1945.57
846.61	1894.37
846.78	2035.68
846.95	2015.20
847.12	1916.90
847.29	1898.47
847.46	1912.80
847.63	2064.35
847.80	1906.66
847.97	1914.85
848.14	2084.83
848.31	1996.77
848.48	1886.18
848.65	1978.34
848.82	1849.32
848.98	2160.61
849.15	1976.29
849.32	2068.45
849.49	2033.63
849.66	2017.25
849.83	2002.91
850.00	1898.47
850.17	2062.30
850.34	1947.62
850.51	1908.71
850.68	1935.33
850.85	2105.31
851.01	1992.67
851.18	2035.68
851.35	1927.14
851.52	2013.15
851.69	2050.02
851.86	1863.65
852.03	1841.12
852.20	2050.02
852.37	1939.43
852.53	1904.61
852.70	1937.38
852.87	1935.33
853.04	1939.43
853.21	1861.60
853.38	1976.29
853.55	2066.40
853.72	2058.21
853.89	1914.85
854.05	1847.27
854.22	1882.08
854.39	1902.56
854.56	1996.77
854.73	1994.72
854.90	1888.23
855.07	1896.42
855.23	1894.37
855.40	1894.37
855.57	1923.04
855.74	1843.17
855.91	2181.09
856.08	1830.88
856.25	1814.50
856.41	1947.62
856.58	1904.61
856.75	1937.38
856.92	1894.37
857.09	2025.44
857.26	1882.08
857.42	1964.00
857.59	2035.68
857.76	1880.04
857.93	1943.52
858.10	2000.87
858.27	1859.56
858.43	1945.57
858.60	1931.23
858.77	1832.93
858.94	1867.75
859.11	2027.49
859.27	2002.91
859.44	1957.86
859.61	2148.32
859.78	1998.82
859.95	1929.19
860.12	1882.08
860.28	2113.50
860.45	2123.74
860.62	1937.38
860.79	2035.68
860.95	1929.19
861.12	1912.80
861.29	1939.43
861.46	1828.84
861.63	2000.87
861.79	1923.04
861.96	1884.13
862.13	1908.71
862.30	2080.74
862.47	1910.75
862.63	1882.08
862.80	2025.44
862.97	2045.92
863.14	1964.00
863.30	1931.23
863.47	1871.84
863.64	1966.05
863.81	1957.86
863.97	1863.65
864.14	1996.77
864.31	1945.57
864.48	1935.33
864.65	1951.71
864.81	1982.43
864.98	1937.38
865.15	2029.54
865.32	1976.29
865.48	2025.44
865.65	2058.21
865.82	1925.09
865.98	1939.43
866.15	2027.49
866.32	1937.38
866.49	1877.99
866.65	2004.96
866.82	1812.45
866.99	1898.47
867.16	1927.14
867.32	1886.18
867.49	1939.43
867.66	1916.90
867.83	1927.14
867.99	1888.23
868.16	1931.23
868.33	1875.94
868.49	2015.20
868.66	1873.89
868.83	2021.35
868.99	2029.54
869.16	1933.28
869.33	2013.15
869.50	1980.39
869.66	1873.89
869.83	1904.61
870.00	1859.56
870.16	1982.43
870.33	1906.66
870.50	2025.44
870.66	1966.05
870.83	2043.87
871.00	2088.93
871.17	1955.81
871.33	1980.39
871.50	1890.28
871.67	1951.71
871.83	1865.70
872.00	2007.01
872.17	1929.19
872.33	2117.60
872.50	2035.68
872.67	1927.14
872.83	1900.52
873.00	1951.71
873.17	1904.61
873.33	1984.48
873.50	1947.62
873.67	1855.46
873.83	1884.13
874.00	1914.85
874.16	2009.06
874.33	1955.81
874.50	1867.75
874.66	1947.62
874.83	1865.70
875.00	2037.73
875.16	2033.63
875.33	2052.06
875.50	1775.59
875.66	1904.61
875.83	1949.67
875.99	1896.42
876.16	1884.13
876.33	1902.56
876.49	1935.33
876.66	1920.99
876.83	1959.91
876.99	1867.75
877.16	1978.34
877.32	1865.70
877.49	1898.47
877.66	1970.15
877.82	2113.50
877.99	2043.87
878.15	2023.39
878.32	1918.95
878.49	1970.15
878.65	1910.75
878.82	2013.15
878.98	1998.82
879.15	1990.63
879.32	1972.19
879.48	1923.04
879.65	1925.09
879.81	1865.70
879.98	1855.46
880.15	1947.62
880.31	2064.35
880.48	1912.80
880.64	2004.96
880.81	2058.21
880.97	2035.68
881.14	2093.02
881.31	1882.08
881.47	2111.46
881.64	1961.95
881.80	1867.75
881.97	1984.48
882.13	2029.54
882.30	1847.27
882.47	1972.19
882.63	1910.75
882.80	1927.14
882.96	1961.95
883.13	1996.77
883.29	1974.24
883.46	2017.25
883.62	2160.61
883.79	1953.76
883.95	1957.86
884.12	1920.99
884.29	2056.16
884.45	1896.42
884.62	2045.92
884.78	1837.03
884.95	2023.39
885.11	1951.71
885.28	2023.39
885.44	1990.63
885.61	1996.77
885.77	2105.31
885.94	1941.47
886.10	1918.95
886.27	1953.76
886.43	2084.83
886.60	1996.77
886.76	1992.67
886.93	1906.66
887.09	1953.76
887.26	1779.68
887.42	1902.56
887.59	2039.78
887.75	2095.07
887.92	1959.91
888.08	1933.28
888.25	2082.78
888.41	2013.15
888.58	1968.10
888.74	1849.32
888.91	1875.94
>>>>>End Processed Spectral Data<<<<<
