SpectraSuite Data File
++++++++++++++++++++++++++++++++++++
Date: Wed May 04 22:46:11 CEST 2016
User: root
Dark Spectrum Present: No
Reference Spectrum Present: No
Number of Sampled Component Spectra: 1
Spectrometers: USB4C02835
Integration Time (usec): 100000 (USB4C02835)
Spectra Averaged: 1 (USB4C02835)
Boxcar Smoothing: 0 (USB4C02835)
Correct for Electrical Dark: No (USB4C02835)
Strobe/Lamp Enabled: No (USB4C02835)
Correct for Detector Non-linearity: No (USB4C02835)
Correct for Stray Light: No (USB4C02835)
Number of Pixels in Processed Spectrum: 3648
>>>>>Begin Processed Spectral Data<<<<<
177.47	1570.79
177.69	1570.79
177.91	1570.79
178.13	1687.53
178.36	1646.57
178.58	1867.75
178.80	1972.19
179.02	1847.27
179.24	1970.15
179.46	1892.32
179.68	2011.11
179.90	1992.67
180.13	1929.19
180.35	1863.65
180.57	1970.15
180.79	1996.77
181.01	1912.80
181.23	2000.87
181.45	2054.11
181.67	2054.11
181.90	2039.78
182.12	1871.84
182.34	1820.64
182.56	2009.06
182.78	2007.01
183.00	1964.00
183.22	1871.84
183.44	1798.12
183.66	2119.65
183.89	2082.78
184.11	1980.39
184.33	2052.06
184.55	2041.82
184.77	1888.23
184.99	1980.39
185.21	1953.76
185.43	2162.66
185.65	1880.04
185.87	1914.85
186.10	2174.94
186.32	2156.51
186.54	1898.47
186.76	1976.29
186.98	2002.91
187.20	1951.71
187.42	1931.23
187.64	1998.82
187.86	2013.15
188.08	1988.58
188.30	1978.34
188.52	2000.87
188.75	1972.19
188.97	2076.64
189.19	1882.08
189.41	1923.04
189.63	1941.47
189.85	1933.28
190.07	1900.52
190.29	1830.88
190.51	1978.34
190.73	1880.04
190.95	1990.63
191.17	1976.29
191.39	1816.55
191.61	1943.52
191.84	1925.09
192.06	1984.48
192.28	1845.22
192.50	2199.52
192.72	1957.86
192.94	1955.81
193.16	1982.43
193.38	1943.52
193.60	1824.74
193.82	1970.15
194.04	2095.07
194.26	1918.95
194.48	1996.77
194.70	1941.47
194.92	1986.53
195.14	2088.93
195.36	1906.66
195.58	1894.37
195.80	2011.11
196.02	1908.71
196.24	1857.51
196.46	1959.91
196.69	1863.65
196.91	2138.08
197.13	1937.38
197.35	1910.75
197.57	2072.54
197.79	1957.86
198.01	1976.29
198.23	2015.20
198.45	1990.63
198.67	1865.70
198.89	1939.43
199.11	1980.39
199.33	1902.56
199.55	1824.74
199.77	1927.14
199.99	1984.48
200.21	1849.32
200.43	1968.10
200.65	1873.89
200.87	1779.68
201.09	1904.61
201.31	1845.22
201.53	2021.35
201.75	1900.52
201.97	1998.82
202.19	1882.08
202.41	2017.25
202.63	2093.02
202.85	1990.63
203.07	2011.11
203.29	1890.28
203.51	1863.65
203.73	1943.52
203.95	2199.52
204.17	1982.43
204.39	1996.77
204.61	1986.53
204.83	1929.19
205.05	2009.06
205.27	1970.15
205.49	2064.35
205.71	1953.76
205.93	1832.93
206.15	1910.75
206.37	1918.95
206.59	1904.61
206.81	1910.75
207.03	1841.12
207.25	1910.75
207.47	1961.95
207.69	1845.22
207.91	2095.07
208.13	1990.63
208.34	1931.23
208.56	1875.94
208.78	1988.58
209.00	1843.17
209.22	1877.99
209.44	1927.14
209.66	1861.60
209.88	1923.04
210.10	1947.62
210.32	1902.56
210.54	2045.92
210.76	1931.23
210.98	2119.65
211.20	1736.68
211.42	1933.28
211.64	2039.78
211.86	1988.58
212.08	2011.11
212.30	1961.95
212.52	1947.62
212.74	2029.54
212.96	1955.81
213.17	1943.52
213.39	2031.58
213.61	2058.21
213.83	1974.24
214.05	1898.47
214.27	2007.01
214.49	1880.04
214.71	1785.83
214.93	2000.87
215.15	1982.43
215.37	2007.01
215.59	1832.93
215.81	1949.67
216.03	2125.79
216.24	1974.24
216.46	1867.75
216.68	1957.86
216.90	1968.10
217.12	1949.67
217.34	1892.32
217.56	1937.38
217.78	2027.49
218.00	2000.87
218.22	1982.43
218.44	1976.29
218.66	1873.89
218.87	2162.66
219.09	1853.41
219.31	1966.05
219.53	2015.20
219.75	1841.12
219.97	1939.43
220.19	1892.32
220.41	1970.15
220.63	2031.58
220.85	1970.15
221.06	1902.56
221.28	2017.25
221.50	1927.14
221.72	1941.47
221.94	1931.23
222.16	1964.00
222.38	2090.98
222.60	1968.10
222.82	1984.48
223.03	2000.87
223.25	1916.90
223.47	1980.39
223.69	2097.12
223.91	2041.82
224.13	1904.61
224.35	1892.32
224.57	2017.25
224.78	2015.20
225.00	1822.69
225.22	1980.39
225.44	1961.95
225.66	1990.63
225.88	1923.04
226.10	1961.95
226.32	1953.76
226.53	2050.02
226.75	1892.32
226.97	1884.13
227.19	1923.04
227.41	1873.89
227.63	1964.00
227.85	1863.65
228.06	1871.84
228.28	2019.30
228.50	2086.88
228.72	1918.95
228.94	1863.65
229.16	1845.22
229.37	1882.08
229.59	1873.89
229.81	2033.63
230.03	1955.81
230.25	1826.79
230.47	1925.09
230.69	1818.60
230.90	1968.10
231.12	1927.14
231.34	2015.20
231.56	2050.02
231.78	1920.99
232.00	1961.95
232.21	1941.47
232.43	1908.71
232.65	1845.22
232.87	1947.62
233.09	1902.56
233.30	1927.14
233.52	2023.39
233.74	1861.60
233.96	1906.66
234.18	1939.43
234.40	1943.52
234.61	2045.92
234.83	1785.83
235.05	1841.12
235.27	2213.85
235.49	2068.45
235.70	1920.99
235.92	2062.30
236.14	1939.43
236.36	2199.52
236.58	1843.17
236.79	1961.95
237.01	1937.38
237.23	1970.15
237.45	2062.30
237.67	1894.37
237.88	1961.95
238.10	2105.31
238.32	1859.56
238.54	1886.18
238.76	1964.00
238.97	1830.88
239.19	1834.98
239.41	2000.87
239.63	1986.53
239.85	1851.36
240.06	2011.11
240.28	1871.84
240.50	2027.49
240.72	1953.76
240.93	1949.67
241.15	1988.58
241.37	1964.00
241.59	2142.18
241.81	1904.61
242.02	1923.04
242.24	1933.28
242.46	2013.15
242.68	1851.36
242.89	1896.42
243.11	2027.49
243.33	1873.89
243.55	1964.00
243.76	2021.35
243.98	1810.40
244.20	1972.19
244.42	2033.63
244.64	1949.67
244.85	1892.32
245.07	1869.80
245.29	2013.15
245.51	1912.80
245.72	1961.95
245.94	2039.78
246.16	1880.04
246.38	1939.43
246.59	1933.28
246.81	1892.32
247.03	1863.65
247.24	1812.45
247.46	1902.56
247.68	1978.34
247.90	1888.23
248.11	1914.85
248.33	2011.11
248.55	1986.53
248.77	1951.71
248.98	1923.04
249.20	2043.87
249.42	1947.62
249.64	1972.19
249.85	1882.08
250.07	1873.89
250.29	1957.86
250.50	1976.29
250.72	1849.32
250.94	2002.91
251.16	2127.84
251.37	2043.87
251.59	2009.06
251.81	1982.43
252.02	1996.77
252.24	1980.39
252.46	2064.35
252.68	1951.71
252.89	1908.71
253.11	1814.50
253.33	2045.92
253.54	2078.69
253.76	1877.99
253.98	1908.71
254.20	1949.67
254.41	1900.52
254.63	1943.52
254.85	1904.61
255.06	1974.24
255.28	1955.81
255.50	1980.39
255.71	1906.66
255.93	1888.23
256.15	1888.23
256.36	1998.82
256.58	1908.71
256.80	1961.95
257.02	1959.91
257.23	1904.61
257.45	1986.53
257.67	1986.53
257.88	1865.70
258.10	2056.16
258.32	1933.28
258.53	1976.29
258.75	1980.39
258.97	1918.95
259.18	2013.15
259.40	1873.89
259.62	2037.73
259.83	2095.07
260.05	1968.10
260.27	2308.06
260.48	1980.39
260.70	1884.13
260.92	1937.38
261.13	1949.67
261.35	1990.63
261.57	2029.54
261.78	1810.40
262.00	1898.47
262.22	1966.05
262.43	1914.85
262.65	1949.67
262.86	1980.39
263.08	2115.55
263.30	2047.97
263.51	1839.08
263.73	1871.84
263.95	2066.40
264.16	1925.09
264.38	1918.95
264.60	1939.43
264.81	1937.38
265.03	2045.92
265.25	2021.35
265.46	1976.29
265.68	2033.63
265.89	2019.30
266.11	1882.08
266.33	2009.06
266.54	2004.96
266.76	1943.52
266.98	1949.67
267.19	2060.26
267.41	2058.21
267.62	1992.67
267.84	1906.66
268.06	2041.82
268.27	1927.14
268.49	2039.78
268.70	1943.52
268.92	1904.61
269.14	1953.76
269.35	1824.74
269.57	1959.91
269.79	1994.72
270.00	1925.09
270.22	2119.65
270.43	1906.66
270.65	1730.53
270.87	2009.06
271.08	2076.64
271.30	1980.39
271.51	1986.53
271.73	2007.01
271.95	2045.92
272.16	1998.82
272.38	1988.58
272.59	1959.91
272.81	2037.73
273.02	1902.56
273.24	1906.66
273.46	1931.23
273.67	1867.75
273.89	1865.70
274.10	1828.84
274.32	2007.01
274.54	1927.14
274.75	1947.62
274.97	1947.62
275.18	2045.92
275.40	1998.82
275.61	2027.49
275.83	1931.23
276.05	1812.45
276.26	1968.10
276.48	1916.90
276.69	1894.37
276.91	1857.51
277.12	1986.53
277.34	2033.63
277.55	2029.54
277.77	1898.47
277.99	1976.29
278.20	1923.04
278.42	1820.64
278.63	1904.61
278.85	1853.41
279.06	1943.52
279.28	1972.19
279.49	2058.21
279.71	2035.68
279.93	2015.20
280.14	1994.72
280.36	1914.85
280.57	2054.11
280.79	1990.63
281.00	1912.80
281.22	1841.12
281.43	2052.06
281.65	1783.78
281.86	1875.94
282.08	2033.63
282.29	2111.46
282.51	1882.08
282.73	1804.26
282.94	1822.69
283.16	1980.39
283.37	1986.53
283.59	1974.24
283.80	1968.10
284.02	1918.95
284.23	1947.62
284.45	1900.52
284.66	1927.14
284.88	1896.42
285.09	1959.91
285.31	1953.76
285.52	1935.33
285.74	1892.32
285.95	2019.30
286.17	1964.00
286.38	2007.01
286.60	1904.61
286.81	1964.00
287.03	1933.28
287.24	1935.33
287.46	1984.48
287.67	2007.01
287.89	2115.55
288.10	2031.58
288.32	1976.29
288.53	2084.83
288.75	1910.75
288.96	1996.77
289.18	1863.65
289.39	1939.43
289.61	1986.53
289.82	2088.93
290.04	2084.83
290.25	1865.70
290.47	1933.28
290.68	1898.47
290.90	2097.12
291.11	1894.37
291.33	1964.00
291.54	1970.15
291.76	1886.18
291.97	2023.39
292.18	1968.10
292.40	1880.04
292.61	1882.08
292.83	2119.65
293.04	1968.10
293.26	1945.57
293.47	1916.90
293.69	1898.47
293.90	1959.91
294.12	2115.55
294.33	1980.39
294.55	1931.23
294.76	2013.15
294.97	2021.35
295.19	2088.93
295.40	1888.23
295.62	2015.20
295.83	1955.81
296.05	1882.08
296.26	2009.06
296.48	1859.56
296.69	1972.19
296.90	1957.86
297.12	2000.87
297.33	2086.88
297.55	1966.05
297.76	2000.87
297.98	1980.39
298.19	1970.15
298.41	1873.89
298.62	1869.80
298.83	2070.50
299.05	1990.63
299.26	1968.10
299.48	1925.09
299.69	1959.91
299.90	1976.29
300.12	1906.66
300.33	2011.11
300.55	1910.75
300.76	2000.87
300.98	1949.67
301.19	1980.39
301.40	1959.91
301.62	1951.71
301.83	1980.39
302.05	1988.58
302.26	1972.19
302.47	1961.95
302.69	1847.27
302.90	2066.40
303.12	1828.84
303.33	2021.35
303.54	2039.78
303.76	1959.91
303.97	1970.15
304.19	2060.26
304.40	1796.07
304.61	1933.28
304.83	2023.39
305.04	2039.78
305.26	1980.39
305.47	1918.95
305.68	2007.01
305.90	1900.52
306.11	2029.54
306.33	1910.75
306.54	1888.23
306.75	1961.95
306.97	1800.16
307.18	1912.80
307.39	1886.18
307.61	1972.19
307.82	1914.85
308.04	2047.97
308.25	1902.56
308.46	1959.91
308.68	1894.37
308.89	1978.34
309.10	1994.72
309.32	1949.67
309.53	1920.99
309.74	2009.06
309.96	1927.14
310.17	2103.26
310.39	1880.04
310.60	2021.35
310.81	2017.25
311.03	1890.28
311.24	1964.00
311.45	1959.91
311.67	2080.74
311.88	1974.24
312.09	2007.01
312.31	1947.62
312.52	1947.62
312.73	1974.24
312.95	1865.70
313.16	1925.09
313.37	2045.92
313.59	1992.67
313.80	1978.34
314.01	2021.35
314.23	1916.90
314.44	1886.18
314.65	1767.40
314.87	1851.36
315.08	1957.86
315.29	1910.75
315.51	1837.03
315.72	1845.22
315.93	2050.02
316.15	1980.39
316.36	1931.23
316.57	2000.87
316.79	1896.42
317.00	1970.15
317.21	1925.09
317.43	1839.08
317.64	1849.32
317.85	1908.71
318.07	1920.99
318.28	1982.43
318.49	2115.55
318.70	2252.77
318.92	2068.45
319.13	2150.37
319.34	2148.32
319.56	2084.83
319.77	2072.54
319.98	2072.54
320.20	2090.98
320.41	2047.97
320.62	2029.54
320.83	1961.95
321.05	2140.13
321.26	1955.81
321.47	1949.67
321.69	2009.06
321.90	1861.60
322.11	1990.63
322.32	1939.43
322.54	2084.83
322.75	1923.04
322.96	2148.32
323.18	1808.36
323.39	1822.69
323.60	1873.89
323.81	1998.82
324.03	1931.23
324.24	1945.57
324.45	1986.53
324.66	1986.53
324.88	1964.00
325.09	2144.22
325.30	1964.00
325.52	1935.33
325.73	1951.71
325.94	1851.36
326.15	1886.18
326.37	1904.61
326.58	2013.15
326.79	2086.88
327.00	1857.51
327.22	2023.39
327.43	1957.86
327.64	1898.47
327.85	1980.39
328.07	2052.06
328.28	2136.03
328.49	1877.99
328.70	1927.14
328.92	1957.86
329.13	1884.13
329.34	2013.15
329.55	2021.35
329.76	2068.45
329.98	1949.67
330.19	2017.25
330.40	1925.09
330.61	2033.63
330.83	1986.53
331.04	1839.08
331.25	1972.19
331.46	1935.33
331.68	1847.27
331.89	2062.30
332.10	1925.09
332.31	1789.92
332.52	2011.11
332.74	1998.82
332.95	1826.79
333.16	1964.00
333.37	2068.45
333.58	1888.23
333.80	1990.63
334.01	1849.32
334.22	1900.52
334.43	1949.67
334.64	1992.67
334.86	1875.94
335.07	1935.33
335.28	2062.30
335.49	1837.03
335.70	2013.15
335.92	2029.54
336.13	2101.22
336.34	1923.04
336.55	1996.77
336.76	1955.81
336.98	1796.07
337.19	1949.67
337.40	2078.69
337.61	2111.46
337.82	1906.66
338.04	2004.96
338.25	1871.84
338.46	1996.77
338.67	1906.66
338.88	1910.75
339.09	1898.47
339.31	1974.24
339.52	1890.28
339.73	1863.65
339.94	1978.34
340.15	2023.39
340.36	1877.99
340.58	2019.30
340.79	1939.43
341.00	2033.63
341.21	1898.47
341.42	2043.87
341.63	1923.04
341.85	1970.15
342.06	1957.86
342.27	1931.23
342.48	2047.97
342.69	1869.80
342.90	1968.10
343.12	1976.29
343.33	1974.24
343.54	2037.73
343.75	2035.68
343.96	1964.00
344.17	1906.66
344.38	1912.80
344.60	1882.08
344.81	1933.28
345.02	1980.39
345.23	2045.92
345.44	2074.59
345.65	1988.58
345.86	1970.15
346.07	1961.95
346.29	1923.04
346.50	1961.95
346.71	2004.96
346.92	2080.74
347.13	2099.17
347.34	1984.48
347.55	1912.80
347.76	1894.37
347.98	1888.23
348.19	1908.71
348.40	2062.30
348.61	1941.47
348.82	2070.50
349.03	1990.63
349.24	1992.67
349.45	2015.20
349.66	1886.18
349.88	1912.80
350.09	1890.28
350.30	2004.96
350.51	2019.30
350.72	1980.39
350.93	1970.15
351.14	1968.10
351.35	2035.68
351.56	2015.20
351.77	1957.86
351.99	2007.01
352.20	2119.65
352.41	2041.82
352.62	1837.03
352.83	1931.23
353.04	2000.87
353.25	1884.13
353.46	1992.67
353.67	2064.35
353.88	1804.26
354.09	1994.72
354.30	1914.85
354.52	1978.34
354.73	1964.00
354.94	1890.28
355.15	2013.15
355.36	2004.96
355.57	1972.19
355.78	1951.71
355.99	1918.95
356.20	1945.57
356.41	2072.54
356.62	1923.04
356.83	1994.72
357.04	2095.07
357.25	1896.42
357.46	1951.71
357.68	1806.31
357.89	1843.17
358.10	1941.47
358.31	1947.62
358.52	1941.47
358.73	1853.41
358.94	1978.34
359.15	1904.61
359.36	1937.38
359.57	1916.90
359.78	1943.52
359.99	2033.63
360.20	1894.37
360.41	1929.19
360.62	1990.63
360.83	2027.49
361.04	1937.38
361.25	1961.95
361.46	2013.15
361.67	1974.24
361.88	2019.30
362.09	2000.87
362.30	2000.87
362.51	1978.34
362.72	1968.10
362.93	1961.95
363.14	2013.15
363.35	1941.47
363.56	1857.51
363.78	2004.96
363.99	2013.15
364.20	2011.11
364.41	2050.02
364.62	1994.72
364.83	2043.87
365.04	1890.28
365.25	1984.48
365.46	2070.50
365.67	1834.98
365.88	1996.77
366.09	1912.80
366.30	1918.95
366.51	1966.05
366.72	1900.52
366.93	1945.57
367.14	1927.14
367.35	2078.69
367.56	1957.86
367.77	2140.13
367.98	1908.71
368.18	1933.28
368.39	1951.71
368.60	1951.71
368.81	2047.97
369.02	1968.10
369.23	2054.11
369.44	1875.94
369.65	1882.08
369.86	1992.67
370.07	2037.73
370.28	1902.56
370.49	1998.82
370.70	1992.67
370.91	1927.14
371.12	1804.26
371.33	2072.54
371.54	1970.15
371.75	2072.54
371.96	1820.64
372.17	1996.77
372.38	1968.10
372.59	2050.02
372.80	1961.95
373.01	1937.38
373.22	1945.57
373.43	2000.87
373.64	1918.95
373.85	2027.49
374.06	2068.45
374.26	2007.01
374.47	1982.43
374.68	2052.06
374.89	1951.71
375.10	1947.62
375.31	2002.91
375.52	2015.20
375.73	1966.05
375.94	1918.95
376.15	2000.87
376.36	1886.18
376.57	1949.67
376.78	1951.71
376.99	1982.43
377.20	1996.77
377.40	1912.80
377.61	2097.12
377.82	1900.52
378.03	2082.78
378.24	2009.06
378.45	1943.52
378.66	2050.02
378.87	1851.36
379.08	1837.03
379.29	1896.42
379.50	1990.63
379.71	1939.43
379.91	2072.54
380.12	1908.71
380.33	1941.47
380.54	1873.89
380.75	1918.95
380.96	1939.43
381.17	1996.77
381.38	1972.19
381.59	2029.54
381.80	2004.96
382.00	2140.13
382.21	2045.92
382.42	2123.74
382.63	2154.46
382.84	2027.49
383.05	1978.34
383.26	2074.59
383.47	2041.82
383.68	2025.44
383.88	2035.68
384.09	2031.58
384.30	2070.50
384.51	1978.34
384.72	2107.36
384.93	1904.61
385.14	1943.52
385.35	1996.77
385.55	1890.28
385.76	2121.70
385.97	1939.43
386.18	1908.71
386.39	1892.32
386.60	1904.61
386.81	1964.00
387.02	1988.58
387.22	1961.95
387.43	2047.97
387.64	1992.67
387.85	2148.32
388.06	2299.87
388.27	4073.41
388.48	8644.48
388.68	11792.20
388.89	14004.01
389.10	15126.30
389.31	13766.45
389.52	10807.13
389.73	9478.00
389.93	8570.75
390.14	7759.75
390.35	7161.75
390.56	6393.76
390.77	5220.27
390.98	4009.92
391.18	3123.15
391.39	2498.52
391.60	2191.33
391.81	2084.83
392.02	1939.43
392.23	2123.74
392.43	1957.86
392.64	2095.07
392.85	1986.53
393.06	2101.22
393.27	1923.04
393.47	1931.23
393.68	2029.54
393.89	1920.99
394.10	2088.93
394.31	1933.28
394.52	1808.36
394.72	1900.52
394.93	2045.92
395.14	1869.80
395.35	1945.57
395.56	2004.96
395.76	1931.23
395.97	2015.20
396.18	2062.30
396.39	2127.84
396.60	2375.64
396.80	2205.66
397.01	2164.70
397.22	2113.50
397.43	2129.89
397.64	2021.35
397.84	2056.16
398.05	2199.52
398.26	1994.72
398.47	2080.74
398.67	2150.37
398.88	1945.57
399.09	2082.78
399.30	1931.23
399.51	2052.06
399.71	1970.15
399.92	1959.91
400.13	1970.15
400.34	1869.80
400.54	1920.99
400.75	2084.83
400.96	1943.52
401.17	2084.83
401.37	2050.02
401.58	1980.39
401.79	1988.58
402.00	2183.13
402.21	2377.69
402.41	2228.19
402.62	2373.60
402.83	2400.22
403.04	2451.42
403.24	2441.18
403.45	2148.32
403.66	2238.43
403.87	2166.75
404.07	2179.04
404.28	2193.37
404.49	2123.74
404.70	2052.06
404.90	1994.72
405.11	2041.82
405.32	2000.87
405.52	1998.82
405.73	1888.23
405.94	1904.61
406.15	1964.00
406.35	2115.55
406.56	1996.77
406.77	1941.47
406.98	2047.97
407.18	1910.75
407.39	2095.07
407.60	1957.86
407.80	2019.30
408.01	1918.95
408.22	1998.82
408.43	1906.66
408.63	2062.30
408.84	2015.20
409.05	2138.08
409.25	1875.94
409.46	1920.99
409.67	1984.48
409.88	1871.84
410.08	1970.15
410.29	1935.33
410.50	2074.59
410.70	1984.48
410.91	1970.15
411.12	1894.37
411.32	1863.65
411.53	1861.60
411.74	2105.31
411.95	2058.21
412.15	2086.88
412.36	2093.02
412.57	2066.40
412.77	2107.36
412.98	1964.00
413.19	1933.28
413.39	2017.25
413.60	2052.06
413.81	2037.73
414.01	1957.86
414.22	2031.58
414.43	2045.92
414.63	1984.48
414.84	2058.21
415.05	2011.11
415.25	1918.95
415.46	2021.35
415.67	1867.75
415.87	1976.29
416.08	1955.81
416.29	1964.00
416.49	2002.91
416.70	1890.28
416.91	1984.48
417.11	1964.00
417.32	1980.39
417.53	2056.16
417.73	2058.21
417.94	1925.09
418.15	2000.87
418.35	1970.15
418.56	1998.82
418.77	2111.46
418.97	1972.19
419.18	1908.71
419.38	1851.36
419.59	1931.23
419.80	2062.30
420.00	1912.80
420.21	1898.47
420.42	2095.07
420.62	2021.35
420.83	1906.66
421.04	1923.04
421.24	1908.71
421.45	2007.01
421.65	2035.68
421.86	1886.18
422.07	2009.06
422.27	2015.20
422.48	1896.42
422.69	1929.19
422.89	1982.43
423.10	1898.47
423.30	1949.67
423.51	2029.54
423.72	1955.81
423.92	2009.06
424.13	1949.67
424.33	1937.38
424.54	2017.25
424.75	1929.19
424.95	2099.17
425.16	1990.63
425.36	1933.28
425.57	1933.28
425.78	1957.86
425.98	2009.06
426.19	1908.71
426.39	1914.85
426.60	1955.81
426.81	1968.10
427.01	1908.71
427.22	1857.51
427.42	1871.84
427.63	1910.75
427.83	2033.63
428.04	2056.16
428.25	2068.45
428.45	2082.78
428.66	2101.22
428.86	1931.23
429.07	1916.90
429.28	1947.62
429.48	2011.11
429.69	1869.80
429.89	1972.19
430.10	1837.03
430.30	2043.87
430.51	1970.15
430.71	1882.08
430.92	1937.38
431.13	1935.33
431.33	2007.01
431.54	1945.57
431.74	2078.69
431.95	2215.90
432.15	1894.37
432.36	1929.19
432.56	2002.91
432.77	2039.78
432.98	2039.78
433.18	2045.92
433.39	1918.95
433.59	1918.95
433.80	2131.94
434.00	2179.04
434.21	1904.61
434.41	1992.67
434.62	2064.35
434.82	1931.23
435.03	1898.47
435.23	1996.77
435.44	1841.12
435.64	1925.09
435.85	1964.00
436.06	2080.74
436.26	2045.92
436.47	1939.43
436.67	1912.80
436.88	1935.33
437.08	2007.01
437.29	2004.96
437.49	2027.49
437.70	2113.50
437.90	2015.20
438.11	2185.18
438.31	2027.49
438.52	2181.09
438.72	2193.37
438.93	2224.09
439.13	2072.54
439.34	2199.52
439.54	2047.97
439.75	2082.78
439.95	2156.51
440.16	1943.52
440.36	2052.06
440.57	1998.82
440.77	1937.38
440.98	1990.63
441.18	2011.11
441.39	1898.47
441.59	1976.29
441.80	2236.38
442.00	2043.87
442.21	2131.94
442.41	1902.56
442.62	1990.63
442.82	1882.08
443.02	2045.92
443.23	1949.67
443.43	1933.28
443.64	2056.16
443.84	1939.43
444.05	2035.68
444.25	1994.72
444.46	1998.82
444.66	1964.00
444.87	2217.95
445.07	1826.79
445.28	2002.91
445.48	2082.78
445.69	1986.53
445.89	2176.99
446.09	1990.63
446.30	2213.85
446.50	2625.50
446.71	4122.56
446.91	5212.08
447.12	6084.52
447.32	6629.27
447.53	5939.11
447.73	4882.36
447.93	4315.07
448.14	3885.00
448.34	3831.75
448.55	3348.43
448.75	3370.96
448.96	3186.64
449.16	2899.92
449.36	2562.01
449.57	2349.02
449.77	2193.37
449.98	2013.15
450.18	2047.97
450.39	2060.26
450.59	2023.39
450.79	1974.24
451.00	1970.15
451.20	2004.96
451.41	1976.29
451.61	2045.92
451.81	1929.19
452.02	1974.24
452.22	1953.76
452.43	1867.75
452.63	1906.66
452.84	2009.06
453.04	1992.67
453.24	1994.72
453.45	1927.14
453.65	1949.67
453.86	1990.63
454.06	2000.87
454.26	1947.62
454.47	1896.42
454.67	2056.16
454.87	2111.46
455.08	1925.09
455.28	2066.40
455.49	2025.44
455.69	1888.23
455.89	2101.22
456.10	2107.36
456.30	1931.23
456.51	2037.73
456.71	1939.43
456.91	2105.31
457.12	2002.91
457.32	1986.53
457.52	1914.85
457.73	2070.50
457.93	1994.72
458.14	2007.01
458.34	1898.47
458.54	1990.63
458.75	1859.56
458.95	2050.02
459.15	2002.91
459.36	1953.76
459.56	2045.92
459.76	2070.50
459.97	1947.62
460.17	1906.66
460.37	1988.58
460.58	1943.52
460.78	2025.44
460.99	1925.09
461.19	1976.29
461.39	1861.60
461.60	1949.67
461.80	2002.91
462.00	2011.11
462.21	1978.34
462.41	1931.23
462.61	1875.94
462.82	1857.51
463.02	2095.07
463.22	1896.42
463.43	2039.78
463.63	2023.39
463.83	2129.89
464.04	2002.91
464.24	1908.71
464.44	1945.57
464.64	2017.25
464.85	2004.96
465.05	2107.36
465.25	1955.81
465.46	1980.39
465.66	1996.77
465.86	1996.77
466.07	2029.54
466.27	1957.86
466.47	1882.08
466.68	1867.75
466.88	2068.45
467.08	2043.87
467.29	2074.59
467.49	2011.11
467.69	1959.91
467.89	2023.39
468.10	1986.53
468.30	1992.67
468.50	2133.98
468.71	2045.92
468.91	1820.64
469.11	2043.87
469.31	2029.54
469.52	1875.94
469.72	2101.22
469.92	2142.18
470.13	1953.76
470.33	2043.87
470.53	2050.02
470.73	2332.64
470.94	2764.76
471.14	2957.27
471.34	3327.95
471.54	3217.36
471.75	2865.11
471.95	2662.36
472.15	2598.87
472.36	2541.53
472.56	2439.13
472.76	2465.75
472.96	2336.73
473.17	2336.73
473.37	2203.61
473.57	2017.25
473.77	2185.18
473.98	2017.25
474.18	1920.99
474.38	2170.85
474.58	1927.14
474.79	1914.85
474.99	2009.06
475.19	2023.39
475.39	1867.75
475.60	2035.68
475.80	1996.77
476.00	1867.75
476.20	1904.61
476.41	1990.63
476.61	2047.97
476.81	2119.65
477.01	1964.00
477.21	2156.51
477.42	2031.58
477.62	1929.19
477.82	2050.02
478.02	1986.53
478.23	1875.94
478.43	1824.74
478.63	1941.47
478.83	1892.32
479.03	1855.46
479.24	2127.84
479.44	2080.74
479.64	1939.43
479.84	1861.60
480.04	1968.10
480.25	1949.67
480.45	1923.04
480.65	1937.38
480.85	2179.04
481.06	1929.19
481.26	1988.58
481.46	1986.53
481.66	2037.73
481.86	1890.28
482.06	2086.88
482.27	1966.05
482.47	1947.62
482.67	2009.06
482.87	1986.53
483.07	2037.73
483.28	1931.23
483.48	1896.42
483.68	1933.28
483.88	1853.41
484.08	1802.21
484.29	1947.62
484.49	1986.53
484.69	1933.28
484.89	2084.83
485.09	1978.34
485.29	2009.06
485.50	2013.15
485.70	2045.92
485.90	2107.36
486.10	1984.48
486.30	1988.58
486.50	2082.78
486.71	2007.01
486.91	2111.46
487.11	2097.12
487.31	1834.98
487.51	2002.91
487.71	1939.43
487.91	1890.28
488.12	1984.48
488.32	1806.31
488.52	1961.95
488.72	1851.36
488.92	1992.67
489.12	2088.93
489.32	2037.73
489.53	2050.02
489.73	1841.12
489.93	2099.17
490.13	1910.75
490.33	1890.28
490.53	1972.19
490.73	2023.39
490.94	1920.99
491.14	2088.93
491.34	2086.88
491.54	2191.33
491.74	3028.95
491.94	3571.66
492.14	3710.92
492.34	3899.33
492.54	3590.09
492.75	3061.71
492.95	2987.99
493.15	2697.17
493.35	2656.22
493.55	2531.29
493.75	2435.03
493.95	2412.51
494.15	2238.43
494.35	2191.33
494.56	2107.36
494.76	1986.53
494.96	2027.49
495.16	2019.30
495.36	1976.29
495.56	2037.73
495.76	1937.38
495.96	1925.09
496.16	1910.75
496.36	2093.02
496.56	1966.05
496.77	2025.44
496.97	1970.15
497.17	2125.79
497.37	1882.08
497.57	1992.67
497.77	2007.01
497.97	1939.43
498.17	1898.47
498.37	1820.64
498.57	2002.91
498.77	1904.61
498.97	2080.74
499.17	2164.70
499.38	1914.85
499.58	2029.54
499.78	2111.46
499.98	2047.97
500.18	1933.28
500.38	1918.95
500.58	2129.89
500.78	2650.07
500.98	4784.06
501.18	7088.02
501.38	8593.28
501.58	9555.82
501.78	9383.79
501.98	7327.63
502.18	6182.82
502.38	5443.50
502.58	4837.30
502.78	4501.44
502.98	4161.47
503.18	4038.59
503.38	3725.26
503.59	3336.14
503.79	3024.85
503.99	2707.41
504.19	2535.39
504.39	2580.44
504.59	2580.44
504.79	2592.73
504.99	2473.95
505.19	2346.97
505.39	2252.77
505.59	2273.25
505.79	2271.20
505.99	2168.80
506.19	2031.58
506.39	2172.89
506.59	2017.25
506.79	2013.15
506.99	2080.74
507.19	1976.29
507.39	2037.73
507.59	1957.86
507.79	1943.52
507.99	1968.10
508.19	1970.15
508.39	1972.19
508.59	2004.96
508.79	2158.56
508.99	2136.03
509.19	1947.62
509.39	2039.78
509.59	1974.24
509.79	1923.04
509.99	1988.58
510.19	2084.83
510.39	2045.92
510.59	1964.00
510.79	1968.10
510.99	1914.85
511.19	2017.25
511.39	2041.82
511.59	2101.22
511.79	2037.73
511.99	1966.05
512.19	2133.98
512.38	1998.82
512.58	1937.38
512.78	2027.49
512.98	2023.39
513.18	2168.80
513.38	1855.46
513.58	2031.58
513.78	1970.15
513.98	1984.48
514.18	1996.77
514.38	1998.82
514.58	2047.97
514.78	1943.52
514.98	1908.71
515.18	1996.77
515.38	1863.65
515.58	2166.75
515.78	1929.19
515.98	1927.14
516.18	1943.52
516.38	1996.77
516.57	1918.95
516.77	1990.63
516.97	2029.54
517.17	2015.20
517.37	1886.18
517.57	1964.00
517.77	1974.24
517.97	1955.81
518.17	1953.76
518.37	1923.04
518.57	1931.23
518.77	1945.57
518.97	1972.19
519.16	2019.30
519.36	2050.02
519.56	1918.95
519.76	2004.96
519.96	1933.28
520.16	2072.54
520.36	1890.28
520.56	2062.30
520.76	1974.24
520.96	1898.47
521.16	2084.83
521.35	2011.11
521.55	2052.06
521.75	2019.30
521.95	1961.95
522.15	1951.71
522.35	1849.32
522.55	1906.66
522.75	2013.15
522.95	1953.76
523.14	1935.33
523.34	1953.76
523.54	2015.20
523.74	2025.44
523.94	2031.58
524.14	1896.42
524.34	1994.72
524.54	2066.40
524.73	1970.15
524.93	2062.30
525.13	1980.39
525.33	1916.90
525.53	2185.18
525.73	2009.06
525.93	1996.77
526.13	1855.46
526.32	2027.49
526.52	1996.77
526.72	1978.34
526.92	1994.72
527.12	1898.47
527.32	1824.74
527.52	1896.42
527.71	1957.86
527.91	2050.02
528.11	1947.62
528.31	1908.71
528.51	1892.32
528.71	1996.77
528.90	1980.39
529.10	2066.40
529.30	2043.87
529.50	1882.08
529.70	2066.40
529.90	2000.87
530.09	2072.54
530.29	1839.08
530.49	1931.23
530.69	2176.99
530.89	1978.34
531.09	2050.02
531.28	1935.33
531.48	2054.11
531.68	2015.20
531.88	1998.82
532.08	2054.11
532.28	1990.63
532.47	2136.03
532.67	2009.06
532.87	2050.02
533.07	2019.30
533.27	2090.98
533.46	1998.82
533.66	2037.73
533.86	2023.39
534.06	1976.29
534.26	2015.20
534.45	1986.53
534.65	2162.66
534.85	1923.04
535.05	1955.81
535.25	1976.29
535.44	1961.95
535.64	1966.05
535.84	1933.28
536.04	1906.66
536.24	1974.24
536.43	1992.67
536.63	2033.63
536.83	1943.52
537.03	2009.06
537.22	1892.32
537.42	1890.28
537.62	1994.72
537.82	1908.71
538.02	2060.26
538.21	2029.54
538.41	2201.57
538.61	2029.54
538.81	1943.52
539.00	2015.20
539.20	1894.37
539.40	1961.95
539.60	1931.23
539.79	1976.29
539.99	1990.63
540.19	1976.29
540.39	1937.38
540.58	2000.87
540.78	1939.43
540.98	2060.26
541.18	2043.87
541.37	2019.30
541.57	1949.67
541.77	2004.96
541.97	1920.99
542.16	1863.65
542.36	1920.99
542.56	1923.04
542.76	2107.36
542.95	2076.64
543.15	1986.53
543.35	2023.39
543.54	1847.27
543.74	1914.85
543.94	2115.55
544.14	1986.53
544.33	2050.02
544.53	1984.48
544.73	1970.15
544.93	1886.18
545.12	1970.15
545.32	2068.45
545.52	1918.95
545.71	1886.18
545.91	1923.04
546.11	2002.91
546.30	1968.10
546.50	1916.90
546.70	2023.39
546.90	2000.87
547.09	1853.41
547.29	1914.85
547.49	2054.11
547.68	1943.52
547.88	1931.23
548.08	2078.69
548.27	2449.37
548.47	1916.90
548.67	1824.74
548.87	2013.15
549.06	2013.15
549.26	2019.30
549.46	2007.01
549.65	1931.23
549.85	1982.43
550.05	2068.45
550.24	1841.12
550.44	1980.39
550.64	1929.19
550.83	1982.43
551.03	2140.13
551.23	2060.26
551.42	1945.57
551.62	1998.82
551.82	2039.78
552.01	2007.01
552.21	2097.12
552.41	1941.47
552.60	2133.98
552.80	1988.58
553.00	1974.24
553.19	2021.35
553.39	2131.94
553.59	1888.23
553.78	2033.63
553.98	2062.30
554.17	1900.52
554.37	2019.30
554.57	2023.39
554.76	1931.23
554.96	1937.38
555.16	2002.91
555.35	2074.59
555.55	1996.77
555.75	2076.64
555.94	2090.98
556.14	1867.75
556.33	2064.35
556.53	1996.77
556.73	1939.43
556.92	2064.35
557.12	2097.12
557.32	2166.75
557.51	2072.54
557.71	2029.54
557.90	2021.35
558.10	2125.79
558.30	1992.67
558.49	1951.71
558.69	1898.47
558.88	2011.11
559.08	2002.91
559.28	1890.28
559.47	1966.05
559.67	2025.44
559.86	2164.70
560.06	2052.06
560.26	1847.27
560.45	2082.78
560.65	1968.10
560.84	2086.88
561.04	1943.52
561.24	1974.24
561.43	1951.71
561.63	2101.22
561.82	2013.15
562.02	2031.58
562.22	1865.70
562.41	1888.23
562.61	1982.43
562.80	1873.89
563.00	2220.00
563.19	1945.57
563.39	2037.73
563.59	2031.58
563.78	1923.04
563.98	1830.88
564.17	1916.90
564.37	1855.46
564.56	1974.24
564.76	1933.28
564.96	2029.54
565.15	1953.76
565.35	2201.57
565.54	1933.28
565.74	2072.54
565.93	2095.07
566.13	1933.28
566.32	2043.87
566.52	2029.54
566.71	1914.85
566.91	2093.02
567.11	1908.71
567.30	1882.08
567.50	2072.54
567.69	2029.54
567.89	1996.77
568.08	1945.57
568.28	1943.52
568.47	1957.86
568.67	2031.58
568.86	1920.99
569.06	2074.59
569.25	1951.71
569.45	1916.90
569.64	1966.05
569.84	1953.76
570.04	2019.30
570.23	1884.13
570.43	1982.43
570.62	2058.21
570.82	2107.36
571.01	1970.15
571.21	1951.71
571.40	1896.42
571.60	2068.45
571.79	2133.98
571.99	2029.54
572.18	1910.75
572.38	1976.29
572.57	1916.90
572.77	2045.92
572.96	2164.70
573.16	2004.96
573.35	1927.14
573.55	2086.88
573.74	2011.11
573.94	1955.81
574.13	2004.96
574.33	2082.78
574.52	2060.26
574.71	1978.34
574.91	2062.30
575.10	1863.65
575.30	1964.00
575.49	1918.95
575.69	1927.14
575.88	2045.92
576.08	2039.78
576.27	2123.74
576.47	2062.30
576.66	2172.89
576.86	2035.68
577.05	2011.11
577.25	2099.17
577.44	2164.70
577.64	1949.67
577.83	2017.25
578.02	2082.78
578.22	2084.83
578.41	2168.80
578.61	1959.91
578.80	1857.51
579.00	2033.63
579.19	1998.82
579.39	2035.68
579.58	2039.78
579.77	2060.26
579.97	2152.42
580.16	2119.65
580.36	2133.98
580.55	2070.50
580.75	2023.39
580.94	1998.82
581.13	2152.42
581.33	2154.46
581.52	2052.06
581.72	2220.00
581.91	2127.84
582.11	2072.54
582.30	2113.50
582.49	1976.29
582.69	2121.70
582.88	2127.84
583.08	2015.20
583.27	2113.50
583.47	2088.93
583.66	1912.80
583.85	1947.62
584.05	1986.53
584.24	2109.41
584.44	2056.16
584.63	2138.08
584.82	2123.74
585.02	2121.70
585.21	2166.75
585.41	2164.70
585.60	2195.42
585.79	2273.25
585.99	2318.30
586.18	2160.61
586.37	2566.10
586.57	3936.20
586.76	11669.33
586.96	30551.60
587.15	44621.14
587.34	54510.78
587.54	59937.90
587.73	55999.66
587.93	39665.06
588.12	29650.49
588.31	23879.32
588.51	20530.89
588.70	18751.20
588.89	17139.45
589.09	15234.84
589.28	13180.73
589.47	10803.04
589.67	8492.93
589.86	6619.04
590.06	5011.38
590.25	3778.50
590.44	3133.39
590.64	2725.85
590.83	2418.65
591.02	2174.94
591.22	2080.74
591.41	2160.61
591.60	2105.31
591.80	2275.29
591.99	1990.63
592.18	2035.68
592.38	2160.61
592.57	1988.58
592.76	2000.87
592.96	2045.92
593.15	2035.68
593.34	2056.16
593.54	1972.19
593.73	2033.63
593.92	2093.02
594.12	2099.17
594.31	2084.83
594.50	2199.52
594.70	2150.37
594.89	2205.66
595.08	1978.34
595.28	2138.08
595.47	2248.67
595.66	2136.03
595.86	1974.24
596.05	1976.29
596.24	2082.78
596.43	2084.83
596.63	2127.84
596.82	2033.63
597.01	2045.92
597.21	2123.74
597.40	2002.91
597.59	2107.36
597.79	1933.28
597.98	2017.25
598.17	2166.75
598.36	1998.82
598.56	2056.16
598.75	1964.00
598.94	2037.73
599.14	1961.95
599.33	1937.38
599.52	2029.54
599.71	1970.15
599.91	2099.17
600.10	2023.39
600.29	1925.09
600.48	2025.44
600.68	2021.35
600.87	1990.63
601.06	1992.67
601.26	1941.47
601.45	2009.06
601.64	2000.87
601.83	2076.64
602.03	2007.01
602.22	1871.84
602.41	2158.56
602.60	2213.85
602.80	2050.02
602.99	2058.21
603.18	1984.48
603.37	2047.97
603.57	1949.67
603.76	2115.55
603.95	2056.16
604.14	1884.13
604.34	1873.89
604.53	1984.48
604.72	1949.67
604.91	1974.24
605.10	1998.82
605.30	1949.67
605.49	2250.72
605.68	2025.44
605.87	2068.45
606.07	1916.90
606.26	1955.81
606.45	1947.62
606.64	1939.43
606.84	1986.53
607.03	1970.15
607.22	2062.30
607.41	1966.05
607.60	2058.21
607.80	2133.98
607.99	1984.48
608.18	2062.30
608.37	1998.82
608.56	1941.47
608.76	2052.06
608.95	2246.62
609.14	2045.92
609.33	2203.61
609.52	2158.56
609.72	2037.73
609.91	2060.26
610.10	2066.40
610.29	2107.36
610.48	2119.65
610.68	2017.25
610.87	2007.01
611.06	1992.67
611.25	1939.43
611.44	2103.26
611.63	1968.10
611.83	2068.45
612.02	1923.04
612.21	2121.70
612.40	1812.45
612.59	1914.85
612.79	1892.32
612.98	1970.15
613.17	2097.12
613.36	2105.31
613.55	2066.40
613.74	2035.68
613.93	2191.33
614.13	2244.57
614.32	2236.38
614.51	2193.37
614.70	2095.07
614.89	2111.46
615.08	2123.74
615.28	2424.80
615.47	1988.58
615.66	2074.59
615.85	1990.63
616.04	2150.37
616.23	2080.74
616.42	2023.39
616.62	2068.45
616.81	2076.64
617.00	2031.58
617.19	2090.98
617.38	1939.43
617.57	2060.26
617.76	2013.15
617.95	2041.82
618.15	2037.73
618.34	2056.16
618.53	1902.56
618.72	2043.87
618.91	2101.22
619.10	2064.35
619.29	2007.01
619.48	1953.76
619.68	1949.67
619.87	1966.05
620.06	1959.91
620.25	2121.70
620.44	1908.71
620.63	1982.43
620.82	1961.95
621.01	2078.69
621.20	2009.06
621.39	2017.25
621.59	1996.77
621.78	2002.91
621.97	2021.35
622.16	2062.30
622.35	2017.25
622.54	2072.54
622.73	2070.50
622.92	1890.28
623.11	2041.82
623.30	1970.15
623.49	1986.53
623.68	1943.52
623.88	2047.97
624.07	1900.52
624.26	1949.67
624.45	1972.19
624.64	2031.58
624.83	2029.54
625.02	1988.58
625.21	1914.85
625.40	2002.91
625.59	2136.03
625.78	2027.49
625.97	2088.93
626.16	2152.42
626.35	2144.22
626.54	2064.35
626.74	2217.95
626.93	1990.63
627.12	1996.77
627.31	2101.22
627.50	2017.25
627.69	2035.68
627.88	1980.39
628.07	2004.96
628.26	1875.94
628.45	1886.18
628.64	1877.99
628.83	1992.67
629.02	1904.61
629.21	2047.97
629.40	1988.58
629.59	1914.85
629.78	1937.38
629.97	2029.54
630.16	2062.30
630.35	1937.38
630.54	1968.10
630.73	1933.28
630.92	1978.34
631.11	1875.94
631.30	1959.91
631.49	2056.16
631.68	1953.76
631.87	2000.87
632.06	1888.23
632.25	2181.09
632.44	1990.63
632.63	2060.26
632.82	2002.91
633.01	2043.87
633.20	2097.12
633.39	2037.73
633.58	1988.58
633.77	2070.50
633.96	1990.63
634.15	2088.93
634.34	2131.94
634.53	2090.98
634.72	1941.47
634.91	1900.52
635.10	2056.16
635.29	2058.21
635.48	1976.29
635.67	2007.01
635.86	1849.32
636.05	2000.87
636.24	1925.09
636.43	1982.43
636.62	1982.43
636.81	1777.64
637.00	2039.78
637.19	2031.58
637.38	2050.02
637.57	1978.34
637.76	2031.58
637.95	2093.02
638.14	2093.02
638.33	2095.07
638.52	2041.82
638.71	1968.10
638.89	2070.50
639.08	2232.29
639.27	2160.61
639.46	2238.43
639.65	2613.21
639.84	2572.25
640.03	2789.33
640.22	2600.92
640.41	2656.22
640.60	2379.74
640.79	2260.96
640.98	2195.42
641.17	2195.42
641.36	2279.39
641.55	2084.83
641.74	1959.91
641.92	2041.82
642.11	2054.11
642.30	2004.96
642.49	1931.23
642.68	1984.48
642.87	2029.54
643.06	2000.87
643.25	1867.75
643.44	1849.32
643.63	1968.10
643.82	2078.69
644.00	1849.32
644.19	1937.38
644.38	1892.32
644.57	2058.21
644.76	2007.01
644.95	2004.96
645.14	1990.63
645.33	1925.09
645.52	1959.91
645.71	1912.80
645.89	1863.65
646.08	1976.29
646.27	2007.01
646.46	2166.75
646.65	1839.08
646.84	2015.20
647.03	1943.52
647.22	2086.88
647.40	1925.09
647.59	1908.71
647.78	1880.04
647.97	1943.52
648.16	1863.65
648.35	2043.87
648.54	2113.50
648.73	1910.75
648.91	2058.21
649.10	1955.81
649.29	1943.52
649.48	1937.38
649.67	1945.57
649.86	1986.53
650.05	1986.53
650.23	2193.37
650.42	2164.70
650.61	2236.38
650.80	2123.74
650.99	2271.20
651.18	2127.84
651.36	2082.78
651.55	2035.68
651.74	2062.30
651.93	2000.87
652.12	1972.19
652.31	2041.82
652.49	1888.23
652.68	1939.43
652.87	2056.16
653.06	2004.96
653.25	2201.57
653.44	1943.52
653.62	2076.64
653.81	1933.28
654.00	1964.00
654.19	2035.68
654.38	2138.08
654.56	2064.35
654.75	2019.30
654.94	2033.63
655.13	1945.57
655.32	2002.91
655.51	1974.24
655.69	1902.56
655.88	2025.44
656.07	1910.75
656.26	2004.96
656.45	1904.61
656.63	2013.15
656.82	2004.96
657.01	1912.80
657.20	1931.23
657.38	2011.11
657.57	1918.95
657.76	1820.64
657.95	2021.35
658.14	1951.71
658.32	1953.76
658.51	1896.42
658.70	1929.19
658.89	1959.91
659.08	2064.35
659.26	2080.74
659.45	1988.58
659.64	2017.25
659.83	2035.68
660.01	2353.12
660.20	2035.68
660.39	2156.51
660.58	1804.26
660.76	2099.17
660.95	1912.80
661.14	1953.76
661.33	1867.75
661.51	1806.31
661.70	1904.61
661.89	2004.96
662.08	1984.48
662.26	1865.70
662.45	1947.62
662.64	2144.22
662.83	2050.02
663.01	1816.55
663.20	1949.67
663.39	2066.40
663.58	1927.14
663.76	1918.95
663.95	2035.68
664.14	1937.38
664.32	1949.67
664.51	2007.01
664.70	1816.55
664.89	2009.06
665.07	1859.56
665.26	1949.67
665.45	1877.99
665.64	2041.82
665.82	1961.95
666.01	2035.68
666.20	1929.19
666.38	2023.39
666.57	2105.31
666.76	2797.53
666.95	6453.15
667.13	14937.88
667.32	20729.54
667.51	24381.07
667.69	26766.95
667.88	25333.37
668.07	18341.61
668.25	14305.06
668.44	11710.29
668.63	9897.83
668.81	8931.19
669.00	7827.34
669.19	6991.77
669.38	6064.04
669.56	5187.50
669.75	4405.18
669.94	3626.95
670.12	3020.75
670.31	2717.65
670.50	2449.37
670.68	2267.10
670.87	2060.26
671.06	2052.06
671.24	2037.73
671.43	2185.18
671.62	2062.30
671.80	2025.44
671.99	2011.11
672.18	2119.65
672.36	2074.59
672.55	2029.54
672.74	2035.68
672.92	2015.20
673.11	1998.82
673.29	1873.89
673.48	2027.49
673.67	1978.34
673.85	2099.17
674.04	1914.85
674.23	2015.20
674.41	2021.35
674.60	1855.46
674.79	1892.32
674.97	1935.33
675.16	2004.96
675.34	2000.87
675.53	1908.71
675.72	2009.06
675.90	2183.13
676.09	1945.57
676.28	2015.20
676.46	1834.98
676.65	2011.11
676.83	1869.80
677.02	1978.34
677.21	1980.39
677.39	1986.53
677.58	1945.57
677.77	1945.57
677.95	1943.52
678.14	1964.00
678.32	1900.52
678.51	1968.10
678.70	2099.17
678.88	1986.53
679.07	1902.56
679.25	1968.10
679.44	1959.91
679.63	1861.60
679.81	1939.43
680.00	2170.85
680.18	1929.19
680.37	2082.78
680.55	2045.92
680.74	1882.08
680.93	1853.41
681.11	1978.34
681.30	2037.73
681.48	2002.91
681.67	1935.33
681.85	1935.33
682.04	1931.23
682.23	2017.25
682.41	1996.77
682.60	1953.76
682.78	1951.71
682.97	1916.90
683.15	2007.01
683.34	2017.25
683.53	2097.12
683.71	1789.92
683.90	2144.22
684.08	1961.95
684.27	1857.51
684.45	1980.39
684.64	2113.50
684.82	2002.91
685.01	2035.68
685.19	1953.76
685.38	2045.92
685.57	1986.53
685.75	1912.80
685.94	1959.91
686.12	1861.60
686.31	1906.66
686.49	2117.60
686.68	1851.36
686.86	2007.01
687.05	1945.57
687.23	2074.59
687.42	1923.04
687.60	1859.56
687.79	2000.87
687.97	2013.15
688.16	2090.98
688.34	2080.74
688.53	1820.64
688.71	1986.53
688.90	2068.45
689.08	1933.28
689.27	1857.51
689.45	2035.68
689.64	1994.72
689.82	2015.20
690.01	1988.58
690.19	2015.20
690.38	1945.57
690.56	2033.63
690.75	1880.04
690.93	1925.09
691.12	1900.52
691.30	1906.66
691.49	1916.90
691.67	1914.85
691.86	2082.78
692.04	1933.28
692.23	1894.37
692.41	2025.44
692.60	2211.81
692.78	2115.55
692.97	2023.39
693.15	2021.35
693.34	2150.37
693.52	2060.26
693.71	2002.91
693.89	1931.23
694.08	1890.28
694.26	2070.50
694.44	2019.30
694.63	1976.29
694.81	1873.89
695.00	1849.32
695.18	2050.02
695.37	2111.46
695.55	1988.58
695.74	1910.75
695.92	1959.91
696.10	2002.91
696.29	1877.99
696.47	1980.39
696.66	1847.27
696.84	1859.56
697.03	1951.71
697.21	2115.55
697.40	2842.58
697.58	1994.72
697.76	1886.18
697.95	1968.10
698.13	1837.03
698.32	1994.72
698.50	1972.19
698.68	2060.26
698.87	1949.67
699.05	2019.30
699.24	1953.76
699.42	1912.80
699.61	1964.00
699.79	1988.58
699.97	2019.30
700.16	1877.99
700.34	1853.41
700.53	1998.82
700.71	2123.74
700.89	2052.06
701.08	1865.70
701.26	1964.00
701.45	2443.23
701.63	1894.37
701.81	1964.00
702.00	1941.47
702.18	1974.24
702.37	2004.96
702.55	2232.29
702.73	2076.64
702.92	2117.60
703.10	2303.96
703.28	2269.15
703.47	1982.43
703.65	2222.05
703.84	2217.95
704.02	2029.54
704.20	2207.71
704.39	2015.20
704.57	2045.92
704.75	2029.54
704.94	2119.65
705.12	2050.02
705.30	2320.35
705.49	3653.58
705.67	8982.39
705.86	17780.46
706.04	22711.97
706.22	26361.45
706.41	27829.85
706.59	24964.74
706.77	17788.66
706.96	14249.77
707.14	12261.19
707.32	10475.36
707.51	9140.08
707.69	8021.89
707.87	6391.71
708.06	5226.42
708.24	4024.26
708.42	3213.26
708.61	2869.20
708.79	2359.26
708.97	2156.51
709.16	2232.29
709.34	2070.50
709.52	2025.44
709.71	1949.67
709.89	1996.77
710.07	1957.86
710.26	1918.95
710.44	1978.34
710.62	2133.98
710.80	1996.77
710.99	1994.72
711.17	2015.20
711.35	1916.90
711.54	1857.51
711.72	2066.40
711.90	1949.67
712.09	2023.39
712.27	1900.52
712.45	1988.58
712.63	1927.14
712.82	1980.39
713.00	1964.00
713.18	1970.15
713.37	1943.52
713.55	1990.63
713.73	2031.58
713.91	1968.10
714.10	2021.35
714.28	1933.28
714.46	2004.96
714.65	1966.05
714.83	1935.33
715.01	2009.06
715.19	1970.15
715.38	1892.32
715.56	2011.11
715.74	2000.87
715.92	1886.18
716.11	2074.59
716.29	1771.49
716.47	1959.91
716.65	1945.57
716.84	1826.79
717.02	1990.63
717.20	1863.65
717.38	1961.95
717.57	2023.39
717.75	1937.38
717.93	1959.91
718.11	2019.30
718.30	1923.04
718.48	1920.99
718.66	2052.06
718.84	2035.68
719.03	1925.09
719.21	1886.18
719.39	2115.55
719.57	2019.30
719.75	2058.21
719.94	1853.41
720.12	1939.43
720.30	1961.95
720.48	2115.55
720.67	1939.43
720.85	1937.38
721.03	1949.67
721.21	1933.28
721.39	2066.40
721.58	1939.43
721.76	1892.32
721.94	2027.49
722.12	1986.53
722.30	2158.56
722.49	1964.00
722.67	1996.77
722.85	2086.88
723.03	1847.27
723.21	1941.47
723.40	2011.11
723.58	2086.88
723.76	2088.93
723.94	2078.69
724.12	2127.84
724.30	2203.61
724.49	2070.50
724.67	1918.95
724.85	2115.55
725.03	1875.94
725.21	2017.25
725.40	2097.12
725.58	2004.96
725.76	2076.64
725.94	1982.43
726.12	1894.37
726.30	1914.85
726.49	1978.34
726.67	1902.56
726.85	2066.40
727.03	2154.46
727.21	3123.15
727.39	4753.34
727.57	5953.45
727.76	6612.89
727.94	7081.88
728.12	6776.73
728.30	5687.21
728.48	4612.03
728.66	4272.06
728.84	3811.27
729.03	3346.38
729.21	2891.73
729.39	2543.58
729.57	2301.92
729.75	2220.00
729.93	2148.32
730.11	2025.44
730.30	2013.15
730.48	1982.43
730.66	2138.08
730.84	2017.25
731.02	2007.01
731.20	1925.09
731.38	2047.97
731.56	1865.70
731.74	1873.89
731.93	2058.21
732.11	1902.56
732.29	1959.91
732.47	2035.68
732.65	2004.96
732.83	2013.15
733.01	2015.20
733.19	1933.28
733.37	1947.62
733.56	1966.05
733.74	1914.85
733.92	2086.88
734.10	1923.04
734.28	2009.06
734.46	1834.98
734.64	1910.75
734.82	1873.89
735.00	1959.91
735.18	1900.52
735.36	2017.25
735.54	1961.95
735.73	1984.48
735.91	1966.05
736.09	1953.76
736.27	1996.77
736.45	1978.34
736.63	1804.26
736.81	1890.28
736.99	2158.56
737.17	2045.92
737.35	1890.28
737.53	1947.62
737.71	1918.95
737.89	2076.64
738.07	1908.71
738.25	1880.04
738.43	1845.22
738.61	1884.13
738.80	1892.32
738.98	1851.36
739.16	1910.75
739.34	1865.70
739.52	2125.79
739.70	1953.76
739.88	1959.91
740.06	2066.40
740.24	1816.55
740.42	2043.87
740.60	1851.36
740.78	1886.18
740.96	1877.99
741.14	1990.63
741.32	1945.57
741.50	1886.18
741.68	2078.69
741.86	2037.73
742.04	1855.46
742.22	1894.37
742.40	1941.47
742.58	1918.95
742.76	1871.84
742.94	1968.10
743.12	1898.47
743.30	1961.95
743.48	2025.44
743.66	1918.95
743.84	2047.97
744.02	1968.10
744.20	1982.43
744.38	1902.56
744.56	1918.95
744.74	2101.22
744.92	2043.87
745.10	2037.73
745.28	1976.29
745.46	2056.16
745.64	1894.37
745.82	2060.26
746.00	1923.04
746.18	1970.15
746.36	1925.09
746.54	2013.15
746.72	1957.86
746.90	1859.56
747.08	2058.21
747.26	1914.85
747.44	1980.39
747.62	2000.87
747.80	1990.63
747.98	2082.78
748.15	1943.52
748.33	2095.07
748.51	2021.35
748.69	2076.64
748.87	1947.62
749.05	1937.38
749.23	1933.28
749.41	2054.11
749.59	1996.77
749.77	2097.12
749.95	1908.71
750.13	1871.84
750.31	2023.39
750.49	1945.57
750.67	2072.54
750.85	2050.02
751.03	1966.05
751.20	2121.70
751.38	1888.23
751.56	1863.65
751.74	1906.66
751.92	1939.43
752.10	1939.43
752.28	2066.40
752.46	1925.09
752.64	1898.47
752.82	1927.14
753.00	2066.40
753.18	1990.63
753.35	1927.14
753.53	2035.68
753.71	1955.81
753.89	2017.25
754.07	1959.91
754.25	2093.02
754.43	2043.87
754.61	1900.52
754.79	1968.10
754.97	1923.04
755.14	2017.25
755.32	1843.17
755.50	1929.19
755.68	1931.23
755.86	1859.56
756.04	1949.67
756.22	1839.08
756.40	2019.30
756.57	2164.70
756.75	1908.71
756.93	2127.84
757.11	1980.39
757.29	1841.12
757.47	1884.13
757.65	1865.70
757.82	1851.36
758.00	1959.91
758.18	1863.65
758.36	1970.15
758.54	2131.94
758.72	1800.16
758.90	2035.68
759.07	1941.47
759.25	1890.28
759.43	1972.19
759.61	1890.28
759.79	2580.44
759.97	2033.63
760.15	1949.67
760.32	1920.99
760.50	2027.49
760.68	2072.54
760.86	1857.51
761.04	2017.25
761.22	1951.71
761.39	2015.20
761.57	2052.06
761.75	1904.61
761.93	2019.30
762.11	1927.14
762.28	1898.47
762.46	1816.55
762.64	2041.82
762.82	1849.32
763.00	2002.91
763.18	2086.88
763.35	1834.98
763.53	1998.82
763.71	1945.57
763.89	1912.80
764.07	2015.20
764.24	1978.34
764.42	2037.73
764.60	1968.10
764.78	2027.49
764.96	2074.59
765.13	2011.11
765.31	1912.80
765.49	1929.19
765.67	1898.47
765.84	1916.90
766.02	1904.61
766.20	1847.27
766.38	1877.99
766.56	2007.01
766.73	2011.11
766.91	1925.09
767.09	1984.48
767.27	1957.86
767.44	1900.52
767.62	1939.43
767.80	1896.42
767.98	1990.63
768.15	1986.53
768.33	2009.06
768.51	1966.05
768.69	1961.95
768.87	1968.10
769.04	1992.67
769.22	2113.50
769.40	2185.18
769.58	2082.78
769.75	1994.72
769.93	2076.64
770.11	2009.06
770.28	1875.94
770.46	2054.11
770.64	2050.02
770.82	1945.57
770.99	1900.52
771.17	2002.91
771.35	1898.47
771.53	1996.77
771.70	1875.94
771.88	2021.35
772.06	1988.58
772.23	1957.86
772.41	1970.15
772.59	1902.56
772.77	1837.03
772.94	1925.09
773.12	1994.72
773.30	1865.70
773.47	2002.91
773.65	1863.65
773.83	2125.79
774.01	1853.41
774.18	1808.36
774.36	1916.90
774.54	1822.69
774.71	1957.86
774.89	1859.56
775.07	1882.08
775.24	1931.23
775.42	1892.32
775.60	2021.35
775.78	1961.95
775.95	1794.02
776.13	1865.70
776.31	1832.93
776.48	1959.91
776.66	2097.12
776.84	1949.67
777.01	1886.18
777.19	1861.60
777.37	1978.34
777.54	1980.39
777.72	2015.20
777.90	2019.30
778.07	1877.99
778.25	2238.43
778.43	2002.91
778.60	1900.52
778.78	1992.67
778.96	2050.02
779.13	1882.08
779.31	2076.64
779.49	1839.08
779.66	2013.15
779.84	1994.72
780.01	1972.19
780.19	1880.04
780.37	2039.78
780.54	1996.77
780.72	1918.95
780.90	1986.53
781.07	1865.70
781.25	1908.71
781.43	1964.00
781.60	1875.94
781.78	2113.50
781.95	1918.95
782.13	1923.04
782.31	1951.71
782.48	1808.36
782.66	1904.61
782.83	2101.22
783.01	1988.58
783.19	2058.21
783.36	1904.61
783.54	1882.08
783.72	2039.78
783.89	1923.04
784.07	1929.19
784.24	1980.39
784.42	2074.59
784.60	1955.81
784.77	2054.11
784.95	1875.94
785.12	1894.37
785.30	2002.91
785.47	1955.81
785.65	1964.00
785.83	1888.23
786.00	1945.57
786.18	1966.05
786.35	1984.48
786.53	1906.66
786.71	2041.82
786.88	2013.15
787.06	1970.15
787.23	1904.61
787.41	1861.60
787.58	1988.58
787.76	1955.81
787.94	1937.38
788.11	1966.05
788.29	1937.38
788.46	1918.95
788.64	1877.99
788.81	1906.66
788.99	1890.28
789.16	1822.69
789.34	1949.67
789.52	1892.32
789.69	1877.99
789.87	1816.55
790.04	1890.28
790.22	1955.81
790.39	2068.45
790.57	1943.52
790.74	1920.99
790.92	2009.06
791.09	1794.02
791.27	1941.47
791.44	2019.30
791.62	1908.71
791.79	2021.35
791.97	1886.18
792.15	2138.08
792.32	1990.63
792.50	2066.40
792.67	2074.59
792.85	1992.67
793.02	2017.25
793.20	1896.42
793.37	1898.47
793.55	1955.81
793.72	1855.46
793.90	1976.29
794.07	1884.13
794.25	1904.61
794.42	1978.34
794.60	1968.10
794.77	2037.73
794.95	2017.25
795.12	1968.10
795.30	1937.38
795.47	1871.84
795.65	2215.90
795.82	1923.04
796.00	1914.85
796.17	1920.99
796.34	1877.99
796.52	1939.43
796.69	2021.35
796.87	2013.15
797.04	1925.09
797.22	2084.83
797.39	1966.05
797.57	2009.06
797.74	1920.99
797.92	1996.77
798.09	1908.71
798.27	1982.43
798.44	1882.08
798.62	1927.14
798.79	2023.39
798.96	1984.48
799.14	1923.04
799.31	2168.80
799.49	1980.39
799.66	1894.37
799.84	1986.53
800.01	1849.32
800.19	1947.62
800.36	1791.97
800.53	2004.96
800.71	1964.00
800.88	1978.34
801.06	1877.99
801.23	1916.90
801.41	1920.99
801.58	1916.90
801.75	1904.61
801.93	2015.20
802.10	2029.54
802.28	1980.39
802.45	1923.04
802.63	1976.29
802.80	2066.40
802.97	1933.28
803.15	1941.47
803.32	1955.81
803.50	1970.15
803.67	1867.75
803.84	1863.65
804.02	2054.11
804.19	1957.86
804.37	1722.34
804.54	1880.04
804.71	1966.05
804.89	1941.47
805.06	1859.56
805.24	1853.41
805.41	1845.22
805.58	1914.85
805.76	2217.95
805.93	1914.85
806.10	2023.39
806.28	1998.82
806.45	1986.53
806.63	1992.67
806.80	1914.85
806.97	1900.52
807.15	1949.67
807.32	1886.18
807.49	1974.24
807.67	1800.16
807.84	1953.76
808.01	1773.54
808.19	2078.69
808.36	2119.65
808.54	1875.94
808.71	1959.91
808.88	1920.99
809.06	2021.35
809.23	2029.54
809.40	1910.75
809.58	1957.86
809.75	1943.52
809.92	1875.94
810.10	2232.29
810.27	1933.28
810.44	1904.61
810.62	2033.63
810.79	1912.80
810.96	1890.28
811.14	1986.53
811.31	2023.39
811.48	1984.48
811.66	2029.54
811.83	2050.02
812.00	2058.21
812.18	1951.71
812.35	2166.75
812.52	1959.91
812.69	1851.36
812.87	1884.13
813.04	1927.14
813.21	1957.86
813.39	1933.28
813.56	1888.23
813.73	2009.06
813.91	1865.70
814.08	1980.39
814.25	1980.39
814.42	1828.84
814.60	1902.56
814.77	1970.15
814.94	1951.71
815.12	2054.11
815.29	2050.02
815.46	1929.19
815.63	2023.39
815.81	1912.80
815.98	1925.09
816.15	2004.96
816.33	1902.56
816.50	1888.23
816.67	1933.28
816.84	1964.00
817.02	1861.60
817.19	1882.08
817.36	2007.01
817.53	2019.30
817.71	1920.99
817.88	1968.10
818.05	1986.53
818.22	1916.90
818.40	2078.69
818.57	1914.85
818.74	1916.90
818.91	1896.42
819.09	1990.63
819.26	2050.02
819.43	1892.32
819.60	1902.56
819.78	1966.05
819.95	2029.54
820.12	1906.66
820.29	2052.06
820.47	2009.06
820.64	1939.43
820.81	1863.65
820.98	1920.99
821.15	1925.09
821.33	2015.20
821.50	1806.31
821.67	2002.91
821.84	1894.37
822.02	1982.43
822.19	1961.95
822.36	1941.47
822.53	1957.86
822.70	1867.75
822.88	1972.19
823.05	2047.97
823.22	1955.81
823.39	1972.19
823.56	1964.00
823.74	2076.64
823.91	1845.22
824.08	1910.75
824.25	1837.03
824.42	2017.25
824.60	1900.52
824.77	1875.94
824.94	1998.82
825.11	2013.15
825.28	1908.71
825.45	1935.33
825.63	1957.86
825.80	1896.42
825.97	1986.53
826.14	1941.47
826.31	1875.94
826.48	2052.06
826.66	1966.05
826.83	1812.45
827.00	1972.19
827.17	1894.37
827.34	1935.33
827.51	1925.09
827.69	2023.39
827.86	1820.64
828.03	1951.71
828.20	1898.47
828.37	1906.66
828.54	1976.29
828.71	1923.04
828.89	2031.58
829.06	1896.42
829.23	2076.64
829.40	1849.32
829.57	1957.86
829.74	1964.00
829.91	1863.65
830.09	1927.14
830.26	1966.05
830.43	2056.16
830.60	1992.67
830.77	2025.44
830.94	2023.39
831.11	1976.29
831.28	1890.28
831.46	2062.30
831.63	1884.13
831.80	2064.35
831.97	1920.99
832.14	1935.33
832.31	2019.30
832.48	1908.71
832.65	2072.54
832.82	2019.30
832.99	1941.47
833.17	1847.27
833.34	2054.11
833.51	2056.16
833.68	1736.68
833.85	2037.73
834.02	1898.47
834.19	1941.47
834.36	1935.33
834.53	1935.33
834.70	2056.16
834.87	1970.15
835.04	2004.96
835.22	1900.52
835.39	1939.43
835.56	1931.23
835.73	1959.91
835.90	2007.01
836.07	1843.17
836.24	2031.58
836.41	1871.84
836.58	1882.08
836.75	2052.06
836.92	2009.06
837.09	1902.56
837.26	2056.16
837.43	1982.43
837.60	2052.06
837.77	1939.43
837.94	1984.48
838.12	2068.45
838.29	1918.95
838.46	1859.56
838.63	1914.85
838.80	2043.87
838.97	1970.15
839.14	1976.29
839.31	1959.91
839.48	2007.01
839.65	1927.14
839.82	1984.48
839.99	2021.35
840.16	1933.28
840.33	1849.32
840.50	1970.15
840.67	1912.80
840.84	1767.40
841.01	1943.52
841.18	1871.84
841.35	1882.08
841.52	2013.15
841.69	2052.06
841.86	2004.96
842.03	2033.63
842.20	2023.39
842.37	1902.56
842.54	1910.75
842.71	1984.48
842.88	1863.65
843.05	1984.48
843.22	1923.04
843.39	1992.67
843.56	1863.65
843.73	1923.04
843.90	1974.24
844.07	1974.24
844.24	2099.17
844.41	1959.91
844.58	1980.39
844.75	1875.94
844.92	1939.43
845.09	1964.00
845.26	1877.99
845.43	2041.82
845.60	1873.89
845.77	2025.44
845.94	1914.85
846.10	1974.24
846.27	1853.41
846.44	1869.80
846.61	1834.98
846.78	1949.67
846.95	1996.77
847.12	1937.38
847.29	1964.00
847.46	1923.04
847.63	1982.43
847.80	1875.94
847.97	1912.80
848.14	2095.07
848.31	1896.42
848.48	1867.75
848.65	1992.67
848.82	1886.18
848.98	2109.41
849.15	1906.66
849.32	2054.11
849.49	2004.96
849.66	1945.57
849.83	1935.33
850.00	1935.33
850.17	2017.25
850.34	1966.05
850.51	1834.98
850.68	1867.75
850.85	2086.88
851.01	1996.77
851.18	1968.10
851.35	1910.75
851.52	1943.52
851.69	2090.98
851.86	1855.46
852.03	1927.14
852.20	1990.63
852.37	1937.38
852.53	1867.75
852.70	1927.14
852.87	1998.82
853.04	1947.62
853.21	1980.39
853.38	2088.93
853.55	2095.07
853.72	2068.45
853.89	1941.47
854.05	1845.22
854.22	1908.71
854.39	1845.22
854.56	2017.25
854.73	2072.54
854.90	1869.80
855.07	1890.28
855.23	1908.71
855.40	1873.89
855.57	1931.23
855.74	1828.84
855.91	2105.31
856.08	1873.89
856.25	1857.51
856.41	1925.09
856.58	1869.80
856.75	1910.75
856.92	1929.19
857.09	2058.21
857.26	1841.12
857.42	1892.32
857.59	1970.15
857.76	1943.52
857.93	1984.48
858.10	1970.15
858.27	1867.75
858.43	1945.57
858.60	1923.04
858.77	1867.75
858.94	1892.32
859.11	2037.73
859.27	1869.80
859.44	1914.85
859.61	2117.60
859.78	1941.47
859.95	1896.42
860.12	1902.56
860.28	2097.12
860.45	2129.89
860.62	1849.32
860.79	1988.58
860.95	1890.28
861.12	1849.32
861.29	1943.52
861.46	1841.12
861.63	1968.10
861.79	1964.00
861.96	1877.99
862.13	1869.80
862.30	2064.35
862.47	1890.28
862.63	1867.75
862.80	1986.53
862.97	2009.06
863.14	1988.58
863.30	1949.67
863.47	1888.23
863.64	2072.54
863.81	1937.38
863.97	1927.14
864.14	1925.09
864.31	1939.43
864.48	1898.47
864.65	1925.09
864.81	1992.67
864.98	2039.78
865.15	2070.50
865.32	2062.30
865.48	1976.29
865.65	2056.16
865.82	1966.05
865.98	1990.63
866.15	1990.63
866.32	1853.41
866.49	1964.00
866.65	1998.82
866.82	1925.09
866.99	1925.09
867.16	1933.28
867.32	1884.13
867.49	1867.75
867.66	1939.43
867.83	1908.71
867.99	1806.31
868.16	1904.61
868.33	1853.41
868.49	2021.35
868.66	1918.95
868.83	2004.96
868.99	1988.58
869.16	1980.39
869.33	1966.05
869.50	1982.43
869.66	1978.34
869.83	1976.29
870.00	1851.36
870.16	2025.44
870.33	1931.23
870.50	2043.87
870.66	1898.47
870.83	2056.16
871.00	1908.71
871.17	2015.20
871.33	1976.29
871.50	1951.71
871.67	1912.80
871.83	1828.84
872.00	2082.78
872.17	1943.52
872.33	1984.48
872.50	1986.53
872.67	1873.89
872.83	1925.09
873.00	1984.48
873.17	1998.82
873.33	1974.24
873.50	2015.20
873.67	1847.27
873.83	1894.37
874.00	1908.71
874.16	2082.78
874.33	1986.53
874.50	1890.28
874.66	2002.91
874.83	2000.87
875.00	1916.90
875.16	2041.82
875.33	2017.25
875.50	1841.12
875.66	1931.23
875.83	1966.05
875.99	1982.43
876.16	1994.72
876.33	1906.66
876.49	1935.33
876.66	2029.54
876.83	1943.52
876.99	1771.49
877.16	1984.48
877.32	1882.08
877.49	1900.52
877.66	1970.15
877.82	2050.02
877.99	1972.19
878.15	2031.58
878.32	2013.15
878.49	2019.30
878.65	1892.32
878.82	2027.49
878.98	1861.60
879.15	2025.44
879.32	2002.91
879.48	2000.87
879.65	1982.43
879.81	2025.44
879.98	1929.19
880.15	1916.90
880.31	2072.54
880.48	1863.65
880.64	2011.11
880.81	1953.76
880.97	2029.54
881.14	2000.87
881.31	1900.52
881.47	2072.54
881.64	1888.23
881.80	1834.98
881.97	1964.00
882.13	1957.86
882.30	1892.32
882.47	1877.99
882.63	1808.36
882.80	2009.06
882.96	1892.32
883.13	2047.97
883.29	1939.43
883.46	1968.10
883.62	2189.28
883.79	1986.53
883.95	1957.86
884.12	1927.14
884.29	2099.17
884.45	1964.00
884.62	1959.91
884.78	1855.46
884.95	1968.10
885.11	1894.37
885.28	2041.82
885.44	1898.47
885.61	1990.63
885.77	2054.11
885.94	1951.71
886.10	1964.00
886.27	1961.95
886.43	2021.35
886.60	1988.58
886.76	1912.80
886.93	1892.32
887.09	1957.86
887.26	1871.84
887.42	1976.29
887.59	1935.33
887.75	2140.13
887.92	2033.63
888.08	2029.54
888.25	2041.82
888.41	2068.45
888.58	1988.58
888.74	1906.66
888.91	1914.85
>>>>>End Processed Spectral Data<<<<<
