SpectraSuite Data File
++++++++++++++++++++++++++++++++++++
Date: Wed May 04 22:45:59 CEST 2016
User: root
Dark Spectrum Present: No
Reference Spectrum Present: No
Number of Sampled Component Spectra: 1
Spectrometers: USB4C02835
Integration Time (usec): 100000 (USB4C02835)
Spectra Averaged: 1 (USB4C02835)
Boxcar Smoothing: 0 (USB4C02835)
Correct for Electrical Dark: No (USB4C02835)
Strobe/Lamp Enabled: No (USB4C02835)
Correct for Detector Non-linearity: No (USB4C02835)
Correct for Stray Light: No (USB4C02835)
Number of Pixels in Processed Spectrum: 3648
>>>>>Begin Processed Spectral Data<<<<<
177.47	1595.37
177.69	1595.37
177.91	1595.37
178.13	1587.18
178.36	1595.37
178.58	1900.52
178.80	1988.58
179.02	1841.12
179.24	1869.80
179.46	1912.80
179.68	2035.68
179.90	1972.19
180.13	1957.86
180.35	1886.18
180.57	1953.76
180.79	2105.31
181.01	1966.05
181.23	1957.86
181.45	2011.11
181.67	2015.20
181.90	2017.25
182.12	1920.99
182.34	1933.28
182.56	1994.72
182.78	1955.81
183.00	1908.71
183.22	1869.80
183.44	1880.04
183.66	2193.37
183.89	2058.21
184.11	1873.89
184.33	2027.49
184.55	1959.91
184.77	1941.47
184.99	1943.52
185.21	1931.23
185.43	2117.60
185.65	1937.38
185.87	1929.19
186.10	2170.85
186.32	2074.59
186.54	1939.43
186.76	1957.86
186.98	2086.88
187.20	1916.90
187.42	1959.91
187.64	1955.81
187.86	1988.58
188.08	2041.82
188.30	1964.00
188.52	1912.80
188.75	2037.73
188.97	2084.83
189.19	1900.52
189.41	1918.95
189.63	1912.80
189.85	1857.51
190.07	1853.41
190.29	1843.17
190.51	2000.87
190.73	1826.79
190.95	2021.35
191.17	1920.99
191.39	1832.93
191.61	2041.82
191.84	1875.94
192.06	1927.14
192.28	1794.02
192.50	2191.33
192.72	1929.19
192.94	1914.85
193.16	1982.43
193.38	1996.77
193.60	1925.09
193.82	1945.57
194.04	2119.65
194.26	1974.24
194.48	1945.57
194.70	1910.75
194.92	1978.34
195.14	2031.58
195.36	1943.52
195.58	1959.91
195.80	1959.91
196.02	1912.80
196.24	1865.70
196.46	2000.87
196.69	1927.14
196.91	2166.75
197.13	1974.24
197.35	1920.99
197.57	2025.44
197.79	2039.78
198.01	1951.71
198.23	1970.15
198.45	1929.19
198.67	1910.75
198.89	1886.18
199.11	1980.39
199.33	1830.88
199.55	1847.27
199.77	1880.04
199.99	2013.15
200.21	2007.01
200.43	2035.68
200.65	1894.37
200.87	1851.36
201.09	1923.04
201.31	1898.47
201.53	2029.54
201.75	2025.44
201.97	1873.89
202.19	1959.91
202.41	1916.90
202.63	2000.87
202.85	2015.20
203.07	1923.04
203.29	1888.23
203.51	1935.33
203.73	1853.41
203.95	2244.57
204.17	1974.24
204.39	1986.53
204.61	1923.04
204.83	1937.38
205.05	2039.78
205.27	1959.91
205.49	2072.54
205.71	1968.10
205.93	1939.43
206.15	1865.70
206.37	1978.34
206.59	1929.19
206.81	1826.79
207.03	1892.32
207.25	1871.84
207.47	1968.10
207.69	1900.52
207.91	2041.82
208.13	2056.16
208.34	1912.80
208.56	1822.69
208.78	1957.86
209.00	1972.19
209.22	1947.62
209.44	1867.75
209.66	1947.62
209.88	1966.05
210.10	1951.71
210.32	1884.13
210.54	2029.54
210.76	1886.18
210.98	2007.01
211.20	1847.27
211.42	1945.57
211.64	2103.26
211.86	1998.82
212.08	2019.30
212.30	1964.00
212.52	1933.28
212.74	1974.24
212.96	1890.28
213.17	1935.33
213.39	2097.12
213.61	2084.83
213.83	1920.99
214.05	1970.15
214.27	2019.30
214.49	1808.36
214.71	1777.64
214.93	2050.02
215.15	1984.48
215.37	2086.88
215.59	1904.61
215.81	2015.20
216.03	2101.22
216.24	1964.00
216.46	1898.47
216.68	1920.99
216.90	2043.87
217.12	2070.50
217.34	1925.09
217.56	1984.48
217.78	2054.11
218.00	2050.02
218.22	1970.15
218.44	1920.99
218.66	1951.71
218.87	2082.78
219.09	1908.71
219.31	1957.86
219.53	1947.62
219.75	1898.47
219.97	1941.47
220.19	1996.77
220.41	2025.44
220.63	2027.49
220.85	1923.04
221.06	1933.28
221.28	2123.74
221.50	2043.87
221.72	1912.80
221.94	1927.14
222.16	1996.77
222.38	2021.35
222.60	2009.06
222.82	1935.33
223.03	1978.34
223.25	1853.41
223.47	1951.71
223.69	2066.40
223.91	1998.82
224.13	1968.10
224.35	1818.60
224.57	2033.63
224.78	1974.24
225.00	1957.86
225.22	1972.19
225.44	1916.90
225.66	2031.58
225.88	1935.33
226.10	1990.63
226.32	1873.89
226.53	2078.69
226.75	1873.89
226.97	1908.71
227.19	1920.99
227.41	1896.42
227.63	1964.00
227.85	1791.97
228.06	1892.32
228.28	1964.00
228.50	2050.02
228.72	1865.70
228.94	1906.66
229.16	1802.21
229.37	1951.71
229.59	1935.33
229.81	2076.64
230.03	1986.53
230.25	1884.13
230.47	1859.56
230.69	1839.08
230.90	1996.77
231.12	1945.57
231.34	1980.39
231.56	1953.76
231.78	1908.71
232.00	1941.47
232.21	1927.14
232.43	1955.81
232.65	1806.31
232.87	1998.82
233.09	1877.99
233.30	1896.42
233.52	2074.59
233.74	1943.52
233.96	1877.99
234.18	1933.28
234.40	1869.80
234.61	2183.13
234.83	1865.70
235.05	1839.08
235.27	2109.41
235.49	1994.72
235.70	1894.37
235.92	2043.87
236.14	2072.54
236.36	2170.85
236.58	1865.70
236.79	1916.90
237.01	1955.81
237.23	1935.33
237.45	2072.54
237.67	1964.00
237.88	2043.87
238.10	2125.79
238.32	1851.36
238.54	1888.23
238.76	1984.48
238.97	1961.95
239.19	1927.14
239.41	1998.82
239.63	2088.93
239.85	1918.95
240.06	1798.12
240.28	1959.91
240.50	2000.87
240.72	1976.29
240.93	1859.56
241.15	2029.54
241.37	1972.19
241.59	2109.41
241.81	1990.63
242.02	1918.95
242.24	1990.63
242.46	2017.25
242.68	1875.94
242.89	1982.43
243.11	1982.43
243.33	1988.58
243.55	2058.21
243.76	1949.67
243.98	1894.37
244.20	1920.99
244.42	1912.80
244.64	1998.82
244.85	1896.42
245.07	1984.48
245.29	1947.62
245.51	2050.02
245.72	1994.72
245.94	2011.11
246.16	1957.86
246.38	1968.10
246.59	1841.12
246.81	1908.71
247.03	1933.28
247.24	1791.97
247.46	1877.99
247.68	1937.38
247.90	1865.70
248.11	1845.22
248.33	1992.67
248.55	1970.15
248.77	1877.99
248.98	1951.71
249.20	2080.74
249.42	1947.62
249.64	2002.91
249.85	1910.75
250.07	1970.15
250.29	2027.49
250.50	2027.49
250.72	1972.19
250.94	2047.97
251.16	2111.46
251.37	1894.37
251.59	1972.19
251.81	2017.25
252.02	2064.35
252.24	1863.65
252.46	2101.22
252.68	1964.00
252.89	1953.76
253.11	1771.49
253.33	2035.68
253.54	2115.55
253.76	1816.55
253.98	1888.23
254.20	1912.80
254.41	1798.12
254.63	1920.99
254.85	1861.60
255.06	1978.34
255.28	1986.53
255.50	1974.24
255.71	1947.62
255.93	1822.69
256.15	1933.28
256.36	2066.40
256.58	1882.08
256.80	1992.67
257.02	1972.19
257.23	1947.62
257.45	1902.56
257.67	1996.77
257.88	1890.28
258.10	2056.16
258.32	1908.71
258.53	1929.19
258.75	2078.69
258.97	1923.04
259.18	1976.29
259.40	1863.65
259.62	2097.12
259.83	2033.63
260.05	1933.28
260.27	2314.20
260.48	1935.33
260.70	1994.72
260.92	1939.43
261.13	1914.85
261.35	1988.58
261.57	1957.86
261.78	1900.52
262.00	1906.66
262.22	1974.24
262.43	1863.65
262.65	1904.61
262.86	1931.23
263.08	2123.74
263.30	1947.62
263.51	1771.49
263.73	1822.69
263.95	2095.07
264.16	1920.99
264.38	1904.61
264.60	1900.52
264.81	1937.38
265.03	2011.11
265.25	2000.87
265.46	1923.04
265.68	2037.73
265.89	2031.58
266.11	1812.45
266.33	1990.63
266.54	2027.49
266.76	1914.85
266.98	1933.28
267.19	2031.58
267.41	1992.67
267.62	1976.29
267.84	1818.60
268.06	1984.48
268.27	1957.86
268.49	2017.25
268.70	1970.15
268.92	1880.04
269.14	1884.13
269.35	1900.52
269.57	1923.04
269.79	1961.95
270.00	1937.38
270.22	2113.50
270.43	1920.99
270.65	1773.54
270.87	2070.50
271.08	1990.63
271.30	2021.35
271.51	1994.72
271.73	1976.29
271.95	1994.72
272.16	1986.53
272.38	2056.16
272.59	1949.67
272.81	2013.15
273.02	1968.10
273.24	1994.72
273.46	2041.82
273.67	1906.66
273.89	1951.71
274.10	1935.33
274.32	1996.77
274.54	2021.35
274.75	1937.38
274.97	1925.09
275.18	2021.35
275.40	2054.11
275.61	2002.91
275.83	1978.34
276.05	1918.95
276.26	1974.24
276.48	1894.37
276.69	1916.90
276.91	1882.08
277.12	2015.20
277.34	1964.00
277.55	1980.39
277.77	1996.77
277.99	1869.80
278.20	1869.80
278.42	1894.37
278.63	1925.09
278.85	1888.23
279.06	1853.41
279.28	1988.58
279.49	2004.96
279.71	2054.11
279.93	1984.48
280.14	1939.43
280.36	1894.37
280.57	2025.44
280.79	2015.20
281.00	1980.39
281.22	1898.47
281.43	2025.44
281.65	1761.25
281.86	1812.45
282.08	2009.06
282.29	2101.22
282.51	1916.90
282.73	1955.81
282.94	1871.84
283.16	2011.11
283.37	2080.74
283.59	1978.34
283.80	2009.06
284.02	1984.48
284.23	1966.05
284.45	1955.81
284.66	1839.08
284.88	1945.57
285.09	1970.15
285.31	2043.87
285.52	2029.54
285.74	1851.36
285.95	1986.53
286.17	1959.91
286.38	2023.39
286.60	1904.61
286.81	1880.04
287.03	1968.10
287.24	1923.04
287.46	2002.91
287.67	1923.04
287.89	2025.44
288.10	2064.35
288.32	1966.05
288.53	1980.39
288.75	1955.81
288.96	2031.58
289.18	1953.76
289.39	1951.71
289.61	2015.20
289.82	2236.38
290.04	2082.78
290.25	1830.88
290.47	1904.61
290.68	1908.71
290.90	2037.73
291.11	1779.68
291.33	2019.30
291.54	1861.60
291.76	1896.42
291.97	1957.86
292.18	1929.19
292.40	1904.61
292.61	1886.18
292.83	2113.50
293.04	1918.95
293.26	2025.44
293.47	1877.99
293.69	1826.79
293.90	1920.99
294.12	2045.92
294.33	1937.38
294.55	1951.71
294.76	1968.10
294.97	2080.74
295.19	2097.12
295.40	1927.14
295.62	1984.48
295.83	2009.06
296.05	1939.43
296.26	2023.39
296.48	1914.85
296.69	1988.58
296.90	1906.66
297.12	2009.06
297.33	2031.58
297.55	1916.90
297.76	1978.34
297.98	2050.02
298.19	1964.00
298.41	1937.38
298.62	1957.86
298.83	2056.16
299.05	1937.38
299.26	1816.55
299.48	1916.90
299.69	2004.96
299.90	1949.67
300.12	1972.19
300.33	2031.58
300.55	1933.28
300.76	2007.01
300.98	1843.17
301.19	2013.15
301.40	1916.90
301.62	1976.29
301.83	2037.73
302.05	1929.19
302.26	1951.71
302.47	1824.74
302.69	1869.80
302.90	1955.81
303.12	1814.50
303.33	2056.16
303.54	2105.31
303.76	1968.10
303.97	2011.11
304.19	2166.75
304.40	1849.32
304.61	2002.91
304.83	2113.50
305.04	2025.44
305.26	2080.74
305.47	1906.66
305.68	1935.33
305.90	1980.39
306.11	2060.26
306.33	1990.63
306.54	1964.00
306.75	1849.32
306.97	1785.83
307.18	1869.80
307.39	1857.51
307.61	2027.49
307.82	1970.15
308.04	2068.45
308.25	1890.28
308.46	2045.92
308.68	1982.43
308.89	1986.53
309.10	2078.69
309.32	1980.39
309.53	1988.58
309.74	1890.28
309.96	1837.03
310.17	2033.63
310.39	1964.00
310.60	1992.67
310.81	2009.06
311.03	1888.23
311.24	2019.30
311.45	1943.52
311.67	2039.78
311.88	1943.52
312.09	1931.23
312.31	1918.95
312.52	1943.52
312.73	1890.28
312.95	1802.21
313.16	1896.42
313.37	2125.79
313.59	2031.58
313.80	1978.34
314.01	2095.07
314.23	1933.28
314.44	1859.56
314.65	1882.08
314.87	1853.41
315.08	1912.80
315.29	1914.85
315.51	1839.08
315.72	1843.17
315.93	2041.82
316.15	2045.92
316.36	1943.52
316.57	1996.77
316.79	2027.49
317.00	1951.71
317.21	2009.06
317.43	1912.80
317.64	1964.00
317.85	1914.85
318.07	1851.36
318.28	2021.35
318.49	2154.46
318.70	2236.38
318.92	2125.79
319.13	2131.94
319.34	2052.06
319.56	2043.87
319.77	2097.12
319.98	2090.98
320.20	2066.40
320.41	2078.69
320.62	2052.06
320.83	1972.19
321.05	2168.80
321.26	1964.00
321.47	1964.00
321.69	2058.21
321.90	1916.90
322.11	1871.84
322.32	1966.05
322.54	2066.40
322.75	1959.91
322.96	2117.60
323.18	1839.08
323.39	1769.44
323.60	1851.36
323.81	1945.57
324.03	1894.37
324.24	2002.91
324.45	1914.85
324.66	1957.86
324.88	2043.87
325.09	2131.94
325.30	1918.95
325.52	1916.90
325.73	2029.54
325.94	1949.67
326.15	1884.13
326.37	1927.14
326.58	2037.73
326.79	2031.58
327.00	1978.34
327.22	1931.23
327.43	1818.60
327.64	1830.88
327.85	1996.77
328.07	1986.53
328.28	2125.79
328.49	1877.99
328.70	1953.76
328.92	1931.23
329.13	1916.90
329.34	1996.77
329.55	2064.35
329.76	2056.16
329.98	1920.99
330.19	2109.41
330.40	1974.24
330.61	1990.63
330.83	2021.35
331.04	1943.52
331.25	2031.58
331.46	1955.81
331.68	1877.99
331.89	2029.54
332.10	1955.81
332.31	1869.80
332.52	1873.89
332.74	2027.49
332.95	1826.79
333.16	1916.90
333.37	2011.11
333.58	1869.80
333.80	1951.71
334.01	1832.93
334.22	1873.89
334.43	1886.18
334.64	1916.90
334.86	1847.27
335.07	1892.32
335.28	2068.45
335.49	1851.36
335.70	1992.67
335.92	2023.39
336.13	2119.65
336.34	2033.63
336.55	1976.29
336.76	1957.86
336.98	1853.41
337.19	1974.24
337.40	2152.42
337.61	2185.18
337.82	1869.80
338.04	2009.06
338.25	1847.27
338.46	1968.10
338.67	1904.61
338.88	1900.52
339.09	1867.75
339.31	1863.65
339.52	1884.13
339.73	1886.18
339.94	1882.08
340.15	2084.83
340.36	1902.56
340.58	2009.06
340.79	1908.71
341.00	1959.91
341.21	1869.80
341.42	2101.22
341.63	1935.33
341.85	2013.15
342.06	1986.53
342.27	1843.17
342.48	2068.45
342.69	1863.65
342.90	1968.10
343.12	2009.06
343.33	1974.24
343.54	2101.22
343.75	2076.64
343.96	1943.52
344.17	1949.67
344.38	1941.47
344.60	1869.80
344.81	1873.89
345.02	1943.52
345.23	2066.40
345.44	2150.37
345.65	2031.58
345.86	2007.01
346.07	2129.89
346.29	1961.95
346.50	2007.01
346.71	2009.06
346.92	2037.73
347.13	2125.79
347.34	1916.90
347.55	1918.95
347.76	2035.68
347.98	1886.18
348.19	1837.03
348.40	2131.94
348.61	1904.61
348.82	2095.07
349.03	1951.71
349.24	1894.37
349.45	2025.44
349.66	1841.12
349.88	1898.47
350.09	1929.19
350.30	2084.83
350.51	1992.67
350.72	2035.68
350.93	1959.91
351.14	1908.71
351.35	1984.48
351.56	1925.09
351.77	1894.37
351.99	1988.58
352.20	2062.30
352.41	2070.50
352.62	1785.83
352.83	1863.65
353.04	1898.47
353.25	1933.28
353.46	2090.98
353.67	1990.63
353.88	1834.98
354.09	1972.19
354.30	1961.95
354.52	2000.87
354.73	1929.19
354.94	1964.00
355.15	2027.49
355.36	2076.64
355.57	1918.95
355.78	1953.76
355.99	1920.99
356.20	1939.43
356.41	1984.48
356.62	1980.39
356.83	1929.19
357.04	2037.73
357.25	1851.36
357.46	1949.67
357.68	1920.99
357.89	1859.56
358.10	1984.48
358.31	1925.09
358.52	1914.85
358.73	1898.47
358.94	1857.51
359.15	1945.57
359.36	1953.76
359.57	1957.86
359.78	1929.19
359.99	1972.19
360.20	1880.04
360.41	2021.35
360.62	2060.26
360.83	1949.67
361.04	2041.82
361.25	1937.38
361.46	2080.74
361.67	1964.00
361.88	2031.58
362.09	2033.63
362.30	1976.29
362.51	1869.80
362.72	1923.04
362.93	2039.78
363.14	2050.02
363.35	2031.58
363.56	1906.66
363.78	1943.52
363.99	2031.58
364.20	1949.67
364.41	2007.01
364.62	2113.50
364.83	2033.63
365.04	1947.62
365.25	1972.19
365.46	2082.78
365.67	1892.32
365.88	1996.77
366.09	2019.30
366.30	1986.53
366.51	2033.63
366.72	1925.09
366.93	1941.47
367.14	1978.34
367.35	2154.46
367.56	2019.30
367.77	2056.16
367.98	1951.71
368.18	1976.29
368.39	1964.00
368.60	1892.32
368.81	1984.48
369.02	1892.32
369.23	1955.81
369.44	1828.84
369.65	1988.58
369.86	2013.15
370.07	2023.39
370.28	1910.75
370.49	1986.53
370.70	1984.48
370.91	1871.84
371.12	1834.98
371.33	2127.84
371.54	1974.24
371.75	2076.64
371.96	1826.79
372.17	1976.29
372.38	1980.39
372.59	1945.57
372.80	1916.90
373.01	1935.33
373.22	1906.66
373.43	2027.49
373.64	1847.27
373.85	2068.45
374.06	2086.88
374.26	2039.78
374.47	1933.28
374.68	2056.16
374.89	1964.00
375.10	1886.18
375.31	1949.67
375.52	1933.28
375.73	2068.45
375.94	1908.71
376.15	1992.67
376.36	1900.52
376.57	1933.28
376.78	1871.84
376.99	2011.11
377.20	2060.26
377.40	1943.52
377.61	2078.69
377.82	1822.69
378.03	2052.06
378.24	2021.35
378.45	1990.63
378.66	1961.95
378.87	1847.27
379.08	1843.17
379.29	1937.38
379.50	2031.58
379.71	1933.28
379.91	2035.68
380.12	1920.99
380.33	1959.91
380.54	1953.76
380.75	1970.15
380.96	1964.00
381.17	2007.01
381.38	1951.71
381.59	1992.67
381.80	1978.34
382.00	2156.51
382.21	2007.01
382.42	2189.28
382.63	2191.33
382.84	2027.49
383.05	2039.78
383.26	2076.64
383.47	1966.05
383.68	2080.74
383.88	2017.25
384.09	2037.73
384.30	2127.84
384.51	2013.15
384.72	1920.99
384.93	1894.37
385.14	2027.49
385.35	2078.69
385.55	1865.70
385.76	2119.65
385.97	1912.80
386.18	1863.65
386.39	1894.37
386.60	1964.00
386.81	2095.07
387.02	1961.95
387.22	1925.09
387.43	2052.06
387.64	2023.39
387.85	2107.36
388.06	2285.53
388.27	3901.38
388.48	8580.99
388.68	11818.83
388.89	14223.14
389.10	15169.30
389.31	13860.65
389.52	10893.15
389.73	9312.11
389.93	8517.50
390.14	7856.01
390.35	7196.56
390.56	6389.66
390.77	5136.31
390.98	4091.84
391.18	3205.07
391.39	2578.39
391.60	2152.42
391.81	2123.74
392.02	1939.43
392.23	2103.26
392.43	2019.30
392.64	1982.43
392.85	1959.91
393.06	2127.84
393.27	1984.48
393.47	1918.95
393.68	1910.75
393.89	1884.13
394.10	2041.82
394.31	1888.23
394.52	1918.95
394.72	1966.05
394.93	2041.82
395.14	1865.70
395.35	2009.06
395.56	1953.76
395.76	1998.82
395.97	2002.91
396.18	2113.50
396.39	2107.36
396.60	2412.51
396.80	2234.33
397.01	2136.03
397.22	2183.13
397.43	2181.09
397.64	2033.63
397.84	2045.92
398.05	2181.09
398.26	2002.91
398.47	2052.06
398.67	2004.96
398.88	2000.87
399.09	2000.87
399.30	1933.28
399.51	1994.72
399.71	1912.80
399.92	1939.43
400.13	1920.99
400.34	1980.39
400.54	2072.54
400.75	2154.46
400.96	2011.11
401.17	2103.26
401.37	1966.05
401.58	2037.73
401.79	1906.66
402.00	2105.31
402.21	2310.11
402.41	2293.72
402.62	2432.99
402.83	2461.66
403.04	2445.27
403.24	2482.14
403.45	2097.12
403.66	2236.38
403.87	2119.65
404.07	2181.09
404.28	2260.96
404.49	2187.23
404.70	2097.12
404.90	2009.06
405.11	1968.10
405.32	2009.06
405.52	1916.90
405.73	1912.80
405.94	1902.56
406.15	1959.91
406.35	1980.39
406.56	2023.39
406.77	1992.67
406.98	1931.23
407.18	1871.84
407.39	2166.75
407.60	1923.04
407.80	2064.35
408.01	1914.85
408.22	2025.44
408.43	1869.80
408.63	1959.91
408.84	1910.75
409.05	1943.52
409.25	1888.23
409.46	1955.81
409.67	1955.81
409.88	1875.94
410.08	1966.05
410.29	1925.09
410.50	2066.40
410.70	2041.82
410.91	1945.57
411.12	2015.20
411.32	1888.23
411.53	1929.19
411.74	2025.44
411.95	2154.46
412.15	2107.36
412.36	2078.69
412.57	2019.30
412.77	2086.88
412.98	2076.64
413.19	1927.14
413.39	1978.34
413.60	2021.35
413.81	2078.69
414.01	1912.80
414.22	2039.78
414.43	2060.26
414.63	2011.11
414.84	2064.35
415.05	2000.87
415.25	1892.32
415.46	2052.06
415.67	1925.09
415.87	2029.54
416.08	1927.14
416.29	1832.93
416.49	1994.72
416.70	1935.33
416.91	1927.14
417.11	2029.54
417.32	2035.68
417.53	1980.39
417.73	1966.05
417.94	1937.38
418.15	2007.01
418.35	1939.43
418.56	1970.15
418.77	2138.08
418.97	1943.52
419.18	1902.56
419.38	1763.30
419.59	1949.67
419.80	2078.69
420.00	1920.99
420.21	1933.28
420.42	2045.92
420.62	2013.15
420.83	1927.14
421.04	1904.61
421.24	1867.75
421.45	1978.34
421.65	1955.81
421.86	1951.71
422.07	1992.67
422.27	1959.91
422.48	1884.13
422.69	1896.42
422.89	2007.01
423.10	1892.32
423.30	1871.84
423.51	1943.52
423.72	1990.63
423.92	2043.87
424.13	1843.17
424.33	2084.83
424.54	1992.67
424.75	1988.58
424.95	2068.45
425.16	1976.29
425.36	2037.73
425.57	2082.78
425.78	1978.34
425.98	1994.72
426.19	1968.10
426.39	1869.80
426.60	2017.25
426.81	2047.97
427.01	1951.71
427.22	1869.80
427.42	1816.55
427.63	1968.10
427.83	2064.35
428.04	2115.55
428.25	2086.88
428.45	2068.45
428.66	2023.39
428.86	1984.48
429.07	1980.39
429.28	1933.28
429.48	1961.95
429.69	1912.80
429.89	2021.35
430.10	1855.46
430.30	2029.54
430.51	1955.81
430.71	1890.28
430.92	1996.77
431.13	1857.51
431.33	2023.39
431.54	1974.24
431.74	2027.49
431.95	2136.03
432.15	1871.84
432.36	2017.25
432.56	1959.91
432.77	2058.21
432.98	2121.70
433.18	2013.15
433.39	2002.91
433.59	1904.61
433.80	2105.31
434.00	2136.03
434.21	1923.04
434.41	1933.28
434.62	2217.95
434.82	1910.75
435.03	1789.92
435.23	2000.87
435.44	1859.56
435.64	1937.38
435.85	1966.05
436.06	1980.39
436.26	2007.01
436.47	1929.19
436.67	1918.95
436.88	1916.90
437.08	2037.73
437.29	2097.12
437.49	2013.15
437.70	2047.97
437.90	2002.91
438.11	2111.46
438.31	2105.31
438.52	2166.75
438.72	2082.78
438.93	2269.15
439.13	2017.25
439.34	2113.50
439.54	1937.38
439.75	2064.35
439.95	2025.44
440.16	1943.52
440.36	2007.01
440.57	2045.92
440.77	2037.73
440.98	1972.19
441.18	1972.19
441.39	1916.90
441.59	1900.52
441.80	2160.61
442.00	1955.81
442.21	2031.58
442.41	1906.66
442.62	2095.07
442.82	1888.23
443.02	1996.77
443.23	2023.39
443.43	1957.86
443.64	2082.78
443.84	1920.99
444.05	2111.46
444.25	2033.63
444.46	2035.68
444.66	1955.81
444.87	2142.18
445.07	1861.60
445.28	1933.28
445.48	2121.70
445.69	2017.25
445.89	2166.75
446.09	2007.01
446.30	2240.48
446.50	2498.52
446.71	4112.32
446.91	5238.70
447.12	6111.14
447.32	6305.70
447.53	5941.16
447.73	4956.08
447.93	4261.82
448.14	3899.33
448.34	3762.12
448.55	3379.15
448.75	3278.80
448.96	3266.51
449.16	2830.29
449.36	2629.59
449.57	2363.36
449.77	2138.08
449.98	1964.00
450.18	2115.55
450.39	2023.39
450.59	2056.16
450.79	2033.63
451.00	1964.00
451.20	2031.58
451.41	1998.82
451.61	1970.15
451.81	1988.58
452.02	1978.34
452.22	1996.77
452.43	1980.39
452.63	1914.85
452.84	1914.85
453.04	1966.05
453.24	1972.19
453.45	1925.09
453.65	1945.57
453.86	2027.49
454.06	1968.10
454.26	2031.58
454.47	2000.87
454.67	2093.02
454.87	2050.02
455.08	1978.34
455.28	2129.89
455.49	2050.02
455.69	1896.42
455.89	2115.55
456.10	2109.41
456.30	1943.52
456.51	2013.15
456.71	2015.20
456.91	2041.82
457.12	1970.15
457.32	2058.21
457.52	1886.18
457.73	1996.77
457.93	1976.29
458.14	2007.01
458.34	1855.46
458.54	1976.29
458.75	1910.75
458.95	2031.58
459.15	2007.01
459.36	1925.09
459.56	2011.11
459.76	2228.19
459.97	1990.63
460.17	2045.92
460.37	2023.39
460.58	1957.86
460.78	1976.29
460.99	2002.91
461.19	1986.53
461.39	1925.09
461.60	1968.10
461.80	2103.26
462.00	1886.18
462.21	1974.24
462.41	1929.19
462.61	1898.47
462.82	1841.12
463.02	2023.39
463.22	1957.86
463.43	2084.83
463.63	2000.87
463.83	2060.26
464.04	1990.63
464.24	1955.81
464.44	1834.98
464.64	1994.72
464.85	1994.72
465.05	1970.15
465.25	2021.35
465.46	1972.19
465.66	2021.35
465.86	2033.63
466.07	2066.40
466.27	1966.05
466.47	1904.61
466.68	1877.99
466.88	2041.82
467.08	2007.01
467.29	2064.35
467.49	2031.58
467.69	1935.33
467.89	1996.77
468.10	1990.63
468.30	1996.77
468.50	2070.50
468.71	2037.73
468.91	1912.80
469.11	2035.68
469.31	2029.54
469.52	1884.13
469.72	2125.79
469.92	2179.04
470.13	1861.60
470.33	1961.95
470.53	2152.42
470.73	2359.26
470.94	2832.34
471.14	2938.84
471.34	3325.90
471.54	3233.74
471.75	3000.27
471.95	2713.56
472.15	2586.58
472.36	2519.00
472.56	2461.66
472.76	2494.43
472.96	2367.45
473.17	2287.58
473.37	2318.30
473.57	2105.31
473.77	2107.36
473.98	2019.30
474.18	1892.32
474.38	2222.05
474.58	1968.10
474.79	1998.82
474.99	2052.06
475.19	2002.91
475.39	1918.95
475.60	2000.87
475.80	1959.91
476.00	2025.44
476.20	1978.34
476.41	2031.58
476.61	2086.88
476.81	2043.87
477.01	1951.71
477.21	2111.46
477.42	2000.87
477.62	1884.13
477.82	2086.88
478.02	1853.41
478.23	1918.95
478.43	1935.33
478.63	1890.28
478.83	2009.06
479.03	1974.24
479.24	2011.11
479.44	2156.51
479.64	1865.70
479.84	1720.29
480.04	1933.28
480.25	2097.12
480.45	1943.52
480.65	1923.04
480.85	2086.88
481.06	1925.09
481.26	2076.64
481.46	1957.86
481.66	2017.25
481.86	1964.00
482.06	2054.11
482.27	2004.96
482.47	1931.23
482.67	1939.43
482.87	1949.67
483.07	2070.50
483.28	1894.37
483.48	1873.89
483.68	1974.24
483.88	1943.52
484.08	1806.31
484.29	1834.98
484.49	2015.20
484.69	1888.23
484.89	2072.54
485.09	2066.40
485.29	2041.82
485.50	2076.64
485.70	1970.15
485.90	2072.54
486.10	2039.78
486.30	2015.20
486.50	2076.64
486.71	1998.82
486.91	2013.15
487.11	1994.72
487.31	1837.03
487.51	2019.30
487.71	1888.23
487.91	1972.19
488.12	1929.19
488.32	1832.93
488.52	1941.47
488.72	1896.42
488.92	2047.97
489.12	2021.35
489.32	1984.48
489.53	2076.64
489.73	1830.88
489.93	2144.22
490.13	1845.22
490.33	1877.99
490.53	1941.47
490.73	2117.60
490.94	1828.84
491.14	2002.91
491.34	2154.46
491.54	2244.57
491.74	2975.70
491.94	3526.60
492.14	3704.78
492.34	3755.97
492.54	3471.31
492.75	2910.16
492.95	2961.36
493.15	2729.94
493.35	2580.44
493.55	2529.24
493.75	2527.19
493.95	2455.51
494.15	2299.87
494.35	2129.89
494.56	2109.41
494.76	1992.67
494.96	2123.74
495.16	2045.92
495.36	2011.11
495.56	2033.63
495.76	1986.53
495.96	1992.67
496.16	1937.38
496.36	2209.76
496.56	1916.90
496.77	2068.45
496.97	1966.05
497.17	2127.84
497.37	1955.81
497.57	2035.68
497.77	2007.01
497.97	1837.03
498.17	1953.76
498.37	1986.53
498.57	2025.44
498.77	1886.18
498.97	2000.87
499.17	2129.89
499.38	1968.10
499.58	2117.60
499.78	2043.87
499.98	2084.83
500.18	2031.58
500.38	1939.43
500.58	2236.38
500.78	2539.48
500.98	4802.49
501.18	7016.34
501.38	8621.95
501.58	9703.28
501.78	9254.77
501.98	7403.41
502.18	6156.19
502.38	5386.16
502.58	4906.93
502.78	4462.52
502.98	4323.26
503.18	4040.64
503.38	3651.53
503.59	3286.99
503.79	3002.32
503.99	2826.20
504.19	2629.59
504.39	2623.45
504.59	2619.35
504.79	2582.49
504.99	2611.16
505.19	2334.68
505.39	2248.67
505.59	2355.16
505.79	2183.13
505.99	2164.70
506.19	2168.80
506.39	2254.81
506.59	2056.16
506.79	2056.16
506.99	2099.17
507.19	2080.74
507.39	2058.21
507.59	1935.33
507.79	1896.42
507.99	1953.76
508.19	1923.04
508.39	1966.05
508.59	1982.43
508.79	2119.65
508.99	2078.69
509.19	1931.23
509.39	2064.35
509.59	1953.76
509.79	1945.57
509.99	1990.63
510.19	2103.26
510.39	1961.95
510.59	1970.15
510.79	1955.81
510.99	1859.56
511.19	1986.53
511.39	2201.57
511.59	2029.54
511.79	2011.11
511.99	2025.44
512.19	2142.18
512.38	1982.43
512.58	1927.14
512.78	1925.09
512.98	2025.44
513.18	2144.22
513.38	1771.49
513.58	2015.20
513.78	1951.71
513.98	1947.62
514.18	2007.01
514.38	1953.76
514.58	2029.54
514.78	1925.09
514.98	1949.67
515.18	1986.53
515.38	1765.35
515.58	2111.46
515.78	1972.19
515.98	1972.19
516.18	2023.39
516.38	1947.62
516.57	1994.72
516.77	1949.67
516.97	2031.58
517.17	1941.47
517.37	1869.80
517.57	2125.79
517.77	1980.39
517.97	1894.37
518.17	2056.16
518.37	1865.70
518.57	1820.64
518.77	1982.43
518.97	1980.39
519.16	1980.39
519.36	2033.63
519.56	1998.82
519.76	1959.91
519.96	2039.78
520.16	2164.70
520.36	1888.23
520.56	2017.25
520.76	1951.71
520.96	1959.91
521.16	1988.58
521.35	2062.30
521.55	1986.53
521.75	1974.24
521.95	2025.44
522.15	1964.00
522.35	1867.75
522.55	1886.18
522.75	2023.39
522.95	1988.58
523.14	1925.09
523.34	2013.15
523.54	1951.71
523.74	1978.34
523.94	1953.76
524.14	1857.51
524.34	1945.57
524.54	2070.50
524.73	1966.05
524.93	2023.39
525.13	1972.19
525.33	1863.65
525.53	2179.04
525.73	2072.54
525.93	2004.96
526.13	1902.56
526.32	1990.63
526.52	2154.46
526.72	2039.78
526.92	2004.96
527.12	1929.19
527.32	1884.13
527.52	1988.58
527.71	1953.76
527.91	1947.62
528.11	1912.80
528.31	2013.15
528.51	1943.52
528.71	2035.68
528.90	1961.95
529.10	2050.02
529.30	2093.02
529.50	1927.14
529.70	1959.91
529.90	1957.86
530.09	1970.15
530.29	1904.61
530.49	2011.11
530.69	2187.23
530.89	2062.30
531.09	2097.12
531.28	1937.38
531.48	2017.25
531.68	2054.11
531.88	2023.39
532.08	2039.78
532.28	1884.13
532.47	2041.82
532.67	2090.98
532.87	2013.15
533.07	1937.38
533.27	2097.12
533.46	2052.06
533.66	2007.01
533.86	1984.48
534.06	1996.77
534.26	2031.58
534.45	2043.87
534.65	2052.06
534.85	2033.63
535.05	1951.71
535.25	2013.15
535.44	1875.94
535.64	2111.46
535.84	1996.77
536.04	2023.39
536.24	1929.19
536.43	1916.90
536.63	1984.48
536.83	2002.91
537.03	1933.28
537.22	1914.85
537.42	1867.75
537.62	2031.58
537.82	1896.42
538.02	2097.12
538.21	2056.16
538.41	2168.80
538.61	2019.30
538.81	1972.19
539.00	2039.78
539.20	1892.32
539.40	1929.19
539.60	2080.74
539.79	2023.39
539.99	1949.67
540.19	1927.14
540.39	1974.24
540.58	1996.77
540.78	2119.65
540.98	1961.95
541.18	2023.39
541.37	2013.15
541.57	1937.38
541.77	2088.93
541.97	1906.66
542.16	1937.38
542.36	1953.76
542.56	1888.23
542.76	2068.45
542.95	2007.01
543.15	2015.20
543.35	2084.83
543.54	1925.09
543.74	1912.80
543.94	2103.26
544.14	1976.29
544.33	2004.96
544.53	1937.38
544.73	1984.48
544.93	1900.52
545.12	2000.87
545.32	1914.85
545.52	1982.43
545.71	1943.52
545.91	1937.38
546.11	1964.00
546.30	1908.71
546.50	2002.91
546.70	2062.30
546.90	1984.48
547.09	1837.03
547.29	1933.28
547.49	1943.52
547.68	1933.28
547.88	1898.47
548.08	1998.82
548.27	2570.20
548.47	1982.43
548.67	1875.94
548.87	2025.44
549.06	1966.05
549.26	2007.01
549.46	1937.38
549.65	1945.57
549.85	2025.44
550.05	2007.01
550.24	1886.18
550.44	1953.76
550.64	1920.99
550.83	1945.57
551.03	2060.26
551.23	2107.36
551.42	2066.40
551.62	1982.43
551.82	1992.67
552.01	1900.52
552.21	2115.55
552.41	1994.72
552.60	2220.00
552.80	1935.33
553.00	1949.67
553.19	2000.87
553.39	2060.26
553.59	1998.82
553.78	1998.82
553.98	1947.62
554.17	1898.47
554.37	1947.62
554.57	2007.01
554.76	1834.98
554.96	1943.52
555.16	1998.82
555.35	2045.92
555.55	2041.82
555.75	2019.30
555.94	2074.59
556.14	1920.99
556.33	2078.69
556.53	1998.82
556.73	1982.43
556.92	1988.58
557.12	2056.16
557.32	2111.46
557.51	2099.17
557.71	2017.25
557.90	2144.22
558.10	2097.12
558.30	1998.82
558.49	2017.25
558.69	1945.57
558.88	1974.24
559.08	2004.96
559.28	1892.32
559.47	1970.15
559.67	2025.44
559.86	2060.26
560.06	2047.97
560.26	1978.34
560.45	1992.67
560.65	2009.06
560.84	2121.70
561.04	1994.72
561.24	2060.26
561.43	1961.95
561.63	2056.16
561.82	2054.11
562.02	1943.52
562.22	1927.14
562.41	1933.28
562.61	1986.53
562.80	1853.41
563.00	2174.94
563.19	2050.02
563.39	2002.91
563.59	2007.01
563.78	1933.28
563.98	1863.65
564.17	1994.72
564.37	1863.65
564.56	1964.00
564.76	1964.00
564.96	1992.67
565.15	2056.16
565.35	2213.85
565.54	1912.80
565.74	2007.01
565.93	2029.54
566.13	1988.58
566.32	1923.04
566.52	2078.69
566.71	2013.15
566.91	2021.35
567.11	2029.54
567.30	1980.39
567.50	2002.91
567.69	1966.05
567.89	2050.02
568.08	1914.85
568.28	1882.08
568.47	1947.62
568.67	2007.01
568.86	1877.99
569.06	2056.16
569.25	2023.39
569.45	1877.99
569.64	1898.47
569.84	2021.35
570.04	2015.20
570.23	2025.44
570.43	1925.09
570.62	2070.50
570.82	2101.22
571.01	1888.23
571.21	1923.04
571.40	1882.08
571.60	2023.39
571.79	2015.20
571.99	2013.15
572.18	1937.38
572.38	2017.25
572.57	2052.06
572.77	2031.58
572.96	2142.18
573.16	2035.68
573.35	1935.33
573.55	2027.49
573.74	2023.39
573.94	1992.67
574.13	2025.44
574.33	2045.92
574.52	2095.07
574.71	2043.87
574.91	1974.24
575.10	1851.36
575.30	1957.86
575.49	1931.23
575.69	1968.10
575.88	2070.50
576.08	2095.07
576.27	2158.56
576.47	2095.07
576.66	2211.81
576.86	2158.56
577.05	2068.45
577.25	2066.40
577.44	2054.11
577.64	1951.71
577.83	2041.82
578.02	1980.39
578.22	2121.70
578.41	2156.51
578.61	2062.30
578.80	1951.71
579.00	1974.24
579.19	2080.74
579.39	2025.44
579.58	2072.54
579.77	1980.39
579.97	2086.88
580.16	2181.09
580.36	2142.18
580.55	2115.55
580.75	2125.79
580.94	2080.74
581.13	2138.08
581.33	2150.37
581.52	2037.73
581.72	2168.80
581.91	2181.09
582.11	2047.97
582.30	2054.11
582.49	2035.68
582.69	2144.22
582.88	2068.45
583.08	2103.26
583.27	2101.22
583.47	2043.87
583.66	2037.73
583.85	1892.32
584.05	2054.11
584.24	2076.64
584.44	2109.41
584.63	2148.32
584.82	2133.98
585.02	2195.42
585.21	2138.08
585.41	2187.23
585.60	2131.94
585.79	2289.63
585.99	2322.40
586.18	2209.76
586.37	2617.30
586.57	3891.14
586.76	11536.21
586.96	30121.52
587.15	43885.92
587.34	53912.78
587.54	59260.02
587.73	55446.71
587.93	39443.88
588.12	29691.45
588.31	23592.60
588.51	20133.58
588.70	18796.26
588.89	17057.53
589.09	15150.87
589.28	12865.34
589.47	10800.99
589.67	8513.41
589.86	6510.49
590.06	4767.67
590.25	3801.03
590.44	3092.43
590.64	2660.31
590.83	2367.45
591.02	2351.07
591.22	2172.89
591.41	2052.06
591.60	2047.97
591.80	2187.23
591.99	2002.91
592.18	1927.14
592.38	2037.73
592.57	2011.11
592.76	2107.36
592.96	2007.01
593.15	2011.11
593.34	2062.30
593.54	2002.91
593.73	2101.22
593.92	2103.26
594.12	2037.73
594.31	2082.78
594.50	2197.47
594.70	2066.40
594.89	2244.57
595.08	1929.19
595.28	2045.92
595.47	2205.66
595.66	2045.92
595.86	1929.19
596.05	2000.87
596.24	1931.23
596.43	2095.07
596.63	2158.56
596.82	2060.26
597.01	2093.02
597.21	2138.08
597.40	2185.18
597.59	1994.72
597.79	1998.82
597.98	2117.60
598.17	2043.87
598.36	2025.44
598.56	2117.60
598.75	1968.10
598.94	2037.73
599.14	2002.91
599.33	1976.29
599.52	2045.92
599.71	2043.87
599.91	2050.02
600.10	2068.45
600.29	1994.72
600.48	2033.63
600.68	1982.43
600.87	2041.82
601.06	2007.01
601.26	1984.48
601.45	2045.92
601.64	1972.19
601.83	2086.88
602.03	2045.92
602.22	1849.32
602.41	2060.26
602.60	2176.99
602.80	1988.58
602.99	2127.84
603.18	1988.58
603.37	1984.48
603.57	2031.58
603.76	2017.25
603.95	2037.73
604.14	2050.02
604.34	1902.56
604.53	1976.29
604.72	1998.82
604.91	2035.68
605.10	2015.20
605.30	1916.90
605.49	2185.18
605.68	2078.69
605.87	1972.19
606.07	1992.67
606.26	1976.29
606.45	2086.88
606.64	1992.67
606.84	2029.54
607.03	2000.87
607.22	2111.46
607.41	1998.82
607.60	1925.09
607.80	2140.13
607.99	2058.21
608.18	2031.58
608.37	1953.76
608.56	2015.20
608.76	2109.41
608.95	2099.17
609.14	2025.44
609.33	2170.85
609.52	2189.28
609.72	2129.89
609.91	2138.08
610.10	2054.11
610.29	2191.33
610.48	2097.12
610.68	2086.88
610.87	2023.39
611.06	2002.91
611.25	1955.81
611.44	2121.70
611.63	1939.43
611.83	2064.35
612.02	1880.04
612.21	2025.44
612.40	1861.60
612.59	1904.61
612.79	1857.51
612.98	1972.19
613.17	2078.69
613.36	2023.39
613.55	2111.46
613.74	2078.69
613.93	2160.61
614.13	2146.27
614.32	2267.10
614.51	2254.81
614.70	2097.12
614.89	1953.76
615.08	2140.13
615.28	2367.45
615.47	2009.06
615.66	2041.82
615.85	2058.21
616.04	2185.18
616.23	2099.17
616.42	2021.35
616.62	2017.25
616.81	2050.02
617.00	1972.19
617.19	2117.60
617.38	1998.82
617.57	2047.97
617.76	2023.39
617.95	2058.21
618.15	2009.06
618.34	2138.08
618.53	1888.23
618.72	2121.70
618.91	2070.50
619.10	2133.98
619.29	2015.20
619.48	1976.29
619.68	1964.00
619.87	1992.67
620.06	1888.23
620.25	2074.59
620.44	1933.28
620.63	1914.85
620.82	2029.54
621.01	2037.73
621.20	1970.15
621.39	2031.58
621.59	1990.63
621.78	1994.72
621.97	1957.86
622.16	2084.83
622.35	2035.68
622.54	2121.70
622.73	2129.89
622.92	1826.79
623.11	2080.74
623.30	1968.10
623.49	2052.06
623.68	1853.41
623.88	2080.74
624.07	1941.47
624.26	1957.86
624.45	1970.15
624.64	1906.66
624.83	1875.94
625.02	1992.67
625.21	2039.78
625.40	1890.28
625.59	2019.30
625.78	1949.67
625.97	2070.50
626.16	2160.61
626.35	2052.06
626.54	2047.97
626.74	2174.94
626.93	2070.50
627.12	1964.00
627.31	2142.18
627.50	2056.16
627.69	2095.07
627.88	1947.62
628.07	1957.86
628.26	1851.36
628.45	1884.13
628.64	1845.22
628.83	2037.73
629.02	1834.98
629.21	2045.92
629.40	2058.21
629.59	1980.39
629.78	1933.28
629.97	2037.73
630.16	1986.53
630.35	2047.97
630.54	1978.34
630.73	1941.47
630.92	1951.71
631.11	1916.90
631.30	1920.99
631.49	1961.95
631.68	2007.01
631.87	2045.92
632.06	1824.74
632.25	2150.37
632.44	1976.29
632.63	2017.25
632.82	1992.67
633.01	2002.91
633.20	2111.46
633.39	2031.58
633.58	2043.87
633.77	2041.82
633.96	2123.74
634.15	2072.54
634.34	2101.22
634.53	1964.00
634.72	1961.95
634.91	1920.99
635.10	2072.54
635.29	2152.42
635.48	2041.82
635.67	1923.04
635.86	1972.19
636.05	2101.22
636.24	1990.63
636.43	2058.21
636.62	1982.43
636.81	1863.65
637.00	1968.10
637.19	1986.53
637.38	2002.91
637.57	1873.89
637.76	2004.96
637.95	2076.64
638.14	2070.50
638.33	2070.50
638.52	2052.06
638.71	1947.62
638.89	1978.34
639.08	2154.46
639.27	2121.70
639.46	2279.39
639.65	2514.91
639.84	2639.83
640.03	2760.66
640.22	2752.47
640.41	2731.99
640.60	2406.36
640.79	2287.58
640.98	2168.80
641.17	2285.53
641.36	2138.08
641.55	2109.41
641.74	2074.59
641.92	2058.21
642.11	2013.15
642.30	2086.88
642.49	1951.71
642.68	2033.63
642.87	1974.24
643.06	2002.91
643.25	1976.29
643.44	1943.52
643.63	1918.95
643.82	2021.35
644.00	1847.27
644.19	1951.71
644.38	1947.62
644.57	2002.91
644.76	1972.19
644.95	1945.57
645.14	1908.71
645.33	1939.43
645.52	2039.78
645.71	1871.84
645.89	1916.90
646.08	1976.29
646.27	1920.99
646.46	2160.61
646.65	1882.08
646.84	1955.81
647.03	1941.47
647.22	2072.54
647.40	1972.19
647.59	1904.61
647.78	1812.45
647.97	1945.57
648.16	1959.91
648.35	2097.12
648.54	2074.59
648.73	1869.80
648.91	2037.73
649.10	2013.15
649.29	1867.75
649.48	1933.28
649.67	2095.07
649.86	2007.01
650.05	2076.64
650.23	2187.23
650.42	2090.98
650.61	2232.29
650.80	2168.80
650.99	2189.28
651.18	2174.94
651.36	2107.36
651.55	2070.50
651.74	2021.35
651.93	2007.01
652.12	1968.10
652.31	2041.82
652.49	1996.77
652.68	2004.96
652.87	2064.35
653.06	2007.01
653.25	2113.50
653.44	2019.30
653.62	2129.89
653.81	2033.63
654.00	1990.63
654.19	1970.15
654.38	2176.99
654.56	1869.80
654.75	1955.81
654.94	2019.30
655.13	1974.24
655.32	1959.91
655.51	1923.04
655.69	1961.95
655.88	1972.19
656.07	1929.19
656.26	1996.77
656.45	1794.02
656.63	2037.73
656.82	2007.01
657.01	2058.21
657.20	1925.09
657.38	2021.35
657.57	1882.08
657.76	1845.22
657.95	2074.59
658.14	1920.99
658.32	1910.75
658.51	1853.41
658.70	1972.19
658.89	1943.52
659.08	1890.28
659.26	2154.46
659.45	2009.06
659.64	2111.46
659.83	1988.58
660.01	2222.05
660.20	2047.97
660.39	2029.54
660.58	1865.70
660.76	2074.59
660.95	1902.56
661.14	2004.96
661.33	1984.48
661.51	1867.75
661.70	1910.75
661.89	1931.23
662.08	1961.95
662.26	1947.62
662.45	1855.46
662.64	2115.55
662.83	2060.26
663.01	1857.51
663.20	1914.85
663.39	1978.34
663.58	2033.63
663.76	1984.48
663.95	2002.91
664.14	1888.23
664.32	1964.00
664.51	1964.00
664.70	1744.87
664.89	2013.15
665.07	1871.84
665.26	2066.40
665.45	1939.43
665.64	2037.73
665.82	1916.90
666.01	2064.35
666.20	1916.90
666.38	2150.37
666.57	2086.88
666.76	2787.29
666.95	6657.95
667.13	14812.96
667.32	20805.31
667.51	24389.26
667.69	26936.93
667.88	25210.50
668.07	18470.63
668.25	14313.25
668.44	11720.53
668.63	10049.38
668.81	8791.93
669.00	7671.69
669.19	6965.14
669.38	6090.66
669.56	5234.61
669.75	4321.21
669.94	3610.57
670.12	2975.70
670.31	2699.22
670.50	2484.19
670.68	2361.31
670.87	2238.43
671.06	2035.68
671.24	2115.55
671.43	2127.84
671.62	2107.36
671.80	1939.43
671.99	2129.89
672.18	2031.58
672.36	2123.74
672.55	2017.25
672.74	1902.56
672.92	1968.10
673.11	1931.23
673.29	1851.36
673.48	1966.05
673.67	2021.35
673.85	2002.91
674.04	1916.90
674.23	1988.58
674.41	2131.94
674.60	1847.27
674.79	1859.56
674.97	1875.94
675.16	1894.37
675.34	2000.87
675.53	1900.52
675.72	2000.87
675.90	2088.93
676.09	1978.34
676.28	2015.20
676.46	1845.22
676.65	1988.58
676.83	1834.98
677.02	2019.30
677.21	1951.71
677.39	2033.63
677.58	1900.52
677.77	1937.38
677.95	1929.19
678.14	1964.00
678.32	1959.91
678.51	1875.94
678.70	2142.18
678.88	1894.37
679.07	1951.71
679.25	2035.68
679.44	1951.71
679.63	1871.84
679.81	2070.50
680.00	2035.68
680.18	2076.64
680.37	2138.08
680.55	1970.15
680.74	1794.02
680.93	1853.41
681.11	1964.00
681.30	1976.29
681.48	2017.25
681.67	1978.34
681.85	1873.89
682.04	1918.95
682.23	1978.34
682.41	1976.29
682.60	1925.09
682.78	1931.23
682.97	1863.65
683.15	2025.44
683.34	2068.45
683.53	2015.20
683.71	1898.47
683.90	2023.39
684.08	2056.16
684.27	1978.34
684.45	1918.95
684.64	2093.02
684.82	1935.33
685.01	2033.63
685.19	1943.52
685.38	2111.46
685.57	2015.20
685.75	1900.52
685.94	1929.19
686.12	1890.28
686.31	1929.19
686.49	2062.30
686.68	1841.12
686.86	2088.93
687.05	1923.04
687.23	2074.59
687.42	1935.33
687.60	1949.67
687.79	1959.91
687.97	2047.97
688.16	2035.68
688.34	2078.69
688.53	1851.36
688.71	1990.63
688.90	2066.40
689.08	1902.56
689.27	1920.99
689.45	2060.26
689.64	1990.63
689.82	2017.25
690.01	2021.35
690.19	1964.00
690.38	1988.58
690.56	2082.78
690.75	1863.65
690.93	1961.95
691.12	1912.80
691.30	1935.33
691.49	2021.35
691.67	1984.48
691.86	2056.16
692.04	1951.71
692.23	2000.87
692.41	2011.11
692.60	2195.42
692.78	2111.46
692.97	2004.96
693.15	2029.54
693.34	2215.90
693.52	2140.13
693.71	2031.58
693.89	1904.61
694.08	1923.04
694.26	2015.20
694.44	2082.78
694.63	2082.78
694.81	1888.23
695.00	1904.61
695.18	2029.54
695.37	2138.08
695.55	1900.52
695.74	1951.71
695.92	1947.62
696.10	1986.53
696.29	1896.42
696.47	1918.95
696.66	1898.47
696.84	1929.19
697.03	1935.33
697.21	2123.74
697.40	2785.24
697.58	2111.46
697.76	1900.52
697.95	1923.04
698.13	1988.58
698.32	1966.05
698.50	1994.72
698.68	2052.06
698.87	1951.71
699.05	2086.88
699.24	1916.90
699.42	1871.84
699.61	1976.29
699.79	1970.15
699.97	1992.67
700.16	1810.40
700.34	1857.51
700.53	2062.30
700.71	2117.60
700.89	2007.01
701.08	1920.99
701.26	1978.34
701.45	2406.36
701.63	1900.52
701.81	1882.08
702.00	1988.58
702.18	1953.76
702.37	2029.54
702.55	2170.85
702.73	2172.89
702.92	2090.98
703.10	2320.35
703.28	2260.96
703.47	2056.16
703.65	2248.67
703.84	2191.33
704.02	2029.54
704.20	2140.13
704.39	2056.16
704.57	2015.20
704.75	1988.58
704.94	2125.79
705.12	2052.06
705.30	2222.05
705.49	3643.34
705.67	9070.45
705.86	18179.82
706.04	22918.82
706.22	26486.38
706.41	28362.32
706.59	25329.28
706.77	18024.17
706.96	14452.52
707.14	12324.68
707.32	10581.85
707.51	9541.49
707.69	8040.33
707.87	6508.44
708.06	5281.71
708.24	4054.98
708.42	3248.08
708.61	2865.11
708.79	2396.12
708.97	2199.52
709.16	2258.91
709.34	2041.82
709.52	2007.01
709.71	1937.38
709.89	2050.02
710.07	1939.43
710.26	1904.61
710.44	2009.06
710.62	2062.30
710.80	1929.19
710.99	2058.21
711.17	2009.06
711.35	2039.78
711.54	2007.01
711.72	2031.58
711.90	1988.58
712.09	2009.06
712.27	1978.34
712.45	2002.91
712.63	1941.47
712.82	1953.76
713.00	1943.52
713.18	1957.86
713.37	2088.93
713.55	2072.54
713.73	1978.34
713.91	2023.39
714.10	1918.95
714.28	1902.56
714.46	2011.11
714.65	2045.92
714.83	1882.08
715.01	1959.91
715.19	2060.26
715.38	1886.18
715.56	1959.91
715.74	1949.67
715.92	1906.66
716.11	2043.87
716.29	1816.55
716.47	1937.38
716.65	1875.94
716.84	1791.97
717.02	2019.30
717.20	1855.46
717.38	1869.80
717.57	1937.38
717.75	1947.62
717.93	1974.24
718.11	2011.11
718.30	1837.03
718.48	1933.28
718.66	1966.05
718.84	2013.15
719.03	1986.53
719.21	1855.46
719.39	2103.26
719.57	2031.58
719.75	2070.50
719.94	1912.80
720.12	1918.95
720.30	1931.23
720.48	2041.82
720.67	1896.42
720.85	1841.12
721.03	1939.43
721.21	1918.95
721.39	2109.41
721.58	1916.90
721.76	2011.11
721.94	2052.06
722.12	2041.82
722.30	2076.64
722.49	1949.67
722.67	2009.06
722.85	2017.25
723.03	1882.08
723.21	1914.85
723.40	1927.14
723.58	2060.26
723.76	2027.49
723.94	2080.74
724.12	2029.54
724.30	2074.59
724.49	2015.20
724.67	2035.68
724.85	2146.27
725.03	1910.75
725.21	2037.73
725.40	2037.73
725.58	1978.34
725.76	2033.63
725.94	1918.95
726.12	1933.28
726.30	1968.10
726.49	1964.00
726.67	1992.67
726.85	2035.68
727.03	2207.71
727.21	3194.83
727.39	4734.90
727.57	5849.00
727.76	6829.98
727.94	7255.95
728.12	7026.58
728.30	5842.85
728.48	4812.73
728.66	4288.45
728.84	3866.56
729.03	3348.43
729.21	2975.70
729.39	2615.26
729.57	2299.87
729.75	2148.32
729.93	2144.22
730.11	2062.30
730.30	1966.05
730.48	1978.34
730.66	2076.64
730.84	1994.72
731.02	1972.19
731.20	1939.43
731.38	2019.30
731.56	1877.99
731.74	1884.13
731.93	2035.68
732.11	1916.90
732.29	1984.48
732.47	2050.02
732.65	1976.29
732.83	2068.45
733.01	2011.11
733.19	1972.19
733.37	1982.43
733.56	2011.11
733.74	1920.99
733.92	2066.40
734.10	1890.28
734.28	2041.82
734.46	1847.27
734.64	1949.67
734.82	1925.09
735.00	1925.09
735.18	1947.62
735.36	1910.75
735.54	1980.39
735.73	1976.29
735.91	1966.05
736.09	2093.02
736.27	1968.10
736.45	2045.92
736.63	1882.08
736.81	1955.81
736.99	1990.63
737.17	2074.59
737.35	1914.85
737.53	1972.19
737.71	1945.57
737.89	2060.26
738.07	1955.81
738.25	1900.52
738.43	1826.79
738.61	1920.99
738.80	1882.08
738.98	1880.04
739.16	1898.47
739.34	1892.32
739.52	2009.06
739.70	2009.06
739.88	2021.35
740.06	1984.48
740.24	1853.41
740.42	2066.40
740.60	1845.22
740.78	1877.99
740.96	1832.93
741.14	1943.52
741.32	1941.47
741.50	1810.40
741.68	2156.51
741.86	1998.82
742.04	1898.47
742.22	1912.80
742.40	1933.28
742.58	1970.15
742.76	1896.42
742.94	1923.04
743.12	1886.18
743.30	2007.01
743.48	1998.82
743.66	1949.67
743.84	2013.15
744.02	2025.44
744.20	1974.24
744.38	1918.95
744.56	1953.76
744.74	2099.17
744.92	1986.53
745.10	2074.59
745.28	2027.49
745.46	2058.21
745.64	1943.52
745.82	1974.24
746.00	1959.91
746.18	1976.29
746.36	1923.04
746.54	1923.04
746.72	1990.63
746.90	1894.37
747.08	2041.82
747.26	1972.19
747.44	1957.86
747.62	1947.62
747.80	1953.76
747.98	2041.82
748.15	1988.58
748.33	2015.20
748.51	1990.63
748.69	1980.39
748.87	1855.46
749.05	1957.86
749.23	1943.52
749.41	2043.87
749.59	1880.04
749.77	2068.45
749.95	2052.06
750.13	1923.04
750.31	1976.29
750.49	1966.05
750.67	1939.43
750.85	2007.01
751.03	1904.61
751.20	2105.31
751.38	1886.18
751.56	1959.91
751.74	1886.18
751.92	1976.29
752.10	1910.75
752.28	2035.68
752.46	1898.47
752.64	1888.23
752.82	1976.29
753.00	1994.72
753.18	1865.70
753.35	1916.90
753.53	1966.05
753.71	2004.96
753.89	1980.39
754.07	1970.15
754.25	2076.64
754.43	1968.10
754.61	1918.95
754.79	1947.62
754.97	1927.14
755.14	2045.92
755.32	1869.80
755.50	1945.57
755.68	2000.87
755.86	1853.41
756.04	1925.09
756.22	1855.46
756.40	1961.95
756.57	2084.83
756.75	1912.80
756.93	2111.46
757.11	2045.92
757.29	1912.80
757.47	1898.47
757.65	1837.03
757.82	1839.08
758.00	1908.71
758.18	1904.61
758.36	1912.80
758.54	2062.30
758.72	1818.60
758.90	2041.82
759.07	2007.01
759.25	1968.10
759.43	1959.91
759.61	1816.55
759.79	2615.26
759.97	1996.77
760.15	1959.91
760.32	1914.85
760.50	1982.43
760.68	2099.17
760.86	1828.84
761.04	2074.59
761.22	2004.96
761.39	1961.95
761.57	1957.86
761.75	2007.01
761.93	2047.97
762.11	1988.58
762.28	2025.44
762.46	1867.75
762.64	2021.35
762.82	1882.08
763.00	1877.99
763.18	2117.60
763.35	1814.50
763.53	2013.15
763.71	1912.80
763.89	2015.20
764.07	1974.24
764.24	1984.48
764.42	1974.24
764.60	1925.09
764.78	1882.08
764.96	2025.44
765.13	1996.77
765.31	2002.91
765.49	1943.52
765.67	1859.56
765.84	1906.66
766.02	1937.38
766.20	1855.46
766.38	2035.68
766.56	1927.14
766.73	2060.26
766.91	1900.52
767.09	1939.43
767.27	2004.96
767.44	1961.95
767.62	1988.58
767.80	1935.33
767.98	1966.05
768.15	1935.33
768.33	1961.95
768.51	2033.63
768.69	1974.24
768.87	1998.82
769.04	2007.01
769.22	2172.89
769.40	2093.02
769.58	2133.98
769.75	1970.15
769.93	2011.11
770.11	2052.06
770.28	1998.82
770.46	2004.96
770.64	1925.09
770.82	1912.80
770.99	2002.91
771.17	1970.15
771.35	1955.81
771.53	1943.52
771.70	1910.75
771.88	1953.76
772.06	1951.71
772.23	1912.80
772.41	1984.48
772.59	1943.52
772.77	1845.22
772.94	1931.23
773.12	1949.67
773.30	1918.95
773.47	2099.17
773.65	1933.28
773.83	2080.74
774.01	1945.57
774.18	1822.69
774.36	1959.91
774.54	1875.94
774.71	1941.47
774.89	1890.28
775.07	1896.42
775.24	2002.91
775.42	1927.14
775.60	2052.06
775.78	1902.56
775.95	1929.19
776.13	1863.65
776.31	1789.92
776.48	1949.67
776.66	2066.40
776.84	1892.32
777.01	1886.18
777.19	1912.80
777.37	1925.09
777.54	2029.54
777.72	2121.70
777.90	1912.80
778.07	1832.93
778.25	2201.57
778.43	1955.81
778.60	1882.08
778.78	2043.87
778.96	2021.35
779.13	1945.57
779.31	2062.30
779.49	1980.39
779.66	2035.68
779.84	1937.38
780.01	1886.18
780.19	1927.14
780.37	2072.54
780.54	2021.35
780.72	1894.37
780.90	1890.28
781.07	2004.96
781.25	1918.95
781.43	2045.92
781.60	1910.75
781.78	2107.36
781.95	1943.52
782.13	1880.04
782.31	1898.47
782.48	1843.17
782.66	2019.30
782.83	2033.63
783.01	1972.19
783.19	2041.82
783.36	1949.67
783.54	1841.12
783.72	2031.58
783.89	1918.95
784.07	1996.77
784.24	1886.18
784.42	2088.93
784.60	2043.87
784.77	1980.39
784.95	1855.46
785.12	1886.18
785.30	1937.38
785.47	1886.18
785.65	1880.04
785.83	1904.61
786.00	1904.61
786.18	1918.95
786.35	1781.73
786.53	1964.00
786.71	2025.44
786.88	2007.01
787.06	1964.00
787.23	1957.86
787.41	1920.99
787.58	1933.28
787.76	1906.66
787.94	1957.86
788.11	1992.67
788.29	1853.41
788.46	1939.43
788.64	1841.12
788.81	1953.76
788.99	1884.13
789.16	1923.04
789.34	1988.58
789.52	1918.95
789.69	1937.38
789.87	1845.22
790.04	1925.09
790.22	1880.04
790.39	2058.21
790.57	1929.19
790.74	1839.08
790.92	1957.86
791.09	1845.22
791.27	1970.15
791.44	2033.63
791.62	1990.63
791.79	1978.34
791.97	1931.23
792.15	2185.18
792.32	1951.71
792.50	2011.11
792.67	2043.87
792.85	2035.68
793.02	1966.05
793.20	1941.47
793.37	1837.03
793.55	1935.33
793.72	1832.93
793.90	1978.34
794.07	1882.08
794.25	1849.32
794.42	1945.57
794.60	1916.90
794.77	2002.91
794.95	2045.92
795.12	2035.68
795.30	1908.71
795.47	1851.36
795.65	2084.83
795.82	1978.34
796.00	1933.28
796.17	1908.71
796.34	1880.04
796.52	1914.85
796.69	2021.35
796.87	1972.19
797.04	1961.95
797.22	1970.15
797.39	2004.96
797.57	2035.68
797.74	1920.99
797.92	1951.71
798.09	1937.38
798.27	2056.16
798.44	1867.75
798.62	1966.05
798.79	1968.10
798.96	2015.20
799.14	1918.95
799.31	2093.02
799.49	1964.00
799.66	1869.80
799.84	1970.15
800.01	1890.28
800.19	2050.02
800.36	1787.88
800.53	2019.30
800.71	2031.58
800.88	2031.58
801.06	1855.46
801.23	1953.76
801.41	1982.43
801.58	1900.52
801.75	1877.99
801.93	2021.35
802.10	2058.21
802.28	1957.86
802.45	1966.05
802.63	2025.44
802.80	2021.35
802.97	1916.90
803.15	1900.52
803.32	1939.43
803.50	1834.98
803.67	1908.71
803.84	1839.08
804.02	2009.06
804.19	1853.41
804.37	1769.44
804.54	1853.41
804.71	1968.10
804.89	1947.62
805.06	1894.37
805.24	1888.23
805.41	1914.85
805.58	1906.66
805.76	2183.13
805.93	1920.99
806.10	2068.45
806.28	1998.82
806.45	1916.90
806.63	1990.63
806.80	2025.44
806.97	1927.14
807.15	1951.71
807.32	1916.90
807.49	1972.19
807.67	1902.56
807.84	2023.39
808.01	1834.98
808.19	2037.73
808.36	2154.46
808.54	1888.23
808.71	1916.90
808.88	1998.82
809.06	1884.13
809.23	2113.50
809.40	1923.04
809.58	1982.43
809.75	1929.19
809.92	1910.75
810.10	2115.55
810.27	2000.87
810.44	1951.71
810.62	1947.62
810.79	2007.01
810.96	1916.90
811.14	1908.71
811.31	1906.66
811.48	1939.43
811.66	1976.29
811.83	2056.16
812.00	2058.21
812.18	2029.54
812.35	2129.89
812.52	1964.00
812.69	1918.95
812.87	1970.15
813.04	1867.75
813.21	2002.91
813.39	1861.60
813.56	1816.55
813.73	2029.54
813.91	1832.93
814.08	1908.71
814.25	1974.24
814.42	1822.69
814.60	1927.14
814.77	2043.87
814.94	1906.66
815.12	2000.87
815.29	2011.11
815.46	1916.90
815.63	1972.19
815.81	1939.43
815.98	1892.32
816.15	1974.24
816.33	1906.66
816.50	1906.66
816.67	1964.00
816.84	1906.66
817.02	1814.50
817.19	1947.62
817.36	2054.11
817.53	1929.19
817.71	1898.47
817.88	1980.39
818.05	1918.95
818.22	1877.99
818.40	2097.12
818.57	1837.03
818.74	2029.54
818.91	1959.91
819.09	1966.05
819.26	1935.33
819.43	1892.32
819.60	1931.23
819.78	2041.82
819.95	2090.98
820.12	1877.99
820.29	2095.07
820.47	2023.39
820.64	1970.15
820.81	1863.65
820.98	1896.42
821.15	1988.58
821.33	2021.35
821.50	1771.49
821.67	1980.39
821.84	1966.05
822.02	2033.63
822.19	2025.44
822.36	1939.43
822.53	1920.99
822.70	1923.04
822.88	1904.61
823.05	2078.69
823.22	2064.35
823.39	2031.58
823.56	1904.61
823.74	2131.94
823.91	1925.09
824.08	1935.33
824.25	1890.28
824.42	2093.02
824.60	1916.90
824.77	1920.99
824.94	2017.25
825.11	1978.34
825.28	1834.98
825.45	1990.63
825.63	1955.81
825.80	1931.23
825.97	2066.40
826.14	1984.48
826.31	1873.89
826.48	2033.63
826.66	1886.18
826.83	1877.99
827.00	2037.73
827.17	1925.09
827.34	1931.23
827.51	1863.65
827.69	1941.47
827.86	1892.32
828.03	1959.91
828.20	1941.47
828.37	1933.28
828.54	1996.77
828.71	1945.57
828.89	2025.44
829.06	1966.05
829.23	2099.17
829.40	1851.36
829.57	1822.69
829.74	2019.30
829.91	1882.08
830.09	1984.48
830.26	2000.87
830.43	2064.35
830.60	1959.91
830.77	2035.68
830.94	2047.97
831.11	2000.87
831.28	1931.23
831.46	2011.11
831.63	1972.19
831.80	1996.77
831.97	1882.08
832.14	1914.85
832.31	1994.72
832.48	2004.96
832.65	2050.02
832.82	1867.75
832.99	1998.82
833.17	1873.89
833.34	2047.97
833.51	1998.82
833.68	1773.54
833.85	1937.38
834.02	1816.55
834.19	1882.08
834.36	1841.12
834.53	1957.86
834.70	2007.01
834.87	1986.53
835.04	1890.28
835.22	1935.33
835.39	1931.23
835.56	1865.70
835.73	1900.52
835.90	1998.82
836.07	1914.85
836.24	2033.63
836.41	1961.95
836.58	1863.65
836.75	1996.77
836.92	1955.81
837.09	1888.23
837.26	1986.53
837.43	1970.15
837.60	1998.82
837.77	1953.76
837.94	1972.19
838.12	1996.77
838.29	1992.67
838.46	1851.36
838.63	1912.80
838.80	2029.54
838.97	2023.39
839.14	1927.14
839.31	1980.39
839.48	1978.34
839.65	1961.95
839.82	1990.63
839.99	1980.39
840.16	2007.01
840.33	1880.04
840.50	1943.52
840.67	1882.08
840.84	1742.82
841.01	1951.71
841.18	1955.81
841.35	1918.95
841.52	1988.58
841.69	2109.41
841.86	1964.00
842.03	1957.86
842.20	1986.53
842.37	1953.76
842.54	1953.76
842.71	1943.52
842.88	1875.94
843.05	1982.43
843.22	1925.09
843.39	1976.29
843.56	1837.03
843.73	1923.04
843.90	1939.43
844.07	1941.47
844.24	2033.63
844.41	1964.00
844.58	1947.62
844.75	1992.67
844.92	2004.96
845.09	1976.29
845.26	1918.95
845.43	1970.15
845.60	1853.41
845.77	2078.69
845.94	1935.33
846.10	2002.91
846.27	1861.60
846.44	1810.40
846.61	1826.79
846.78	1968.10
846.95	2035.68
847.12	1880.04
847.29	1945.57
847.46	1910.75
847.63	2009.06
847.80	1970.15
847.97	1945.57
848.14	2121.70
848.31	1970.15
848.48	1959.91
848.65	1941.47
848.82	1910.75
848.98	2174.94
849.15	1970.15
849.32	1906.66
849.49	2082.78
849.66	1976.29
849.83	1990.63
850.00	1937.38
850.17	1888.23
850.34	1880.04
850.51	1902.56
850.68	1882.08
850.85	2105.31
851.01	1966.05
851.18	1908.71
851.35	1986.53
851.52	1943.52
851.69	2017.25
851.86	1826.79
852.03	1976.29
852.20	1982.43
852.37	1933.28
852.53	1781.73
852.70	1923.04
852.87	1916.90
853.04	2029.54
853.21	1933.28
853.38	1933.28
853.55	2007.01
853.72	2080.74
853.89	1933.28
854.05	1877.99
854.22	1882.08
854.39	1908.71
854.56	2054.11
854.73	2066.40
854.90	1830.88
855.07	1961.95
855.23	1888.23
855.40	2009.06
855.57	1920.99
855.74	1767.40
855.91	2115.55
856.08	1884.13
856.25	1884.13
856.41	1892.32
856.58	2037.73
856.75	1939.43
856.92	1847.27
857.09	2062.30
857.26	1789.92
857.42	1927.14
857.59	2011.11
857.76	1857.51
857.93	1966.05
858.10	1988.58
858.27	1796.07
858.43	2037.73
858.60	1900.52
858.77	1816.55
858.94	1861.60
859.11	2047.97
859.27	1900.52
859.44	1914.85
859.61	1998.82
859.78	1998.82
859.95	1906.66
860.12	1920.99
860.28	2121.70
860.45	2101.22
860.62	1980.39
860.79	1992.67
860.95	1880.04
861.12	1916.90
861.29	1943.52
861.46	1812.45
861.63	1957.86
861.79	1982.43
861.96	1900.52
862.13	1935.33
862.30	2062.30
862.47	1888.23
862.63	1867.75
862.80	2025.44
862.97	2015.20
863.14	2011.11
863.30	1933.28
863.47	1877.99
863.64	2000.87
863.81	2070.50
863.97	1939.43
864.14	1931.23
864.31	1992.67
864.48	1880.04
864.65	1943.52
864.81	2027.49
864.98	2031.58
865.15	1992.67
865.32	1935.33
865.48	1964.00
865.65	2090.98
865.82	1929.19
865.98	1974.24
866.15	2025.44
866.32	1947.62
866.49	1972.19
866.65	2041.82
866.82	1888.23
866.99	1939.43
867.16	1945.57
867.32	1869.80
867.49	1884.13
867.66	1966.05
867.83	1945.57
867.99	1839.08
868.16	1974.24
868.33	1884.13
868.49	1935.33
868.66	1925.09
868.83	1998.82
868.99	1953.76
869.16	1994.72
869.33	1974.24
869.50	2002.91
869.66	1955.81
869.83	1880.04
870.00	1865.70
870.16	2029.54
870.33	1906.66
870.50	2035.68
870.66	1953.76
870.83	2074.59
871.00	1896.42
871.17	1990.63
871.33	1859.56
871.50	1931.23
871.67	1890.28
871.83	1884.13
872.00	2009.06
872.17	1896.42
872.33	2076.64
872.50	2027.49
872.67	1892.32
872.83	1912.80
873.00	1968.10
873.17	2052.06
873.33	1908.71
873.50	1984.48
873.67	1974.24
873.83	1896.42
874.00	1900.52
874.16	1959.91
874.33	1941.47
874.50	1804.26
874.66	2062.30
874.83	1945.57
875.00	2011.11
875.16	1949.67
875.33	2041.82
875.50	1806.31
875.66	1988.58
875.83	1920.99
875.99	1982.43
876.16	1955.81
876.33	1832.93
876.49	1961.95
876.66	2068.45
876.83	1939.43
876.99	1894.37
877.16	1904.61
877.32	1953.76
877.49	1947.62
877.66	1943.52
877.82	2017.25
877.99	1986.53
878.15	1949.67
878.32	1920.99
878.49	1953.76
878.65	1949.67
878.82	2054.11
878.98	1951.71
879.15	2060.26
879.32	1972.19
879.48	1986.53
879.65	1867.75
879.81	1824.74
879.98	1941.47
880.15	2025.44
880.31	2011.11
880.48	1966.05
880.64	2011.11
880.81	1957.86
880.97	2025.44
881.14	1953.76
881.31	1947.62
881.47	2129.89
881.64	1939.43
881.80	1877.99
881.97	1988.58
882.13	2060.26
882.30	1933.28
882.47	1892.32
882.63	1851.36
882.80	1888.23
882.96	1961.95
883.13	2058.21
883.29	1984.48
883.46	1933.28
883.62	2066.40
883.79	1920.99
883.95	1959.91
884.12	1951.71
884.29	2037.73
884.45	2041.82
884.62	2019.30
884.78	1931.23
884.95	2099.17
885.11	1923.04
885.28	1966.05
885.44	1959.91
885.61	2031.58
885.77	2084.83
885.94	2017.25
886.10	1900.52
886.27	1925.09
886.43	2039.78
886.60	2090.98
886.76	1890.28
886.93	1888.23
887.09	1961.95
887.26	1853.41
887.42	1906.66
887.59	2000.87
887.75	2101.22
887.92	2052.06
888.08	2054.11
888.25	2004.96
888.41	2000.87
888.58	1884.13
888.74	1863.65
888.91	1964.00
>>>>>End Processed Spectral Data<<<<<
