SpectraSuite Data File
++++++++++++++++++++++++++++++++++++
Date: Wed May 04 21:13:36 CEST 2016
User: root
Dark Spectrum Present: No
Reference Spectrum Present: No
Number of Sampled Component Spectra: 1
Spectrometers: USB4C02835
Integration Time (usec): 100000 (USB4C02835)
Spectra Averaged: 1 (USB4C02835)
Boxcar Smoothing: 0 (USB4C02835)
Correct for Electrical Dark: No (USB4C02835)
Strobe/Lamp Enabled: No (USB4C02835)
Correct for Detector Non-linearity: No (USB4C02835)
Correct for Stray Light: No (USB4C02835)
Number of Pixels in Processed Spectrum: 3648
>>>>>Begin Processed Spectral Data<<<<<
177.47	1566.70
177.69	1566.70
177.91	1566.70
178.13	1578.98
178.36	1570.79
178.58	1667.05
178.80	1798.12
179.02	1705.96
179.24	1853.41
179.46	1808.36
179.68	1882.08
179.90	1726.44
180.13	1867.75
180.35	1785.83
180.57	1812.45
180.79	1837.03
181.01	1816.55
181.23	1812.45
181.45	1843.17
181.67	1880.04
181.90	1808.36
182.12	1710.05
182.34	1710.05
182.56	1892.32
182.78	1898.47
183.00	1810.40
183.22	1789.92
183.44	1660.90
183.66	1949.67
183.89	1871.84
184.11	1789.92
184.33	1816.55
184.55	1943.52
184.77	1757.16
184.99	1800.16
185.21	1814.50
185.43	1925.09
185.65	1791.97
185.87	1771.49
186.10	1949.67
186.32	1931.23
186.54	1800.16
186.76	1867.75
186.98	1884.13
187.20	1757.16
187.42	1808.36
187.64	1812.45
187.86	1837.03
188.08	1828.84
188.30	1759.21
188.52	1800.16
188.75	1896.42
188.97	1898.47
189.19	1804.26
189.41	1759.21
189.63	1882.08
189.85	1818.60
190.07	1730.53
190.29	1726.44
190.51	1892.32
190.73	1689.57
190.95	1871.84
191.17	1777.64
191.39	1693.67
191.61	1753.06
191.84	1779.68
192.06	1841.12
192.28	1769.44
192.50	1941.47
192.72	1841.12
192.94	1849.32
193.16	1906.66
193.38	1787.88
193.60	1722.34
193.82	1820.64
194.04	1916.90
194.26	1832.93
194.48	1800.16
194.70	1753.06
194.92	1771.49
195.14	1898.47
195.36	1742.82
195.58	1794.02
195.80	1832.93
196.02	1722.34
196.24	1800.16
196.46	1888.23
196.69	1748.97
196.91	1964.00
197.13	1775.59
197.35	1701.86
197.57	1877.99
197.79	1877.99
198.01	1785.83
198.23	1865.70
198.45	1857.51
198.67	1730.53
198.89	1855.46
199.11	1832.93
199.33	1812.45
199.55	1712.10
199.77	1787.88
199.99	1882.08
200.21	1851.36
200.43	1796.07
200.65	1751.01
200.87	1689.57
201.09	1826.79
201.31	1806.31
201.53	1904.61
201.75	1863.65
201.97	1828.84
202.19	1830.88
202.41	1896.42
202.63	1990.63
202.85	1777.64
203.07	1845.22
203.29	1796.07
203.51	1697.77
203.73	1714.15
203.95	2045.92
204.17	1859.56
204.39	1818.60
204.61	1781.73
204.83	1755.11
205.05	1855.46
205.27	1955.81
205.49	1880.04
205.71	1757.16
205.93	1759.21
206.15	1767.40
206.37	1810.40
206.59	1738.73
206.81	1759.21
207.03	1736.68
207.25	1798.12
207.47	1863.65
207.69	1767.40
207.91	1820.64
208.13	1910.75
208.34	1753.06
208.56	1791.97
208.78	1861.60
209.00	1826.79
209.22	1845.22
209.44	1748.97
209.66	1834.98
209.88	1820.64
210.10	1822.69
210.32	1808.36
210.54	1910.75
210.76	1783.78
210.98	1908.71
211.20	1683.43
211.42	1808.36
211.64	1847.27
211.86	1804.26
212.08	1785.83
212.30	1806.31
212.52	1861.60
212.74	1861.60
212.96	1785.83
213.17	1802.21
213.39	1751.01
213.61	1900.52
213.83	1783.78
214.05	1839.08
214.27	1898.47
214.49	1763.30
214.71	1796.07
214.93	1906.66
215.15	1810.40
215.37	1845.22
215.59	1691.62
215.81	1843.17
216.03	1859.56
216.24	1912.80
216.46	1775.59
216.68	1765.35
216.90	1898.47
217.12	1812.45
217.34	1812.45
217.56	1771.49
217.78	1898.47
218.00	1884.13
218.22	1785.83
218.44	1900.52
218.66	1767.40
218.87	1908.71
219.09	1753.06
219.31	1943.52
219.53	1861.60
219.75	1798.12
219.97	1802.21
220.19	1796.07
220.41	1847.27
220.63	1906.66
220.85	1814.50
221.06	1699.81
221.28	1898.47
221.50	1789.92
221.72	1810.40
221.94	1804.26
222.16	1855.46
222.38	1830.88
222.60	1834.98
222.82	1734.63
223.03	1916.90
223.25	1726.44
223.47	1822.69
223.69	1945.57
223.91	1837.03
224.13	1832.93
224.35	1851.36
224.57	1894.37
224.78	1857.51
225.00	1751.01
225.22	1820.64
225.44	1701.86
225.66	1923.04
225.88	1773.54
226.10	1884.13
226.32	1757.16
226.53	1871.84
226.75	1845.22
226.97	1789.92
227.19	1755.11
227.41	1828.84
227.63	1787.88
227.85	1740.77
228.06	1804.26
228.28	1865.70
228.50	1882.08
228.72	1759.21
228.94	1783.78
229.16	1710.05
229.37	1697.77
229.59	1789.92
229.81	1869.80
230.03	1728.49
230.25	1732.58
230.47	1708.01
230.69	1771.49
230.90	1791.97
231.12	1767.40
231.34	1800.16
231.56	1841.12
231.78	1771.49
232.00	1826.79
232.21	1832.93
232.43	1681.38
232.65	1701.86
232.87	1884.13
233.09	1775.59
233.30	1794.02
233.52	1902.56
233.74	1794.02
233.96	1841.12
234.18	1820.64
234.40	1794.02
234.61	2011.11
234.83	1685.48
235.05	1773.54
235.27	1953.76
235.49	1863.65
235.70	1824.74
235.92	1888.23
236.14	1794.02
236.36	1947.62
236.58	1728.49
236.79	1812.45
237.01	1857.51
237.23	1843.17
237.45	1955.81
237.67	1761.25
237.88	1802.21
238.10	1843.17
238.32	1742.82
238.54	1804.26
238.76	1773.54
238.97	1724.39
239.19	1865.70
239.41	1918.95
239.63	1871.84
239.85	1798.12
240.06	1789.92
240.28	1781.73
240.50	1912.80
240.72	1929.19
240.93	1804.26
241.15	1898.47
241.37	1822.69
241.59	1855.46
241.81	1800.16
242.02	1753.06
242.24	1783.78
242.46	1798.12
242.68	1849.32
242.89	1820.64
243.11	1841.12
243.33	1812.45
243.55	1783.78
243.76	1871.84
243.98	1812.45
244.20	1861.60
244.42	1841.12
244.64	1961.95
244.85	1724.39
245.07	1796.07
245.29	1884.13
245.51	1871.84
245.72	1812.45
245.94	1880.04
246.16	1851.36
246.38	1896.42
246.59	1714.15
246.81	1734.63
247.03	1757.16
247.24	1777.64
247.46	1738.73
247.68	1888.23
247.90	1820.64
248.11	1789.92
248.33	1894.37
248.55	1841.12
248.77	1888.23
248.98	1873.89
249.20	1906.66
249.42	1906.66
249.64	1865.70
249.85	1738.73
250.07	1771.49
250.29	1845.22
250.50	1826.79
250.72	1732.58
250.94	1865.70
251.16	1953.76
251.37	1894.37
251.59	1839.08
251.81	1806.31
252.02	1857.51
252.24	1699.81
252.46	1925.09
252.68	1722.34
252.89	1755.11
253.11	1732.58
253.33	1863.65
253.54	1890.28
253.76	1716.20
253.98	1767.40
254.20	1787.88
254.41	1730.53
254.63	1730.53
254.85	1701.86
255.06	1787.88
255.28	1953.76
255.50	1851.36
255.71	1755.11
255.93	1759.21
256.15	1796.07
256.36	1902.56
256.58	1779.68
256.80	1933.28
257.02	1777.64
257.23	1804.26
257.45	1880.04
257.67	1853.41
257.88	1718.25
258.10	1849.32
258.32	1824.74
258.53	1880.04
258.75	1863.65
258.97	1775.59
259.18	1730.53
259.40	1830.88
259.62	1902.56
259.83	1900.52
260.05	1859.56
260.27	2111.46
260.48	1851.36
260.70	1787.88
260.92	1918.95
261.13	1822.69
261.35	1894.37
261.57	1812.45
261.78	1722.34
262.00	1814.50
262.22	1845.22
262.43	1837.03
262.65	1828.84
262.86	1757.16
263.08	2011.11
263.30	1753.06
263.51	1691.62
263.73	1753.06
263.95	1904.61
264.16	1753.06
264.38	1794.02
264.60	1841.12
264.81	1812.45
265.03	1920.99
265.25	1837.03
265.46	1810.40
265.68	1882.08
265.89	1845.22
266.11	1732.58
266.33	1828.84
266.54	1910.75
266.76	1859.56
266.98	1894.37
267.19	1851.36
267.41	1816.55
267.62	1804.26
267.84	1687.53
268.06	1783.78
268.27	1755.11
268.49	1902.56
268.70	1892.32
268.92	1802.21
269.14	1755.11
269.35	1730.53
269.57	1771.49
269.79	1888.23
270.00	1757.16
270.22	1886.18
270.43	1785.83
270.65	1710.05
270.87	1787.88
271.08	1869.80
271.30	1933.28
271.51	1738.73
271.73	1826.79
271.95	1804.26
272.16	1822.69
272.38	1837.03
272.59	1865.70
272.81	1843.17
273.02	1834.98
273.24	1851.36
273.46	1814.50
273.67	1757.16
273.89	1732.58
274.10	1767.40
274.32	1853.41
274.54	1779.68
274.75	1916.90
274.97	1865.70
275.18	1902.56
275.40	1769.44
275.61	1785.83
275.83	1865.70
276.05	1693.67
276.26	1796.07
276.48	1843.17
276.69	1771.49
276.91	1830.88
277.12	1986.53
277.34	1920.99
277.55	1824.74
277.77	1880.04
277.99	1759.21
278.20	1726.44
278.42	1718.25
278.63	1783.78
278.85	1767.40
279.06	1687.53
279.28	1808.36
279.49	1863.65
279.71	1855.46
279.93	1777.64
280.14	1910.75
280.36	1765.35
280.57	1871.84
280.79	1800.16
281.00	1791.97
281.22	1732.58
281.43	1892.32
281.65	1730.53
281.86	1796.07
282.08	1857.51
282.29	1998.82
282.51	1701.86
282.73	1724.39
282.94	1710.05
283.16	1804.26
283.37	1955.81
283.59	1820.64
283.80	1853.41
284.02	1867.75
284.23	1841.12
284.45	1812.45
284.66	1767.40
284.88	1802.21
285.09	1820.64
285.31	1865.70
285.52	1880.04
285.74	1773.54
285.95	1896.42
286.17	1791.97
286.38	1841.12
286.60	1812.45
286.81	1740.77
287.03	1791.97
287.24	1884.13
287.46	1865.70
287.67	1851.36
287.89	1845.22
288.10	1794.02
288.32	1808.36
288.53	1910.75
288.75	1781.73
288.96	1890.28
289.18	1753.06
289.39	1816.55
289.61	1877.99
289.82	1968.10
290.04	1892.32
290.25	1677.29
290.47	1875.94
290.68	1839.08
290.90	1853.41
291.11	1679.33
291.33	1843.17
291.54	1738.73
291.76	1804.26
291.97	1837.03
292.18	1787.88
292.40	1812.45
292.61	1771.49
292.83	1929.19
293.04	1783.78
293.26	1859.56
293.47	1765.35
293.69	1699.81
293.90	1730.53
294.12	1896.42
294.33	1777.64
294.55	1783.78
294.76	1865.70
294.97	1939.43
295.19	1982.43
295.40	1787.88
295.62	1828.84
295.83	1804.26
296.05	1755.11
296.26	1826.79
296.48	1751.01
296.69	1859.56
296.90	1841.12
297.12	1912.80
297.33	1845.22
297.55	1837.03
297.76	1808.36
297.98	1900.52
298.19	1806.31
298.41	1785.83
298.62	1806.31
298.83	1900.52
299.05	1904.61
299.26	1845.22
299.48	1820.64
299.69	1794.02
299.90	1869.80
300.12	1789.92
300.33	1861.60
300.55	1814.50
300.76	1886.18
300.98	1810.40
301.19	1910.75
301.40	1808.36
301.62	1775.59
301.83	1894.37
302.05	1841.12
302.26	1767.40
302.47	1843.17
302.69	1732.58
302.90	1791.97
303.12	1705.96
303.33	1865.70
303.54	1941.47
303.76	1789.92
303.97	1771.49
304.19	1918.95
304.40	1740.77
304.61	1818.60
304.83	1996.77
305.04	1853.41
305.26	1849.32
305.47	1826.79
305.68	1785.83
305.90	1738.73
306.11	1908.71
306.33	1839.08
306.54	1849.32
306.75	1767.40
306.97	1818.60
307.18	1746.92
307.39	1736.68
307.61	1810.40
307.82	1791.97
308.04	1935.33
308.25	1746.92
308.46	1779.68
308.68	1837.03
308.89	1824.74
309.10	1849.32
309.32	1849.32
309.53	1730.53
309.74	1863.65
309.96	1753.06
310.17	1898.47
310.39	1736.68
310.60	1783.78
310.81	1824.74
311.03	1722.34
311.24	1863.65
311.45	1738.73
311.67	1933.28
311.88	1812.45
312.09	1783.78
312.31	1800.16
312.52	1865.70
312.73	1787.88
312.95	1769.44
313.16	1761.25
313.37	1982.43
313.59	1816.55
313.80	1974.24
314.01	1859.56
314.23	1796.07
314.44	1742.82
314.65	1744.87
314.87	1787.88
315.08	1712.10
315.29	1886.18
315.51	1796.07
315.72	1775.59
315.93	1880.04
316.15	1865.70
316.36	1755.11
316.57	1816.55
316.79	1824.74
317.00	1746.92
317.21	1810.40
317.43	1810.40
317.64	1841.12
317.85	1730.53
318.07	1736.68
318.28	1863.65
318.49	2080.74
318.70	2103.26
318.92	2017.25
319.13	2035.68
319.34	2004.96
319.56	1980.39
319.77	1933.28
319.98	1914.85
320.20	1943.52
320.41	1927.14
320.62	1855.46
320.83	1789.92
321.05	2017.25
321.26	1890.28
321.47	1839.08
321.69	1800.16
321.90	1714.15
322.11	1855.46
322.32	1841.12
322.54	1968.10
322.75	1814.50
322.96	1961.95
323.18	1736.68
323.39	1714.15
323.60	1771.49
323.81	1837.03
324.03	1804.26
324.24	1775.59
324.45	1832.93
324.66	1849.32
324.88	1898.47
325.09	1871.84
325.30	1796.07
325.52	1841.12
325.73	1822.69
325.94	1755.11
326.15	1796.07
326.37	1773.54
326.58	1865.70
326.79	1890.28
327.00	1734.63
327.22	1849.32
327.43	1808.36
327.64	1728.49
327.85	1914.85
328.07	1820.64
328.28	1988.58
328.49	1824.74
328.70	1800.16
328.92	1740.77
329.13	1771.49
329.34	1767.40
329.55	1959.91
329.76	1843.17
329.98	1775.59
330.19	1902.56
330.40	1853.41
330.61	1849.32
330.83	1904.61
331.04	1773.54
331.25	1824.74
331.46	1845.22
331.68	1810.40
331.89	1857.51
332.10	1818.60
332.31	1787.88
332.52	1798.12
332.74	1892.32
332.95	1767.40
333.16	1794.02
333.37	1871.84
333.58	1763.30
333.80	1857.51
334.01	1714.15
334.22	1824.74
334.43	1746.92
334.64	1869.80
334.86	1701.86
335.07	1751.01
335.28	1888.23
335.49	1777.64
335.70	1890.28
335.92	1918.95
336.13	1949.67
336.34	1898.47
336.55	1828.84
336.76	1916.90
336.98	1675.24
337.19	1820.64
337.40	1898.47
337.61	1961.95
337.82	1867.75
338.04	1920.99
338.25	1748.97
338.46	1785.83
338.67	1816.55
338.88	1804.26
339.09	1714.15
339.31	1781.73
339.52	1789.92
339.73	1738.73
339.94	1767.40
340.15	1804.26
340.36	1732.58
340.58	1824.74
340.79	1804.26
341.00	1943.52
341.21	1775.59
341.42	1904.61
341.63	1814.50
341.85	1841.12
342.06	1794.02
342.27	1693.67
342.48	1839.08
342.69	1705.96
342.90	1855.46
343.12	1847.27
343.33	1845.22
343.54	1841.12
343.75	1818.60
343.96	1785.83
344.17	1763.30
344.38	1837.03
344.60	1787.88
344.81	1783.78
345.02	1787.88
345.23	1869.80
345.44	1970.15
345.65	1884.13
345.86	1839.08
346.07	1761.25
346.29	1726.44
346.50	1855.46
346.71	1871.84
346.92	1974.24
347.13	1953.76
347.34	1839.08
347.55	1806.31
347.76	1908.71
347.98	1699.81
348.19	1839.08
348.40	1914.85
348.61	1742.82
348.82	1892.32
349.03	1869.80
349.24	1689.57
349.45	1933.28
349.66	1691.62
349.88	1812.45
350.09	1761.25
350.30	1931.23
350.51	1873.89
350.72	1837.03
350.93	1837.03
351.14	1818.60
351.35	1812.45
351.56	1830.88
351.77	1763.30
351.99	1880.04
352.20	1959.91
352.41	1857.51
352.62	1742.82
352.83	1787.88
353.04	1826.79
353.25	1779.68
353.46	1902.56
353.67	1880.04
353.88	1722.34
354.09	1861.60
354.30	1730.53
354.52	1820.64
354.73	1828.84
354.94	1759.21
355.15	1802.21
355.36	1849.32
355.57	1800.16
355.78	1896.42
355.99	1761.25
356.20	1869.80
356.41	1908.71
356.62	1851.36
356.83	1767.40
357.04	1871.84
357.25	1658.85
357.46	1781.73
357.68	1650.66
357.89	1728.49
358.10	1787.88
358.31	1773.54
358.52	1824.74
358.73	1771.49
358.94	1777.64
359.15	1789.92
359.36	1902.56
359.57	1796.07
359.78	1877.99
359.99	1802.21
360.20	1806.31
360.41	1785.83
360.62	1828.84
360.83	1826.79
361.04	1814.50
361.25	1843.17
361.46	1918.95
361.67	1861.60
361.88	1832.93
362.09	1939.43
362.30	1826.79
362.51	1722.34
362.72	1777.64
362.93	1945.57
363.14	1863.65
363.35	1812.45
363.56	1802.21
363.78	1875.94
363.99	1837.03
364.20	1771.49
364.41	1880.04
364.62	1949.67
364.83	1839.08
365.04	1853.41
365.25	1714.15
365.46	1935.33
365.67	1785.83
365.88	1812.45
366.09	1798.12
366.30	1849.32
366.51	1806.31
366.72	1691.62
366.93	1785.83
367.14	1802.21
367.35	1943.52
367.56	1832.93
367.77	1908.71
367.98	1765.35
368.18	1867.75
368.39	1837.03
368.60	1783.78
368.81	1920.99
369.02	1845.22
369.23	1812.45
369.44	1732.58
369.65	1789.92
369.86	1843.17
370.07	1902.56
370.28	1705.96
370.49	1927.14
370.70	1834.98
370.91	1759.21
371.12	1796.07
371.33	1914.85
371.54	1755.11
371.75	1918.95
371.96	1658.85
372.17	1785.83
372.38	1728.49
372.59	1808.36
372.80	1812.45
373.01	1865.70
373.22	1830.88
373.43	1841.12
373.64	1714.15
373.85	1859.56
374.06	1888.23
374.26	1877.99
374.47	1855.46
374.68	1918.95
374.89	1886.18
375.10	1814.50
375.31	1882.08
375.52	1863.65
375.73	1783.78
375.94	1787.88
376.15	1828.84
376.36	1826.79
376.57	1783.78
376.78	1785.83
376.99	1853.41
377.20	1943.52
377.40	1830.88
377.61	1898.47
377.82	1722.34
378.03	1853.41
378.24	1785.83
378.45	1787.88
378.66	1775.59
378.87	1714.15
379.08	1708.01
379.29	1761.25
379.50	1839.08
379.71	1822.69
379.91	1882.08
380.12	1783.78
380.33	1787.88
380.54	1779.68
380.75	1771.49
380.96	1769.44
381.17	1890.28
381.38	1794.02
381.59	1972.19
381.80	1818.60
382.00	1947.62
382.21	1931.23
382.42	2002.91
382.63	2023.39
382.84	1845.22
383.05	1855.46
383.26	1927.14
383.47	1816.55
383.68	1890.28
383.88	1845.22
384.09	1814.50
384.30	1900.52
384.51	1914.85
384.72	1761.25
384.93	1789.92
385.14	1802.21
385.35	1845.22
385.55	1699.81
385.76	1843.17
385.97	1837.03
386.18	1724.39
386.39	1783.78
386.60	1828.84
386.81	1814.50
387.02	1798.12
387.22	1765.35
387.43	1839.08
387.64	1914.85
387.85	2041.82
388.06	2211.81
388.27	4241.34
388.48	8701.82
388.68	11695.95
388.89	13670.19
389.10	14696.22
389.31	12924.73
389.52	10360.67
389.73	9119.60
389.93	8365.95
390.14	7548.81
390.35	6903.70
390.56	6307.74
390.77	5189.55
390.98	3995.59
391.18	3088.34
391.39	2408.41
391.60	2009.06
391.81	2013.15
392.02	1837.03
392.23	1994.72
392.43	1853.41
392.64	1949.67
392.85	1828.84
393.06	1920.99
393.27	1830.88
393.47	1814.50
393.68	1869.80
393.89	1826.79
394.10	1949.67
394.31	1816.55
394.52	1818.60
394.72	1791.97
394.93	1937.38
395.14	1779.68
395.35	1943.52
395.56	1787.88
395.76	1779.68
395.97	1869.80
396.18	2013.15
396.39	1929.19
396.60	2275.29
396.80	2070.50
397.01	1888.23
397.22	1955.81
397.43	1992.67
397.64	1880.04
397.84	1886.18
398.05	2029.54
398.26	1910.75
398.47	1927.14
398.67	1869.80
398.88	1773.54
399.09	1853.41
399.30	1736.68
399.51	1861.60
399.71	1720.29
399.92	1857.51
400.13	1898.47
400.34	1783.78
400.54	1869.80
400.75	1923.04
400.96	1865.70
401.17	1918.95
401.37	1900.52
401.58	1828.84
401.79	1818.60
402.00	1925.09
402.21	2230.24
402.41	2099.17
402.62	2250.72
402.83	2330.59
403.04	2232.29
403.24	2301.92
403.45	2027.49
403.66	2123.74
403.87	2068.45
404.07	2072.54
404.28	2031.58
404.49	2066.40
404.70	1957.86
404.90	1853.41
405.11	1863.65
405.32	1849.32
405.52	1845.22
405.73	1771.49
405.94	1785.83
406.15	1830.88
406.35	1863.65
406.56	1849.32
406.77	1869.80
406.98	1824.74
407.18	1738.73
407.39	1849.32
407.60	1863.65
407.80	1812.45
408.01	1828.84
408.22	1834.98
408.43	1794.02
408.63	1761.25
408.84	1810.40
409.05	1908.71
409.25	1753.06
409.46	1759.21
409.67	1798.12
409.88	1744.87
410.08	1744.87
410.29	1771.49
410.50	1861.60
410.70	1804.26
410.91	1708.01
411.12	1886.18
411.32	1845.22
411.53	1785.83
411.74	1890.28
411.95	1914.85
412.15	1918.95
412.36	1984.48
412.57	1886.18
412.77	1978.34
412.98	1906.66
413.19	1814.50
413.39	1943.52
413.60	1847.27
413.81	1935.33
414.01	1781.73
414.22	1871.84
414.43	1972.19
414.63	1816.55
414.84	1910.75
415.05	1806.31
415.25	1740.77
415.46	1839.08
415.67	1775.59
415.87	1898.47
416.08	1902.56
416.29	1744.87
416.49	1828.84
416.70	1826.79
416.91	1796.07
417.11	1851.36
417.32	1871.84
417.53	1935.33
417.73	1847.27
417.94	1769.44
418.15	1861.60
418.35	1857.51
418.56	1802.21
418.77	1900.52
418.97	1824.74
419.18	1841.12
419.38	1634.28
419.59	1787.88
419.80	1902.56
420.00	1865.70
420.21	1863.65
420.42	1896.42
420.62	1859.56
420.83	1751.01
421.04	1759.21
421.24	1853.41
421.45	1904.61
421.65	1900.52
421.86	1785.83
422.07	1839.08
422.27	1830.88
422.48	1783.78
422.69	1808.36
422.89	1798.12
423.10	1791.97
423.30	1753.06
423.51	1783.78
423.72	1796.07
423.92	1890.28
424.13	1746.92
424.33	1818.60
424.54	1896.42
424.75	1814.50
424.95	2009.06
425.16	1814.50
425.36	1775.59
425.57	1890.28
425.78	1880.04
425.98	1814.50
426.19	1849.32
426.39	1789.92
426.60	1787.88
426.81	1935.33
427.01	1794.02
427.22	1765.35
427.42	1748.97
427.63	1787.88
427.83	1861.60
428.04	1845.22
428.25	1933.28
428.45	1867.75
428.66	1863.65
428.86	1886.18
429.07	1830.88
429.28	1775.59
429.48	1783.78
429.69	1759.21
429.89	1740.77
430.10	1767.40
430.30	1824.74
430.51	1814.50
430.71	1779.68
430.92	1892.32
431.13	1800.16
431.33	1918.95
431.54	1859.56
431.74	1939.43
431.95	2039.78
432.15	1820.64
432.36	1849.32
432.56	1812.45
432.77	1892.32
432.98	1884.13
433.18	1857.51
433.39	1796.07
433.59	1787.88
433.80	1916.90
434.00	2066.40
434.21	1777.64
434.41	1822.69
434.62	1968.10
434.82	1746.92
435.03	1818.60
435.23	1896.42
435.44	1691.62
435.64	1822.69
435.85	1837.03
436.06	1871.84
436.26	1882.08
436.47	1822.69
436.67	1808.36
436.88	1728.49
437.08	1914.85
437.29	1951.71
437.49	1832.93
437.70	1904.61
437.90	1886.18
438.11	1943.52
438.31	1875.94
438.52	2004.96
438.72	2064.35
438.93	2074.59
439.13	1951.71
439.34	1968.10
439.54	1904.61
439.75	1898.47
439.95	1949.67
440.16	1832.93
440.36	1865.70
440.57	1908.71
440.77	1929.19
440.98	1857.51
441.18	1890.28
441.39	1796.07
441.59	1720.29
441.80	2011.11
442.00	1847.27
442.21	1939.43
442.41	1748.97
442.62	1873.89
442.82	1710.05
443.02	1783.78
443.23	1828.84
443.43	1845.22
443.64	1937.38
443.84	1882.08
444.05	1882.08
444.25	1773.54
444.46	1865.70
444.66	1769.44
444.87	1972.19
445.07	1718.25
445.28	1861.60
445.48	2004.96
445.69	1951.71
445.89	2004.96
446.09	1931.23
446.30	2031.58
446.50	2512.86
446.71	4153.28
446.91	5261.23
447.12	5863.33
447.32	6178.72
447.53	5699.50
447.73	4646.84
447.93	4067.27
448.14	3811.27
448.34	3624.90
448.55	3151.82
448.75	3151.82
448.96	3055.57
449.16	2717.65
449.36	2529.24
449.57	2258.91
449.77	2052.06
449.98	1894.37
450.18	1847.27
450.39	1894.37
450.59	1863.65
450.79	1826.79
451.00	1759.21
451.20	1916.90
451.41	1861.60
451.61	1894.37
451.81	1791.97
452.02	1826.79
452.22	1916.90
452.43	1857.51
452.63	1787.88
452.84	1873.89
453.04	1820.64
453.24	1853.41
453.45	1759.21
453.65	1779.68
453.86	1820.64
454.06	1863.65
454.26	1816.55
454.47	1845.22
454.67	1927.14
454.87	1849.32
455.08	1812.45
455.28	1970.15
455.49	1804.26
455.69	1837.03
455.89	1890.28
456.10	1941.47
456.30	1796.07
456.51	1841.12
456.71	1859.56
456.91	1970.15
457.12	1826.79
457.32	1931.23
457.52	1775.59
457.73	1859.56
457.93	1892.32
458.14	1834.98
458.34	1722.34
458.54	1767.40
458.75	1820.64
458.95	1841.12
459.15	1916.90
459.36	1869.80
459.56	1945.57
459.76	1980.39
459.97	1800.16
460.17	1873.89
460.37	1877.99
460.58	1820.64
460.78	1900.52
460.99	1763.30
461.19	1820.64
461.39	1845.22
461.60	1910.75
461.80	1800.16
462.00	1759.21
462.21	1791.97
462.41	1773.54
462.61	1867.75
462.82	1742.82
463.02	1927.14
463.22	1708.01
463.43	1957.86
463.63	1886.18
463.83	1884.13
464.04	1898.47
464.24	1804.26
464.44	1857.51
464.64	1818.60
464.85	1871.84
465.05	1892.32
465.25	1796.07
465.46	1828.84
465.66	1816.55
465.86	1826.79
466.07	1796.07
466.27	1808.36
466.47	1718.25
466.68	1808.36
466.88	1902.56
467.08	1869.80
467.29	1927.14
467.49	1871.84
467.69	1730.53
467.89	1839.08
468.10	1775.59
468.30	1761.25
468.50	1902.56
468.71	1851.36
468.91	1742.82
469.11	2007.01
469.31	1841.12
469.52	1720.29
469.72	1961.95
469.92	1974.24
470.13	1802.21
470.33	1882.08
470.53	1998.82
470.73	2238.43
470.94	2672.60
471.14	2797.53
471.34	3067.86
471.54	3157.97
471.75	2717.65
471.95	2480.09
472.15	2461.66
472.36	2463.71
472.56	2224.09
472.76	2285.53
472.96	2185.18
473.17	2150.37
473.37	2058.21
473.57	1902.56
473.77	1896.42
473.98	1857.51
474.18	1791.97
474.38	2043.87
474.58	1822.69
474.79	1839.08
474.99	1861.60
475.19	1908.71
475.39	1769.44
475.60	1841.12
475.80	1865.70
476.00	1767.40
476.20	1796.07
476.41	1877.99
476.61	1968.10
476.81	1849.32
477.01	1775.59
477.21	1851.36
477.42	1955.81
477.62	1708.01
477.82	1888.23
478.02	1798.12
478.23	1867.75
478.43	1740.77
478.63	1814.50
478.83	1828.84
479.03	1871.84
479.24	1826.79
479.44	1959.91
479.64	1826.79
479.84	1718.25
480.04	1849.32
480.25	1849.32
480.45	1789.92
480.65	1732.58
480.85	1855.46
481.06	1841.12
481.26	1822.69
481.46	1896.42
481.66	1873.89
481.86	1746.92
482.06	1839.08
482.27	1810.40
482.47	1806.31
482.67	1906.66
482.87	1857.51
483.07	1939.43
483.28	1826.79
483.48	1748.97
483.68	1806.31
483.88	1705.96
484.08	1687.53
484.29	1693.67
484.49	1816.55
484.69	1728.49
484.89	1902.56
485.09	1902.56
485.29	1841.12
485.50	1902.56
485.70	1808.36
485.90	1875.94
486.10	1847.27
486.30	1906.66
486.50	1896.42
486.71	1910.75
486.91	1892.32
487.11	1910.75
487.31	1775.59
487.51	1886.18
487.71	1771.49
487.91	1730.53
488.12	1738.73
488.32	1607.66
488.52	1728.49
488.72	1730.53
488.92	1769.44
489.12	1863.65
489.32	1845.22
489.53	1849.32
489.73	1687.53
489.93	1961.95
490.13	1746.92
490.33	1705.96
490.53	1796.07
490.73	1863.65
490.94	1794.02
491.14	1830.88
491.34	1943.52
491.54	2215.90
491.74	2879.44
491.94	3301.33
492.14	3602.38
492.34	3657.67
492.54	3344.33
492.75	2791.38
492.95	2752.47
493.15	2562.01
493.35	2447.32
493.55	2418.65
493.75	2326.49
493.95	2357.21
494.15	2125.79
494.35	2111.46
494.56	2054.11
494.76	1873.89
494.96	1935.33
495.16	1890.28
495.36	1834.98
495.56	1877.99
495.76	1834.98
495.96	1830.88
496.16	1791.97
496.36	1986.53
496.56	1861.60
496.77	1853.41
496.97	1808.36
497.17	1898.47
497.37	1779.68
497.57	1916.90
497.77	1796.07
497.97	1751.01
498.17	1882.08
498.37	1771.49
498.57	1810.40
498.77	1816.55
498.97	1929.19
499.17	2013.15
499.38	1769.44
499.58	1822.69
499.78	1839.08
499.98	1920.99
500.18	1785.83
500.38	1869.80
500.58	2058.21
500.78	2519.00
500.98	4679.61
501.18	6735.77
501.38	8468.35
501.58	9222.00
501.78	9281.39
501.98	7161.75
502.18	6008.74
502.38	5173.17
502.58	4810.68
502.78	4138.94
502.98	4134.85
503.18	4005.83
503.38	3588.04
503.59	3147.73
503.79	2906.07
503.99	2701.27
504.19	2357.21
504.39	2389.98
504.59	2428.89
504.79	2484.19
504.99	2373.60
505.19	2248.67
505.39	2058.21
505.59	2172.89
505.79	2119.65
505.99	2009.06
506.19	1923.04
506.39	2033.63
506.59	1943.52
506.79	1832.93
506.99	1949.67
507.19	1941.47
507.39	1916.90
507.59	1759.21
507.79	1757.16
507.99	1759.21
508.19	1867.75
508.39	1841.12
508.59	1912.80
508.79	1918.95
508.99	1951.71
509.19	1859.56
509.39	1857.51
509.59	1767.40
509.79	1845.22
509.99	1808.36
510.19	1880.04
510.39	1955.81
510.59	1830.88
510.79	1785.83
510.99	1738.73
511.19	1804.26
511.39	1931.23
511.59	1865.70
511.79	1974.24
511.99	1834.98
512.19	1947.62
512.38	1900.52
512.58	1843.17
512.78	1808.36
512.98	1966.05
513.18	1976.29
513.38	1730.53
513.58	1931.23
513.78	1847.27
513.98	1861.60
514.18	1839.08
514.38	1880.04
514.58	1873.89
514.78	1859.56
514.98	1828.84
515.18	1771.49
515.38	1732.58
515.58	1980.39
515.78	1806.31
515.98	1800.16
516.18	1941.47
516.38	1820.64
516.57	1894.37
516.77	1832.93
516.97	1853.41
517.17	1740.77
517.37	1712.10
517.57	1968.10
517.77	1839.08
517.97	1701.86
518.17	1886.18
518.37	1837.03
518.57	1693.67
518.77	1765.35
518.97	1822.69
519.16	1798.12
519.36	1900.52
519.56	1806.31
519.76	1841.12
519.96	1861.60
520.16	1970.15
520.36	1794.02
520.56	1845.22
520.76	1785.83
520.96	1824.74
521.16	1892.32
521.35	1888.23
521.55	1929.19
521.75	1859.56
521.95	1894.37
522.15	1808.36
522.35	1728.49
522.55	1800.16
522.75	1894.37
522.95	1841.12
523.14	1816.55
523.34	1869.80
523.54	1822.69
523.74	1884.13
523.94	1853.41
524.14	1744.87
524.34	1812.45
524.54	1865.70
524.73	1849.32
524.93	1980.39
525.13	1910.75
525.33	1759.21
525.53	1968.10
525.73	1904.61
525.93	1906.66
526.13	1814.50
526.32	1822.69
526.52	1955.81
526.72	1886.18
526.92	1822.69
527.12	1834.98
527.32	1769.44
527.52	1869.80
527.71	1927.14
527.91	1734.63
528.11	1810.40
528.31	1890.28
528.51	1751.01
528.71	1910.75
528.90	1875.94
529.10	1959.91
529.30	1935.33
529.50	1781.73
529.70	1843.17
529.90	1800.16
530.09	1822.69
530.29	1753.06
530.49	1812.45
530.69	2078.69
530.89	1880.04
531.09	1914.85
531.28	1763.30
531.48	1959.91
531.68	1882.08
531.88	1822.69
532.08	1925.09
532.28	1816.55
532.47	1849.32
532.67	1900.52
532.87	1800.16
533.07	1808.36
533.27	1886.18
533.46	1816.55
533.66	1832.93
533.86	1841.12
534.06	1820.64
534.26	1867.75
534.45	1857.51
534.65	1898.47
534.85	1839.08
535.05	1794.02
535.25	1937.38
535.44	1685.48
535.64	1890.28
535.84	1837.03
536.04	1779.68
536.24	1769.44
536.43	1812.45
536.63	1912.80
536.83	1861.60
537.03	1869.80
537.22	1748.97
537.42	1748.97
537.62	1789.92
537.82	1816.55
538.02	1902.56
538.21	1927.14
538.41	2009.06
538.61	1814.50
538.81	1806.31
539.00	1933.28
539.20	1724.39
539.40	1800.16
539.60	1837.03
539.79	1863.65
539.99	1855.46
540.19	1791.97
540.39	1806.31
540.58	1837.03
540.78	1839.08
540.98	1791.97
541.18	1939.43
541.37	1884.13
541.57	1837.03
541.77	1871.84
541.97	1800.16
542.16	1746.92
542.36	1824.74
542.56	1767.40
542.76	2025.44
542.95	1867.75
543.15	1896.42
543.35	1910.75
543.54	1755.11
543.74	1834.98
543.94	1957.86
544.14	1806.31
544.33	1892.32
544.53	1794.02
544.73	1804.26
544.93	1820.64
545.12	1777.64
545.32	1892.32
545.52	1845.22
545.71	1787.88
545.91	1753.06
546.11	1841.12
546.30	1800.16
546.50	1880.04
546.70	1873.89
546.90	1853.41
547.09	1677.29
547.29	1834.98
547.49	1855.46
547.68	1845.22
547.88	1863.65
548.08	1902.56
548.27	2281.44
548.47	1841.12
548.67	1783.78
548.87	1843.17
549.06	1830.88
549.26	1841.12
549.46	1832.93
549.65	1859.56
549.85	1828.84
550.05	1884.13
550.24	1734.63
550.44	1812.45
550.64	1787.88
550.83	1843.17
551.03	1990.63
551.23	1894.37
551.42	1935.33
551.62	1796.07
551.82	1880.04
552.01	1740.77
552.21	1931.23
552.41	1839.08
552.60	1943.52
552.80	1857.51
553.00	1814.50
553.19	1875.94
553.39	1945.57
553.59	1798.12
553.78	1892.32
553.98	1900.52
554.17	1775.59
554.37	1841.12
554.57	1931.23
554.76	1785.83
554.96	1898.47
555.16	1886.18
555.35	1902.56
555.55	1906.66
555.75	1822.69
555.94	1861.60
556.14	1748.97
556.33	1828.84
556.53	1781.73
556.73	1748.97
556.92	1841.12
557.12	1918.95
557.32	2019.30
557.51	1933.28
557.71	1853.41
557.90	2002.91
558.10	1880.04
558.30	1802.21
558.49	1822.69
558.69	1865.70
558.88	1814.50
559.08	1824.74
559.28	1837.03
559.47	1837.03
559.67	1896.42
559.86	1996.77
560.06	1869.80
560.26	1816.55
560.45	1871.84
560.65	1841.12
560.84	2015.20
561.04	1730.53
561.24	1912.80
561.43	1710.05
561.63	1935.33
561.82	1888.23
562.02	1900.52
562.22	1863.65
562.41	1777.64
562.61	1826.79
562.80	1796.07
563.00	2009.06
563.19	1890.28
563.39	1880.04
563.59	1906.66
563.78	1826.79
563.98	1705.96
564.17	1830.88
564.37	1716.20
564.56	1826.79
564.76	1755.11
564.96	1943.52
565.15	1822.69
565.35	1982.43
565.54	1839.08
565.74	1855.46
565.93	1845.22
566.13	1748.97
566.32	1953.76
566.52	1898.47
566.71	1861.60
566.91	1863.65
567.11	1933.28
567.30	1783.78
567.50	1820.64
567.69	1918.95
567.89	1865.70
568.08	1771.49
568.28	1904.61
568.47	1824.74
568.67	1826.79
568.86	1812.45
569.06	1935.33
569.25	1892.32
569.45	1726.44
569.64	1863.65
569.84	1861.60
570.04	1880.04
570.23	1791.97
570.43	1839.08
570.62	1824.74
570.82	1933.28
571.01	1877.99
571.21	1789.92
571.40	1777.64
571.60	1927.14
571.79	1837.03
571.99	1845.22
572.18	1808.36
572.38	1888.23
572.57	1867.75
572.77	1869.80
572.96	2004.96
573.16	1849.32
573.35	1787.88
573.55	1933.28
573.74	1910.75
573.94	1783.78
574.13	1785.83
574.33	1968.10
574.52	2021.35
574.71	1886.18
574.91	1839.08
575.10	1804.26
575.30	1855.46
575.49	1783.78
575.69	1841.12
575.88	1873.89
576.08	1869.80
576.27	1976.29
576.47	1900.52
576.66	1972.19
576.86	1935.33
577.05	1877.99
577.25	2031.58
577.44	1968.10
577.64	1824.74
577.83	1912.80
578.02	1869.80
578.22	1920.99
578.41	1951.71
578.61	1869.80
578.80	1718.25
579.00	1808.36
579.19	1804.26
579.39	1894.37
579.58	1910.75
579.77	1847.27
579.97	1978.34
580.16	1966.05
580.36	1892.32
580.55	2009.06
580.75	1947.62
580.94	1859.56
581.13	1957.86
581.33	1929.19
581.52	1918.95
581.72	1994.72
581.91	1992.67
582.11	1949.67
582.30	1884.13
582.49	1937.38
582.69	1927.14
582.88	1847.27
583.08	1877.99
583.27	1947.62
583.47	1929.19
583.66	1830.88
583.85	1867.75
584.05	1855.46
584.24	1943.52
584.44	1888.23
584.63	1970.15
584.82	1929.19
585.02	2035.68
585.21	1972.19
585.41	2066.40
585.60	1984.48
585.79	2072.54
585.99	2138.08
586.18	2025.44
586.37	2439.13
586.57	3559.37
586.76	10837.85
586.96	28509.77
587.15	42765.68
587.34	52532.45
587.54	59171.96
587.73	56401.06
587.93	39746.98
588.12	29765.18
588.31	23799.44
588.51	20377.29
588.70	18652.90
588.89	17291.00
589.09	15550.23
589.28	13182.77
589.47	10950.49
589.67	9056.12
589.86	6997.91
590.06	5224.37
590.25	3989.44
590.44	3069.91
590.64	2598.87
590.83	2306.01
591.02	2109.41
591.22	2056.16
591.41	2086.88
591.60	1945.57
591.80	2090.98
591.99	1834.98
592.18	1925.09
592.38	1976.29
592.57	1875.94
592.76	1888.23
592.96	1945.57
593.15	1851.36
593.34	2029.54
593.54	1902.56
593.73	1845.22
593.92	1904.61
594.12	1929.19
594.31	1949.67
594.50	1976.29
594.70	1945.57
594.89	2045.92
595.08	1832.93
595.28	1871.84
595.47	2062.30
595.66	2023.39
595.86	1861.60
596.05	1839.08
596.24	1892.32
596.43	2029.54
596.63	1920.99
596.82	1918.95
597.01	1890.28
597.21	1927.14
597.40	1935.33
597.59	1841.12
597.79	1861.60
597.98	1945.57
598.17	1904.61
598.36	1837.03
598.56	1898.47
598.75	1839.08
598.94	1888.23
599.14	1861.60
599.33	1791.97
599.52	1824.74
599.71	1832.93
599.91	1912.80
600.10	1789.92
600.29	1826.79
600.48	1970.15
600.68	1871.84
600.87	1834.98
601.06	1775.59
601.26	1867.75
601.45	1875.94
601.64	1822.69
601.83	1943.52
602.03	1777.64
602.22	1771.49
602.41	1877.99
602.60	2043.87
602.80	1964.00
602.99	1861.60
603.18	1861.60
603.37	1931.23
603.57	1957.86
603.76	1945.57
603.95	1853.41
604.14	1826.79
604.34	1769.44
604.53	1808.36
604.72	1773.54
604.91	1865.70
605.10	1863.65
605.30	1804.26
605.49	1974.24
605.68	1939.43
605.87	1830.88
606.07	1839.08
606.26	1845.22
606.45	1923.04
606.64	1839.08
606.84	1787.88
607.03	1910.75
607.22	1994.72
607.41	1906.66
607.60	1843.17
607.80	1945.57
607.99	1873.89
608.18	1880.04
608.37	1961.95
608.56	1859.56
608.76	1896.42
608.95	2007.01
609.14	1849.32
609.33	1943.52
609.52	2043.87
609.72	1939.43
609.91	1943.52
610.10	1923.04
610.29	1951.71
610.48	1947.62
610.68	1871.84
610.87	1839.08
611.06	1939.43
611.25	1822.69
611.44	1986.53
611.63	1794.02
611.83	1910.75
612.02	1757.16
612.21	1916.90
612.40	1824.74
612.59	1773.54
612.79	1783.78
612.98	1906.66
613.17	1980.39
613.36	1822.69
613.55	1941.47
613.74	1900.52
613.93	1996.77
614.13	1955.81
614.32	2123.74
614.51	2166.75
614.70	1882.08
614.89	1888.23
615.08	1912.80
615.28	2279.39
615.47	1871.84
615.66	1968.10
615.85	1937.38
616.04	2050.02
616.23	1935.33
616.42	1884.13
616.62	1984.48
616.81	1857.51
617.00	1900.52
617.19	1841.12
617.38	1822.69
617.57	1916.90
617.76	1949.67
617.95	1904.61
618.15	1820.64
618.34	1990.63
618.53	1763.30
618.72	1980.39
618.91	1873.89
619.10	1943.52
619.29	1812.45
619.48	1773.54
619.68	1767.40
619.87	1775.59
620.06	1771.49
620.25	1902.56
620.44	1779.68
620.63	1855.46
620.82	1824.74
621.01	1810.40
621.20	1808.36
621.39	1853.41
621.59	1880.04
621.78	1914.85
621.97	1855.46
622.16	1851.36
622.35	1812.45
622.54	1863.65
622.73	1910.75
622.92	1783.78
623.11	1892.32
623.30	1812.45
623.49	1816.55
623.68	1843.17
623.88	1972.19
624.07	1906.66
624.26	1851.36
624.45	1931.23
624.64	1894.37
624.83	1837.03
625.02	1863.65
625.21	1847.27
625.40	1847.27
625.59	1920.99
625.78	1916.90
625.97	1933.28
626.16	1976.29
626.35	2004.96
626.54	1939.43
626.74	2025.44
626.93	1851.36
627.12	1935.33
627.31	1927.14
627.50	1900.52
627.69	1900.52
627.88	1822.69
628.07	1841.12
628.26	1796.07
628.45	1781.73
628.64	1779.68
628.83	1847.27
629.02	1810.40
629.21	1959.91
629.40	1834.98
629.59	1857.51
629.78	1718.25
629.97	1898.47
630.16	1912.80
630.35	1875.94
630.54	1886.18
630.73	1828.84
630.92	1800.16
631.11	1681.38
631.30	1877.99
631.49	1826.79
631.68	1849.32
631.87	1843.17
632.06	1816.55
632.25	1953.76
632.44	1806.31
632.63	1978.34
632.82	1871.84
633.01	1949.67
633.20	1970.15
633.39	1914.85
633.58	1916.90
633.77	1953.76
633.96	1955.81
634.15	1953.76
634.34	1851.36
634.53	1880.04
634.72	1859.56
634.91	1748.97
635.10	1832.93
635.29	1902.56
635.48	1877.99
635.67	1832.93
635.86	1734.63
636.05	1927.14
636.24	1802.21
636.43	1927.14
636.62	1826.79
636.81	1685.48
637.00	1843.17
637.19	1814.50
637.38	1869.80
637.57	1812.45
637.76	1900.52
637.95	1828.84
638.14	1837.03
638.33	1994.72
638.52	1931.23
638.71	1814.50
638.89	1806.31
639.08	2015.20
639.27	1933.28
639.46	2009.06
639.65	2234.33
639.84	2422.75
640.03	2533.34
640.22	2525.15
640.41	2506.71
640.60	2174.94
640.79	2197.47
640.98	2000.87
641.17	2093.02
641.36	2009.06
641.55	2031.58
641.74	1880.04
641.92	1886.18
642.11	1865.70
642.30	1906.66
642.49	1789.92
642.68	1812.45
642.87	1837.03
643.06	1843.17
643.25	1697.77
643.44	1730.53
643.63	1882.08
643.82	1984.48
644.00	1761.25
644.19	1785.83
644.38	1767.40
644.57	1861.60
644.76	1798.12
644.95	1849.32
645.14	1785.83
645.33	1847.27
645.52	1830.88
645.71	1746.92
645.89	1804.26
646.08	1789.92
646.27	1828.84
646.46	1941.47
646.65	1738.73
646.84	1800.16
647.03	1794.02
647.22	1935.33
647.40	1880.04
647.59	1765.35
647.78	1734.63
647.97	1726.44
648.16	1763.30
648.35	1886.18
648.54	1918.95
648.73	1785.83
648.91	1867.75
649.10	1828.84
649.29	1845.22
649.48	1744.87
649.67	1904.61
649.86	1810.40
650.05	1898.47
650.23	1988.58
650.42	1955.81
650.61	2056.16
650.80	2027.49
650.99	2095.07
651.18	1966.05
651.36	1972.19
651.55	1837.03
651.74	1882.08
651.93	1955.81
652.12	1791.97
652.31	1849.32
652.49	1757.16
652.68	1808.36
652.87	1998.82
653.06	1943.52
653.25	1939.43
653.44	1863.65
653.62	1988.58
653.81	1800.16
654.00	1757.16
654.19	1916.90
654.38	1904.61
654.56	1933.28
654.75	1771.49
654.94	1873.89
655.13	1845.22
655.32	1806.31
655.51	1849.32
655.69	1781.73
655.88	1886.18
656.07	1742.82
656.26	1787.88
656.45	1691.62
656.63	1877.99
656.82	1839.08
657.01	1904.61
657.20	1695.72
657.38	1841.12
657.57	1775.59
657.76	1718.25
657.95	1796.07
658.14	1789.92
658.32	1824.74
658.51	1697.77
658.70	1861.60
658.89	1865.70
659.08	1814.50
659.26	1978.34
659.45	1865.70
659.64	1886.18
659.83	1806.31
660.01	2103.26
660.20	1918.95
660.39	1955.81
660.58	1742.82
660.76	1896.42
660.95	1732.58
661.14	1785.83
661.33	1763.30
661.51	1773.54
661.70	1841.12
661.89	1918.95
662.08	1847.27
662.26	1796.07
662.45	1767.40
662.64	1896.42
662.83	1763.30
663.01	1806.31
663.20	1861.60
663.39	1894.37
663.58	1832.93
663.76	1820.64
663.95	1865.70
664.14	1777.64
664.32	1785.83
664.51	1763.30
664.70	1742.82
664.89	1830.88
665.07	1800.16
665.26	1957.86
665.45	1759.21
665.64	1892.32
665.82	1908.71
666.01	1918.95
666.20	1826.79
666.38	1966.05
666.57	1990.63
666.76	2453.47
666.95	5574.57
667.13	13346.61
667.32	19760.85
667.51	23559.83
667.69	25937.52
667.88	25788.02
668.07	19271.39
668.25	14339.88
668.44	11442.00
668.63	9891.69
668.81	8767.35
669.00	7718.79
669.19	6842.26
669.38	6117.28
669.56	5406.64
669.75	4499.39
669.94	3704.78
670.12	3022.80
670.31	2670.55
670.50	2379.74
670.68	2181.09
670.87	1992.67
671.06	2023.39
671.24	1943.52
671.43	1992.67
671.62	1972.19
671.80	1826.79
671.99	1935.33
672.18	1882.08
672.36	1957.86
672.55	1824.74
672.74	1832.93
672.92	1824.74
673.11	1894.37
673.29	1773.54
673.48	1892.32
673.67	1834.98
673.85	1923.04
674.04	1796.07
674.23	1845.22
674.41	1923.04
674.60	1716.20
674.79	1765.35
674.97	1796.07
675.16	1863.65
675.34	1890.28
675.53	1777.64
675.72	1853.41
675.90	1884.13
676.09	1748.97
676.28	1794.02
676.46	1771.49
676.65	1871.84
676.83	1849.32
677.02	1708.01
677.21	1863.65
677.39	1871.84
677.58	1722.34
677.77	1759.21
677.95	1718.25
678.14	1806.31
678.32	1759.21
678.51	1845.22
678.70	1894.37
678.88	1730.53
679.07	1861.60
679.25	1830.88
679.44	1806.31
679.63	1708.01
679.81	1847.27
680.00	1931.23
680.18	1781.73
680.37	2019.30
680.55	1804.26
680.74	1742.82
680.93	1636.33
681.11	1814.50
681.30	1847.27
681.48	1820.64
681.67	1742.82
681.85	1814.50
682.04	1671.14
682.23	1908.71
682.41	1929.19
682.60	1789.92
682.78	1734.63
682.97	1742.82
683.15	1824.74
683.34	1830.88
683.53	1884.13
683.71	1755.11
683.90	1902.56
684.08	2015.20
684.27	1800.16
684.45	1927.14
684.64	1863.65
684.82	1779.68
685.01	1869.80
685.19	1742.82
685.38	1898.47
685.57	1816.55
685.75	1796.07
685.94	1837.03
686.12	1757.16
686.31	1845.22
686.49	1929.19
686.68	1720.29
686.86	1890.28
687.05	1834.98
687.23	1900.52
687.42	1759.21
687.60	1705.96
687.79	1888.23
687.97	1832.93
688.16	1859.56
688.34	1945.57
688.53	1779.68
688.71	1828.84
688.90	1968.10
689.08	1740.77
689.27	1701.86
689.45	1820.64
689.64	1798.12
689.82	1884.13
690.01	1824.74
690.19	1785.83
690.38	1810.40
690.56	1871.84
690.75	1771.49
690.93	1705.96
691.12	1751.01
691.30	1746.92
691.49	1783.78
691.67	1779.68
691.86	1931.23
692.04	1806.31
692.23	1832.93
692.41	1886.18
692.60	2045.92
692.78	1908.71
692.97	1904.61
693.15	1951.71
693.34	1959.91
693.52	1937.38
693.71	1806.31
693.89	1812.45
694.08	1695.72
694.26	1910.75
694.44	1910.75
694.63	1839.08
694.81	1771.49
695.00	1802.21
695.18	1980.39
695.37	1929.19
695.55	1834.98
695.74	1869.80
695.92	1728.49
696.10	1923.04
696.29	1732.58
696.47	1671.14
696.66	1732.58
696.84	1822.69
697.03	1794.02
697.21	1970.15
697.40	2529.24
697.58	1869.80
697.76	1816.55
697.95	1785.83
698.13	1771.49
698.32	1755.11
698.50	1910.75
698.68	1855.46
698.87	1849.32
699.05	1900.52
699.24	1806.31
699.42	1800.16
699.61	1781.73
699.79	1851.36
699.97	1826.79
700.16	1765.35
700.34	1740.77
700.53	1861.60
700.71	1892.32
700.89	1943.52
701.08	1861.60
701.26	1839.08
701.45	2246.62
701.63	1769.44
701.81	1808.36
702.00	1761.25
702.18	1830.88
702.37	1845.22
702.55	2023.39
702.73	1978.34
702.92	2023.39
703.10	2131.94
703.28	2041.82
703.47	1920.99
703.65	2002.91
703.84	2037.73
704.02	1873.89
704.20	2041.82
704.39	1865.70
704.57	1834.98
704.75	1918.95
704.94	2045.92
705.12	1896.42
705.30	2029.54
705.49	3028.95
705.67	7092.12
705.86	15742.74
706.04	20905.66
706.22	24843.91
706.41	26865.25
706.59	25286.27
706.77	18798.31
706.96	13936.43
707.14	12230.47
707.32	10465.12
707.51	9402.22
707.69	7837.58
707.87	6571.93
708.06	5210.03
708.24	4163.52
708.42	3258.32
708.61	2807.77
708.79	2318.30
708.97	2115.55
709.16	2090.98
709.34	1959.91
709.52	1910.75
709.71	1816.55
709.89	1916.90
710.07	1863.65
710.26	1796.07
710.44	1933.28
710.62	1822.69
710.80	1802.21
710.99	1853.41
711.17	1822.69
711.35	1808.36
711.54	1841.12
711.72	1910.75
711.90	1857.51
712.09	1820.64
712.27	1830.88
712.45	1787.88
712.63	1798.12
712.82	1771.49
713.00	1746.92
713.18	1884.13
713.37	1880.04
713.55	1857.51
713.73	1888.23
713.91	1818.60
714.10	1804.26
714.28	1726.44
714.46	1847.27
714.65	1834.98
714.83	1910.75
715.01	1755.11
715.19	1845.22
715.38	1787.88
715.56	1861.60
715.74	1791.97
715.92	1783.78
716.11	1859.56
716.29	1693.67
716.47	1785.83
716.65	1769.44
716.84	1771.49
717.02	1839.08
717.20	1736.68
717.38	1802.21
717.57	1951.71
717.75	1781.73
717.93	1783.78
718.11	1740.77
718.30	1648.61
718.48	1900.52
718.66	1824.74
718.84	1961.95
719.03	1800.16
719.21	1732.58
719.39	1964.00
719.57	1808.36
719.75	1849.32
719.94	1736.68
720.12	1812.45
720.30	1886.18
720.48	1927.14
720.67	1869.80
720.85	1828.84
721.03	1867.75
721.21	1781.73
721.39	1880.04
721.58	1841.12
721.76	1806.31
721.94	1877.99
722.12	1822.69
722.30	1906.66
722.49	1705.96
722.67	1828.84
722.85	1810.40
723.03	1710.05
723.21	1740.77
723.40	1814.50
723.58	1888.23
723.76	1892.32
723.94	1957.86
724.12	1906.66
724.30	1937.38
724.49	1957.86
724.67	1816.55
724.85	1990.63
725.03	1796.07
725.21	1914.85
725.40	1925.09
725.58	1773.54
725.76	1857.51
725.94	1822.69
726.12	1775.59
726.30	1841.12
726.49	1851.36
726.67	1800.16
726.85	1880.04
727.03	2009.06
727.21	2639.83
727.39	4014.02
727.57	5480.36
727.76	6117.28
727.94	6612.89
728.12	6768.54
728.30	5879.72
728.48	4544.44
728.66	4149.18
728.84	3751.88
729.03	3311.57
729.21	2877.40
729.39	2471.90
729.57	2228.19
729.75	2009.06
729.93	1957.86
730.11	1847.27
730.30	1818.60
730.48	1775.59
730.66	1847.27
730.84	1896.42
731.02	1814.50
731.20	1796.07
731.38	1822.69
731.56	1693.67
731.74	1759.21
731.93	1744.87
732.11	1837.03
732.29	1798.12
732.47	1898.47
732.65	1820.64
732.83	1951.71
733.01	1886.18
733.19	1810.40
733.37	1841.12
733.56	1777.64
733.74	1679.33
733.92	1933.28
734.10	1810.40
734.28	1880.04
734.46	1736.68
734.64	1708.01
734.82	1796.07
735.00	1763.30
735.18	1759.21
735.36	1804.26
735.54	1818.60
735.73	1742.82
735.91	1834.98
736.09	1865.70
736.27	1826.79
736.45	1806.31
736.63	1761.25
736.81	1812.45
736.99	1871.84
737.17	1937.38
737.35	1794.02
737.53	1927.14
737.71	1857.51
737.89	1943.52
738.07	1751.01
738.25	1794.02
738.43	1779.68
738.61	1810.40
738.80	1683.43
738.98	1826.79
739.16	1728.49
739.34	1746.92
739.52	1931.23
739.70	1773.54
739.88	1843.17
740.06	1918.95
740.24	1728.49
740.42	1865.70
740.60	1779.68
740.78	1800.16
740.96	1695.72
741.14	1810.40
741.32	1851.36
741.50	1738.73
741.68	1968.10
741.86	1877.99
742.04	1794.02
742.22	1755.11
742.40	1812.45
742.58	1804.26
742.76	1787.88
742.94	1826.79
743.12	1693.67
743.30	1818.60
743.48	1841.12
743.66	1779.68
743.84	1900.52
744.02	1798.12
744.20	1855.46
744.38	1732.58
744.56	1773.54
744.74	1931.23
744.92	1882.08
745.10	1839.08
745.28	1886.18
745.46	1912.80
745.64	1765.35
745.82	1886.18
746.00	1781.73
746.18	1822.69
746.36	1781.73
746.54	1894.37
746.72	1800.16
746.90	1761.25
747.08	1916.90
747.26	1841.12
747.44	1861.60
747.62	1775.59
747.80	1810.40
747.98	1837.03
748.15	1822.69
748.33	1943.52
748.51	1755.11
748.69	1900.52
748.87	1714.15
749.05	1753.06
749.23	1875.94
749.41	1839.08
749.59	1732.58
749.77	1816.55
749.95	1816.55
750.13	1806.31
750.31	1826.79
750.49	1820.64
750.67	1894.37
750.85	1943.52
751.03	1822.69
751.20	1937.38
751.38	1824.74
751.56	1791.97
751.74	1755.11
751.92	1775.59
752.10	1812.45
752.28	1820.64
752.46	1769.44
752.64	1794.02
752.82	1849.32
753.00	1949.67
753.18	1794.02
753.35	1787.88
753.53	1843.17
753.71	1802.21
753.89	1937.38
754.07	1859.56
754.25	1861.60
754.43	1882.08
754.61	1720.29
754.79	1912.80
754.97	1791.97
755.14	1894.37
755.32	1734.63
755.50	1767.40
755.68	1902.56
755.86	1796.07
756.04	1695.72
756.22	1722.34
756.40	1857.51
756.57	2011.11
756.75	1808.36
756.93	1855.46
757.11	1824.74
757.29	1689.57
757.47	1765.35
757.65	1705.96
757.82	1662.95
758.00	1726.44
758.18	1763.30
758.36	1701.86
758.54	1886.18
758.72	1769.44
758.90	1914.85
759.07	1906.66
759.25	1755.11
759.43	1886.18
759.61	1691.62
759.79	2336.73
759.97	1908.71
760.15	1802.21
760.32	1775.59
760.50	1744.87
760.68	1904.61
760.86	1751.01
761.04	1880.04
761.22	1869.80
761.39	1810.40
761.57	1880.04
761.75	1791.97
761.93	1912.80
762.11	1779.68
762.28	1877.99
762.46	1767.40
762.64	1787.88
762.82	1705.96
763.00	1779.68
763.18	1920.99
763.35	1746.92
763.53	1898.47
763.71	1759.21
763.89	1861.60
764.07	1791.97
764.24	1796.07
764.42	1841.12
764.60	1812.45
764.78	1869.80
764.96	1859.56
765.13	1847.27
765.31	1843.17
765.49	1886.18
765.67	1683.43
765.84	1873.89
766.02	1777.64
766.20	1724.39
766.38	1814.50
766.56	1871.84
766.73	1875.94
766.91	1767.40
767.09	1830.88
767.27	1857.51
767.44	1767.40
767.62	1890.28
767.80	1824.74
767.98	1820.64
768.15	1751.01
768.33	1894.37
768.51	1873.89
768.69	1843.17
768.87	1869.80
769.04	1769.44
769.22	1902.56
769.40	1837.03
769.58	1877.99
769.75	1853.41
769.93	1892.32
770.11	1796.07
770.28	1679.33
770.46	1867.75
770.64	1884.13
770.82	1837.03
770.99	1755.11
771.17	1763.30
771.35	1849.32
771.53	1800.16
771.70	1771.49
771.88	1828.84
772.06	1779.68
772.23	1777.64
772.41	1794.02
772.59	1804.26
772.77	1830.88
772.94	1808.36
773.12	1882.08
773.30	1820.64
773.47	1804.26
773.65	1781.73
773.83	1847.27
774.01	1759.21
774.18	1705.96
774.36	1763.30
774.54	1828.84
774.71	1800.16
774.89	1759.21
775.07	1736.68
775.24	1783.78
775.42	1771.49
775.60	1861.60
775.78	1765.35
775.95	1765.35
776.13	1740.77
776.31	1699.81
776.48	1832.93
776.66	1890.28
776.84	1740.77
777.01	1802.21
777.19	1773.54
777.37	1820.64
777.54	1849.32
777.72	1880.04
777.90	1812.45
778.07	1732.58
778.25	1980.39
778.43	1871.84
778.60	1808.36
778.78	1920.99
778.96	1818.60
779.13	1763.30
779.31	1912.80
779.49	1818.60
779.66	1853.41
779.84	1769.44
780.01	1787.88
780.19	1757.16
780.37	1865.70
780.54	1824.74
780.72	1834.98
780.90	1781.73
781.07	1820.64
781.25	1787.88
781.43	1906.66
781.60	1859.56
781.78	1855.46
781.95	1816.55
782.13	1724.39
782.31	1773.54
782.48	1693.67
782.66	1851.36
782.83	2041.82
783.01	1826.79
783.19	1818.60
783.36	1814.50
783.54	1759.21
783.72	1871.84
783.89	1746.92
784.07	1771.49
784.24	1837.03
784.42	1865.70
784.60	1830.88
784.77	1902.56
784.95	1757.16
785.12	1767.40
785.30	1837.03
785.47	1724.39
785.65	1767.40
785.83	1804.26
786.00	1779.68
786.18	1796.07
786.35	1753.06
786.53	1810.40
786.71	1974.24
786.88	1863.65
787.06	1837.03
787.23	1759.21
787.41	1716.20
787.58	1812.45
787.76	1757.16
787.94	1837.03
788.11	1837.03
788.29	1785.83
788.46	1744.87
788.64	1771.49
788.81	1783.78
788.99	1732.58
789.16	1783.78
789.34	1757.16
789.52	1785.83
789.69	1744.87
789.87	1744.87
790.04	1834.98
790.22	1740.77
790.39	1943.52
790.57	1775.59
790.74	1757.16
790.92	1785.83
791.09	1730.53
791.27	1785.83
791.44	1904.61
791.62	1742.82
791.79	1910.75
791.97	1834.98
792.15	2037.73
792.32	1884.13
792.50	1861.60
792.67	1855.46
792.85	1886.18
793.02	1869.80
793.20	1781.73
793.37	1748.97
793.55	1771.49
793.72	1777.64
793.90	1830.88
794.07	1736.68
794.25	1734.63
794.42	1861.60
794.60	1837.03
794.77	1853.41
794.95	1918.95
795.12	1853.41
795.30	1771.49
795.47	1714.15
795.65	2002.91
795.82	1845.22
796.00	1753.06
796.17	1775.59
796.34	1757.16
796.52	1812.45
796.69	1865.70
796.87	1812.45
797.04	1875.94
797.22	1931.23
797.39	1775.59
797.57	1939.43
797.74	1757.16
797.92	1796.07
798.09	1796.07
798.27	1841.12
798.44	1873.89
798.62	1830.88
798.79	1824.74
798.96	1785.83
799.14	1857.51
799.31	1894.37
799.49	1785.83
799.66	1810.40
799.84	1783.78
800.01	1746.92
800.19	1888.23
800.36	1699.81
800.53	1779.68
800.71	1882.08
800.88	1968.10
801.06	1816.55
801.23	1757.16
801.41	1808.36
801.58	1787.88
801.75	1798.12
801.93	1800.16
802.10	1830.88
802.28	1708.01
802.45	1785.83
802.63	1898.47
802.80	1974.24
802.97	1720.29
803.15	1814.50
803.32	1759.21
803.50	1705.96
803.67	1779.68
803.84	1681.38
804.02	1814.50
804.19	1779.68
804.37	1697.77
804.54	1767.40
804.71	1837.03
804.89	1814.50
805.06	1718.25
805.24	1705.96
805.41	1712.10
805.58	1834.98
805.76	1945.57
805.93	1853.41
806.10	1929.19
806.28	1861.60
806.45	1816.55
806.63	1777.64
806.80	1847.27
806.97	1810.40
807.15	1834.98
807.32	1783.78
807.49	1826.79
807.67	1771.49
807.84	1861.60
808.01	1722.34
808.19	1935.33
808.36	1968.10
808.54	1757.16
808.71	1710.05
808.88	1902.56
809.06	1828.84
809.23	1884.13
809.40	1759.21
809.58	1832.93
809.75	1814.50
809.92	1767.40
810.10	1970.15
810.27	1818.60
810.44	1796.07
810.62	1820.64
810.79	1877.99
810.96	1748.97
811.14	1734.63
811.31	1898.47
811.48	1888.23
811.66	1832.93
811.83	1904.61
812.00	1830.88
812.18	1857.51
812.35	1968.10
812.52	1714.15
812.69	1816.55
812.87	1781.73
813.04	1804.26
813.21	1818.60
813.39	1808.36
813.56	1742.82
813.73	1898.47
813.91	1742.82
814.08	1871.84
814.25	1828.84
814.42	1755.11
814.60	1814.50
814.77	1837.03
814.94	1787.88
815.12	1779.68
815.29	1935.33
815.46	1744.87
815.63	1822.69
815.81	1802.21
815.98	1777.64
816.15	1849.32
816.33	1722.34
816.50	1730.53
816.67	1888.23
816.84	1796.07
817.02	1732.58
817.19	1769.44
817.36	1839.08
817.53	1824.74
817.71	1759.21
817.88	1863.65
818.05	1785.83
818.22	1714.15
818.40	1888.23
818.57	1773.54
818.74	1771.49
818.91	1779.68
819.09	1839.08
819.26	1920.99
819.43	1818.60
819.60	1738.73
819.78	1898.47
819.95	1822.69
820.12	1841.12
820.29	1908.71
820.47	1914.85
820.64	1761.25
820.81	1765.35
820.98	1726.44
821.15	1828.84
821.33	1845.22
821.50	1720.29
821.67	1800.16
821.84	1771.49
822.02	1796.07
822.19	1808.36
822.36	1748.97
822.53	1812.45
822.70	1773.54
822.88	1810.40
823.05	1927.14
823.22	1806.31
823.39	1822.69
823.56	1800.16
823.74	1918.95
823.91	1761.25
824.08	1775.59
824.25	1738.73
824.42	1880.04
824.60	1763.30
824.77	1851.36
824.94	1814.50
825.11	1857.51
825.28	1728.49
825.45	1920.99
825.63	1775.59
825.80	1837.03
825.97	1783.78
826.14	1816.55
826.31	1687.53
826.48	1839.08
826.66	1716.20
826.83	1779.68
827.00	1791.97
827.17	1808.36
827.34	1802.21
827.51	1800.16
827.69	1722.34
827.86	1730.53
828.03	1837.03
828.20	1769.44
828.37	1826.79
828.54	1834.98
828.71	1783.78
828.89	1869.80
829.06	1796.07
829.23	1949.67
829.40	1812.45
829.57	1781.73
829.74	1865.70
829.91	1759.21
830.09	1888.23
830.26	1794.02
830.43	1918.95
830.60	1877.99
830.77	1941.47
830.94	1877.99
831.11	1884.13
831.28	1818.60
831.46	1914.85
831.63	1769.44
831.80	1785.83
831.97	1763.30
832.14	1810.40
832.31	1798.12
832.48	1830.88
832.65	1810.40
832.82	1763.30
832.99	1837.03
833.17	1765.35
833.34	1830.88
833.51	1810.40
833.68	1685.48
833.85	1841.12
834.02	1773.54
834.19	1703.91
834.36	1736.68
834.53	1818.60
834.70	1912.80
834.87	1849.32
835.04	1871.84
835.22	1726.44
835.39	1783.78
835.56	1773.54
835.73	1773.54
835.90	1841.12
836.07	1769.44
836.24	1910.75
836.41	1806.31
836.58	1761.25
836.75	1937.38
836.92	1847.27
837.09	1804.26
837.26	1843.17
837.43	1826.79
837.60	1818.60
837.77	1789.92
837.94	1890.28
838.12	1861.60
838.29	1830.88
838.46	1724.39
838.63	1773.54
838.80	1869.80
838.97	1853.41
839.14	1853.41
839.31	1810.40
839.48	1824.74
839.65	1783.78
839.82	1832.93
839.99	1769.44
840.16	1812.45
840.33	1744.87
840.50	1818.60
840.67	1710.05
840.84	1728.49
841.01	1849.32
841.18	1714.15
841.35	1839.08
841.52	1853.41
841.69	1943.52
841.86	1804.26
842.03	1832.93
842.20	1877.99
842.37	1738.73
842.54	1773.54
842.71	1865.70
842.88	1751.01
843.05	1826.79
843.22	1820.64
843.39	1832.93
843.56	1779.68
843.73	1818.60
843.90	1804.26
844.07	1800.16
844.24	1867.75
844.41	1894.37
844.58	1732.58
844.75	1763.30
844.92	1839.08
845.09	1818.60
845.26	1779.68
845.43	1871.84
845.60	1771.49
845.77	1853.41
845.94	1820.64
846.10	1906.66
846.27	1738.73
846.44	1783.78
846.61	1759.21
846.78	1851.36
846.95	1826.79
847.12	1714.15
847.29	1771.49
847.46	1761.25
847.63	1925.09
847.80	1769.44
847.97	1767.40
848.14	1933.28
848.31	1853.41
848.48	1726.44
848.65	1826.79
848.82	1769.44
848.98	1986.53
849.15	1865.70
849.32	1888.23
849.49	1902.56
849.66	1748.97
849.83	1857.51
850.00	1753.06
850.17	1873.89
850.34	1800.16
850.51	1703.91
850.68	1742.82
850.85	1949.67
851.01	1933.28
851.18	1845.22
851.35	1826.79
851.52	1843.17
851.69	1941.47
851.86	1753.06
852.03	1787.88
852.20	1798.12
852.37	1785.83
852.53	1726.44
852.70	1839.08
852.87	1863.65
853.04	1839.08
853.21	1822.69
853.38	1882.08
853.55	1886.18
853.72	1904.61
853.89	1759.21
854.05	1779.68
854.22	1816.55
854.39	1806.31
854.56	1845.22
854.73	1972.19
854.90	1671.14
855.07	1765.35
855.23	1810.40
855.40	1808.36
855.57	1695.72
855.74	1718.25
855.91	1945.57
856.08	1703.91
856.25	1736.68
856.41	1787.88
856.58	1787.88
856.75	1777.64
856.92	1738.73
857.09	1898.47
857.26	1794.02
857.42	1800.16
857.59	1806.31
857.76	1820.64
857.93	1796.07
858.10	1763.30
858.27	1681.38
858.43	1798.12
858.60	1785.83
858.77	1765.35
858.94	1781.73
859.11	1826.79
859.27	1701.86
859.44	1847.27
859.61	2062.30
859.78	1841.12
859.95	1775.59
860.12	1769.44
860.28	1910.75
860.45	1875.94
860.62	1841.12
860.79	1794.02
860.95	1771.49
861.12	1822.69
861.29	1755.11
861.46	1816.55
861.63	1796.07
861.79	1888.23
861.96	1826.79
862.13	1791.97
862.30	1871.84
862.47	1765.35
862.63	1748.97
862.80	1888.23
862.97	1873.89
863.14	1845.22
863.30	1867.75
863.47	1761.25
863.64	1908.71
863.81	1740.77
863.97	1689.57
864.14	1818.60
864.31	1779.68
864.48	1884.13
864.65	1798.12
864.81	1898.47
864.98	1859.56
865.15	1880.04
865.32	1804.26
865.48	1824.74
865.65	1875.94
865.82	1802.21
865.98	1769.44
866.15	1910.75
866.32	1845.22
866.49	1708.01
866.65	1845.22
866.82	1820.64
866.99	1837.03
867.16	1748.97
867.32	1740.77
867.49	1804.26
867.66	1769.44
867.83	1855.46
867.99	1683.43
868.16	1828.84
868.33	1808.36
868.49	1863.65
868.66	1769.44
868.83	1822.69
868.99	1732.58
869.16	1804.26
869.33	1966.05
869.50	1918.95
869.66	1884.13
869.83	1814.50
870.00	1722.34
870.16	1925.09
870.33	1697.77
870.50	1873.89
870.66	1732.58
870.83	1914.85
871.00	1839.08
871.17	1830.88
871.33	1861.60
871.50	1789.92
871.67	1773.54
871.83	1628.14
872.00	1974.24
872.17	1765.35
872.33	1898.47
872.50	1888.23
872.67	1828.84
872.83	1712.10
873.00	1843.17
873.17	1722.34
873.33	1857.51
873.50	1830.88
873.67	1775.59
873.83	1785.83
874.00	1834.98
874.16	1832.93
874.33	1849.32
874.50	1787.88
874.66	1888.23
874.83	1892.32
875.00	1902.56
875.16	1804.26
875.33	1861.60
875.50	1767.40
875.66	1759.21
875.83	1820.64
875.99	1802.21
876.16	1775.59
876.33	1685.48
876.49	1812.45
876.66	1812.45
876.83	1740.77
876.99	1728.49
877.16	1804.26
877.32	1812.45
877.49	1822.69
877.66	1869.80
877.82	1929.19
877.99	1837.03
878.15	1820.64
878.32	1877.99
878.49	1816.55
878.65	1738.73
878.82	1949.67
878.98	1740.77
879.15	1781.73
879.32	1892.32
879.48	1759.21
879.65	1779.68
879.81	1740.77
879.98	1744.87
880.15	1763.30
880.31	1949.67
880.48	1730.53
880.64	1865.70
880.81	1849.32
880.97	1873.89
881.14	1925.09
881.31	1742.82
881.47	1892.32
881.64	1742.82
881.80	1701.86
881.97	1769.44
882.13	1890.28
882.30	1767.40
882.47	1781.73
882.63	1742.82
882.80	1675.24
882.96	1730.53
883.13	1851.36
883.29	1837.03
883.46	1839.08
883.62	1900.52
883.79	1783.78
883.95	1857.51
884.12	1824.74
884.29	1886.18
884.45	1818.60
884.62	1828.84
884.78	1771.49
884.95	1964.00
885.11	1791.97
885.28	1824.74
885.44	1800.16
885.61	1851.36
885.77	1861.60
885.94	1843.17
886.10	1796.07
886.27	1796.07
886.43	1918.95
886.60	1855.46
886.76	1818.60
886.93	1853.41
887.09	1816.55
887.26	1716.20
887.42	1746.92
887.59	1890.28
887.75	1927.14
887.92	1832.93
888.08	1816.55
888.25	1953.76
888.41	1906.66
888.58	1791.97
888.74	1810.40
888.91	1832.93
>>>>>End Processed Spectral Data<<<<<
