SpectraSuite Data File
++++++++++++++++++++++++++++++++++++
Date: Wed May 04 21:13:26 CEST 2016
User: root
Dark Spectrum Present: No
Reference Spectrum Present: No
Number of Sampled Component Spectra: 1
Spectrometers: USB4C02835
Integration Time (usec): 100000 (USB4C02835)
Spectra Averaged: 1 (USB4C02835)
Boxcar Smoothing: 0 (USB4C02835)
Correct for Electrical Dark: No (USB4C02835)
Strobe/Lamp Enabled: No (USB4C02835)
Correct for Detector Non-linearity: No (USB4C02835)
Correct for Stray Light: No (USB4C02835)
Number of Pixels in Processed Spectrum: 3648
>>>>>Begin Processed Spectral Data<<<<<
177.47	1540.07
177.69	1540.07
177.91	1540.07
178.13	1546.22
178.36	1499.11
178.58	1638.38
178.80	1822.69
179.02	1675.24
179.24	1673.19
179.46	1777.64
179.68	1961.95
179.90	1783.78
180.13	1751.01
180.35	1736.68
180.57	1773.54
180.79	1880.04
181.01	1802.21
181.23	1880.04
181.45	1964.00
181.67	1843.17
181.90	1869.80
182.12	1751.01
182.34	1669.09
182.56	1822.69
182.78	1767.40
183.00	1816.55
183.22	1781.73
183.44	1748.97
183.66	2019.30
183.89	1961.95
184.11	1783.78
184.33	1834.98
184.55	1849.32
184.77	1808.36
184.99	1869.80
185.21	1828.84
185.43	1972.19
185.65	1771.49
185.87	1779.68
186.10	1904.61
186.32	1937.38
186.54	1822.69
186.76	1814.50
186.98	1865.70
187.20	1744.87
187.42	1808.36
187.64	1794.02
187.86	1808.36
188.08	1855.46
188.30	1773.54
188.52	1871.84
188.75	1904.61
188.97	1984.48
189.19	1753.06
189.41	1810.40
189.63	1828.84
189.85	1814.50
190.07	1734.63
190.29	1730.53
190.51	1820.64
190.73	1740.77
190.95	1834.98
191.17	1775.59
191.39	1816.55
191.61	1771.49
191.84	1783.78
192.06	1804.26
192.28	1669.09
192.50	2015.20
192.72	1855.46
192.94	1859.56
193.16	1886.18
193.38	1800.16
193.60	1736.68
193.82	1716.20
194.04	1867.75
194.26	1832.93
194.48	1791.97
194.70	1802.21
194.92	1769.44
195.14	1783.78
195.36	1755.11
195.58	1789.92
195.80	1771.49
196.02	1732.58
196.24	1808.36
196.46	1802.21
196.69	1783.78
196.91	1970.15
197.13	1744.87
197.35	1738.73
197.57	1914.85
197.79	1857.51
198.01	1802.21
198.23	1775.59
198.45	1841.12
198.67	1724.39
198.89	1738.73
199.11	1789.92
199.33	1734.63
199.55	1652.71
199.77	1851.36
199.99	1888.23
200.21	1779.68
200.43	1841.12
200.65	1800.16
200.87	1705.96
201.09	1820.64
201.31	1785.83
201.53	1814.50
201.75	1748.97
201.97	1830.88
202.19	1771.49
202.41	1841.12
202.63	1968.10
202.85	1853.41
203.07	1789.92
203.29	1812.45
203.51	1800.16
203.73	1736.68
203.95	1931.23
204.17	1808.36
204.39	1814.50
204.61	1869.80
204.83	1787.88
205.05	1783.78
205.27	1877.99
205.49	1892.32
205.71	1820.64
205.93	1746.92
206.15	1814.50
206.37	1814.50
206.59	1806.31
206.81	1744.87
207.03	1746.92
207.25	1738.73
207.47	1818.60
207.69	1837.03
207.91	1945.57
208.13	1910.75
208.34	1748.97
208.56	1693.67
208.78	1824.74
209.00	1820.64
209.22	1771.49
209.44	1818.60
209.66	1738.73
209.88	1724.39
210.10	1794.02
210.32	1818.60
210.54	1943.52
210.76	1869.80
210.98	1935.33
211.20	1724.39
211.42	1787.88
211.64	1927.14
211.86	1839.08
212.08	1861.60
212.30	1861.60
212.52	1839.08
212.74	1832.93
212.96	1818.60
213.17	1861.60
213.39	1837.03
213.61	1814.50
213.83	1843.17
214.05	1781.73
214.27	1896.42
214.49	1744.87
214.71	1818.60
214.93	1931.23
215.15	1789.92
215.37	1824.74
215.59	1755.11
215.81	1834.98
216.03	1847.27
216.24	1855.46
216.46	1806.31
216.68	1814.50
216.90	1859.56
217.12	1918.95
217.34	1785.83
217.56	1890.28
217.78	1982.43
218.00	1837.03
218.22	1761.25
218.44	1828.84
218.66	1767.40
218.87	1974.24
219.09	1794.02
219.31	1832.93
219.53	1767.40
219.75	1822.69
219.97	1781.73
220.19	1843.17
220.41	1822.69
220.63	1904.61
220.85	1826.79
221.06	1787.88
221.28	1843.17
221.50	1787.88
221.72	1787.88
221.94	1773.54
222.16	1843.17
222.38	1855.46
222.60	1783.78
222.82	1826.79
223.03	1851.36
223.25	1740.77
223.47	1892.32
223.69	1931.23
223.91	1845.22
224.13	1861.60
224.35	1779.68
224.57	1800.16
224.78	1843.17
225.00	1763.30
225.22	1808.36
225.44	1867.75
225.66	1814.50
225.88	1818.60
226.10	1894.37
226.32	1802.21
226.53	1902.56
226.75	1728.49
226.97	1796.07
227.19	1832.93
227.41	1769.44
227.63	1806.31
227.85	1718.25
228.06	1830.88
228.28	1804.26
228.50	1910.75
228.72	1751.01
228.94	1796.07
229.16	1634.28
229.37	1738.73
229.59	1740.77
229.81	1877.99
230.03	1728.49
230.25	1646.57
230.47	1759.21
230.69	1779.68
230.90	1912.80
231.12	1740.77
231.34	1824.74
231.56	1884.13
231.78	1730.53
232.00	1851.36
232.21	1810.40
232.43	1812.45
232.65	1615.85
232.87	1812.45
233.09	1773.54
233.30	1816.55
233.52	1851.36
233.74	1736.68
233.96	1818.60
234.18	1820.64
234.40	1863.65
234.61	2007.01
234.83	1710.05
235.05	1665.00
235.27	1976.29
235.49	1904.61
235.70	1853.41
235.92	1861.60
236.14	1914.85
236.36	1978.34
236.58	1757.16
236.79	1812.45
237.01	1828.84
237.23	1812.45
237.45	1894.37
237.67	1767.40
237.88	1861.60
238.10	1923.04
238.32	1771.49
238.54	1757.16
238.76	1789.92
238.97	1791.97
239.19	1794.02
239.41	1871.84
239.63	1853.41
239.85	1697.77
240.06	1769.44
240.28	1740.77
240.50	1834.98
240.72	1751.01
240.93	1759.21
241.15	1822.69
241.37	1806.31
241.59	1906.66
241.81	1820.64
242.02	1759.21
242.24	1816.55
242.46	1914.85
242.68	1769.44
242.89	1806.31
243.11	1839.08
243.33	1871.84
243.55	1822.69
243.76	1847.27
243.98	1767.40
244.20	1826.79
244.42	1785.83
244.64	1857.51
244.85	1759.21
245.07	1726.44
245.29	1855.46
245.51	1740.77
245.72	1837.03
245.94	1849.32
246.16	1785.83
246.38	1882.08
246.59	1853.41
246.81	1755.11
247.03	1855.46
247.24	1751.01
247.46	1789.92
247.68	1773.54
247.90	1798.12
248.11	1863.65
248.33	1871.84
248.55	1886.18
248.77	1841.12
248.98	1923.04
249.20	1984.48
249.42	1822.69
249.64	1857.51
249.85	1824.74
250.07	1777.64
250.29	1816.55
250.50	1933.28
250.72	1693.67
250.94	1865.70
251.16	2009.06
251.37	1839.08
251.59	1871.84
251.81	1820.64
252.02	1892.32
252.24	1841.12
252.46	1845.22
252.68	1791.97
252.89	1783.78
253.11	1646.57
253.33	1916.90
253.54	1834.98
253.76	1609.70
253.98	1769.44
254.20	1837.03
254.41	1734.63
254.63	1775.59
254.85	1753.06
255.06	1808.36
255.28	1869.80
255.50	1804.26
255.71	1800.16
255.93	1736.68
256.15	1849.32
256.36	1837.03
256.58	1785.83
256.80	1777.64
257.02	1791.97
257.23	1826.79
257.45	1779.68
257.67	1894.37
257.88	1800.16
258.10	1875.94
258.32	1769.44
258.53	1832.93
258.75	1949.67
258.97	1718.25
259.18	1873.89
259.40	1839.08
259.62	1859.56
259.83	1798.12
260.05	1947.62
260.27	2109.41
260.48	1912.80
260.70	1773.54
260.92	1789.92
261.13	1851.36
261.35	1800.16
261.57	1896.42
261.78	1699.81
262.00	1751.01
262.22	1789.92
262.43	1853.41
262.65	1892.32
262.86	1808.36
263.08	1933.28
263.30	1746.92
263.51	1726.44
263.73	1853.41
263.95	1871.84
264.16	1775.59
264.38	1697.77
264.60	1834.98
264.81	1847.27
265.03	1910.75
265.25	1886.18
265.46	1771.49
265.68	1894.37
265.89	1837.03
266.11	1759.21
266.33	1884.13
266.54	1857.51
266.76	1820.64
266.98	1863.65
267.19	1923.04
267.41	1888.23
267.62	1767.40
267.84	1773.54
268.06	1832.93
268.27	1851.36
268.49	1871.84
268.70	1857.51
268.92	1791.97
269.14	1722.34
269.35	1718.25
269.57	1818.60
269.79	1816.55
270.00	1796.07
270.22	1888.23
270.43	1787.88
270.65	1708.01
270.87	1798.12
271.08	1791.97
271.30	1882.08
271.51	1814.50
271.73	1898.47
271.95	1906.66
272.16	1837.03
272.38	1943.52
272.59	1753.06
272.81	1849.32
273.02	1812.45
273.24	1828.84
273.46	1916.90
273.67	1796.07
273.89	1755.11
274.10	1804.26
274.32	1822.69
274.54	1855.46
274.75	1832.93
274.97	1722.34
275.18	1841.12
275.40	1894.37
275.61	1826.79
275.83	1736.68
276.05	1796.07
276.26	1691.62
276.48	1810.40
276.69	1810.40
276.91	1777.64
277.12	1886.18
277.34	1888.23
277.55	1890.28
277.77	1794.02
277.99	1806.31
278.20	1755.11
278.42	1794.02
278.63	1695.72
278.85	1800.16
279.06	1755.11
279.28	1865.70
279.49	1857.51
279.71	1845.22
279.93	1806.31
280.14	1789.92
280.36	1740.77
280.57	1861.60
280.79	1884.13
281.00	1777.64
281.22	1775.59
281.43	1902.56
281.65	1755.11
281.86	1808.36
282.08	1871.84
282.29	1953.76
282.51	1662.95
282.73	1777.64
282.94	1701.86
283.16	1779.68
283.37	1896.42
283.59	1820.64
283.80	1839.08
284.02	1816.55
284.23	1884.13
284.45	1775.59
284.66	1744.87
284.88	1789.92
285.09	1867.75
285.31	1882.08
285.52	1837.03
285.74	1724.39
285.95	1810.40
286.17	1841.12
286.38	1888.23
286.60	1720.29
286.81	1822.69
287.03	1757.16
287.24	1808.36
287.46	1824.74
287.67	1777.64
287.89	1927.14
288.10	1890.28
288.32	1820.64
288.53	1902.56
288.75	1923.04
288.96	1884.13
289.18	1751.01
289.39	1769.44
289.61	1896.42
289.82	1925.09
290.04	1910.75
290.25	1796.07
290.47	1781.73
290.68	1834.98
290.90	1931.23
291.11	1687.53
291.33	1877.99
291.54	1808.36
291.76	1769.44
291.97	1826.79
292.18	1806.31
292.40	1769.44
292.61	1742.82
292.83	1982.43
293.04	1884.13
293.26	1859.56
293.47	1740.77
293.69	1697.77
293.90	1796.07
294.12	1929.19
294.33	1892.32
294.55	1875.94
294.76	1853.41
294.97	1961.95
295.19	1947.62
295.40	1798.12
295.62	1806.31
295.83	1886.18
296.05	1746.92
296.26	1857.51
296.48	1714.15
296.69	1855.46
296.90	1796.07
297.12	1882.08
297.33	1918.95
297.55	1816.55
297.76	1839.08
297.98	1890.28
298.19	1830.88
298.41	1798.12
298.62	1789.92
298.83	1925.09
299.05	1769.44
299.26	1802.21
299.48	1746.92
299.69	1818.60
299.90	1796.07
300.12	1808.36
300.33	1847.27
300.55	1777.64
300.76	1861.60
300.98	1773.54
301.19	1916.90
301.40	1859.56
301.62	1839.08
301.83	1880.04
302.05	1861.60
302.26	1853.41
302.47	1849.32
302.69	1665.00
302.90	1867.75
303.12	1681.38
303.33	1839.08
303.54	1937.38
303.76	1746.92
303.97	1839.08
304.19	1910.75
304.40	1777.64
304.61	1845.22
304.83	1980.39
305.04	1863.65
305.26	1837.03
305.47	1763.30
305.68	1775.59
305.90	1755.11
306.11	1869.80
306.33	1810.40
306.54	1804.26
306.75	1753.06
306.97	1681.38
307.18	1718.25
307.39	1777.64
307.61	1800.16
307.82	1761.25
308.04	1841.12
308.25	1775.59
308.46	1769.44
308.68	1824.74
308.89	1763.30
309.10	1865.70
309.32	1871.84
309.53	1882.08
309.74	1818.60
309.96	1804.26
310.17	1843.17
310.39	1796.07
310.60	1882.08
310.81	1867.75
311.03	1755.11
311.24	1808.36
311.45	1877.99
311.67	1865.70
311.88	1798.12
312.09	1748.97
312.31	1789.92
312.52	1839.08
312.73	1771.49
312.95	1738.73
313.16	1710.05
313.37	1775.59
313.59	1855.46
313.80	1890.28
314.01	1845.22
314.23	1822.69
314.44	1783.78
314.65	1658.85
314.87	1722.34
315.08	1806.31
315.29	1773.54
315.51	1806.31
315.72	1785.83
315.93	1886.18
316.15	1877.99
316.36	1714.15
316.57	1904.61
316.79	1834.98
317.00	1820.64
317.21	1810.40
317.43	1734.63
317.64	1843.17
317.85	1691.62
318.07	1705.96
318.28	1826.79
318.49	1988.58
318.70	2193.37
318.92	2037.73
319.13	2035.68
319.34	2027.49
319.56	1953.76
319.77	2025.44
319.98	1945.57
320.20	1927.14
320.41	1886.18
320.62	1908.71
320.83	1898.47
321.05	1947.62
321.26	1832.93
321.47	1822.69
321.69	1869.80
321.90	1687.53
322.11	1828.84
322.32	1826.79
322.54	1863.65
322.75	1785.83
322.96	1968.10
323.18	1705.96
323.39	1689.57
323.60	1738.73
323.81	1949.67
324.03	1888.23
324.24	1783.78
324.45	1826.79
324.66	1781.73
324.88	1914.85
325.09	1939.43
325.30	1769.44
325.52	1851.36
325.73	1796.07
325.94	1783.78
326.15	1742.82
326.37	1853.41
326.58	1859.56
326.79	1925.09
327.00	1738.73
327.22	1828.84
327.43	1802.21
327.64	1736.68
327.85	1888.23
328.07	1800.16
328.28	1925.09
328.49	1781.73
328.70	1851.36
328.92	1841.12
329.13	1769.44
329.34	1839.08
329.55	1888.23
329.76	1834.98
329.98	1826.79
330.19	1822.69
330.40	1882.08
330.61	1814.50
330.83	1824.74
331.04	1800.16
331.25	1791.97
331.46	1789.92
331.68	1759.21
331.89	1894.37
332.10	1794.02
332.31	1677.29
332.52	1853.41
332.74	1871.84
332.95	1726.44
333.16	1751.01
333.37	1855.46
333.58	1761.25
333.80	1814.50
334.01	1699.81
334.22	1699.81
334.43	1773.54
334.64	1753.06
334.86	1718.25
335.07	1808.36
335.28	1839.08
335.49	1775.59
335.70	1867.75
335.92	1943.52
336.13	1976.29
336.34	1890.28
336.55	1828.84
336.76	1841.12
336.98	1738.73
337.19	1771.49
337.40	1884.13
337.61	1996.77
337.82	1724.39
338.04	1906.66
338.25	1757.16
338.46	1794.02
338.67	1861.60
338.88	1794.02
339.09	1716.20
339.31	1791.97
339.52	1697.77
339.73	1796.07
339.94	1820.64
340.15	1822.69
340.36	1757.16
340.58	1828.84
340.79	1726.44
341.00	1888.23
341.21	1763.30
341.42	1918.95
341.63	1828.84
341.85	1841.12
342.06	1877.99
342.27	1859.56
342.48	1908.71
342.69	1742.82
342.90	1841.12
343.12	1894.37
343.33	1828.84
343.54	1869.80
343.75	1910.75
343.96	1839.08
344.17	1751.01
344.38	1810.40
344.60	1832.93
344.81	1710.05
345.02	1822.69
345.23	1867.75
345.44	1980.39
345.65	1863.65
345.86	1849.32
346.07	1800.16
346.29	1798.12
346.50	1884.13
346.71	1820.64
346.92	1943.52
347.13	1984.48
347.34	1800.16
347.55	1773.54
347.76	1863.65
347.98	1722.34
348.19	1748.97
348.40	1931.23
348.61	1828.84
348.82	1882.08
349.03	1839.08
349.24	1722.34
349.45	1953.76
349.66	1691.62
349.88	1753.06
350.09	1800.16
350.30	1861.60
350.51	1828.84
350.72	1779.68
350.93	1808.36
351.14	1718.25
351.35	1828.84
351.56	1804.26
351.77	1816.55
351.99	1855.46
352.20	1869.80
352.41	1843.17
352.62	1681.38
352.83	1857.51
353.04	1830.88
353.25	1787.88
353.46	1873.89
353.67	1908.71
353.88	1724.39
354.09	1861.60
354.30	1816.55
354.52	1888.23
354.73	1759.21
354.94	1794.02
355.15	1765.35
355.36	1931.23
355.57	1771.49
355.78	1781.73
355.99	1769.44
356.20	1783.78
356.41	1910.75
356.62	1869.80
356.83	1914.85
357.04	1933.28
357.25	1730.53
357.46	1832.93
357.68	1781.73
357.89	1726.44
358.10	1812.45
358.31	1751.01
358.52	1804.26
358.73	1728.49
358.94	1732.58
359.15	1806.31
359.36	1816.55
359.57	1785.83
359.78	1775.59
359.99	1763.30
360.20	1759.21
360.41	1779.68
360.62	1808.36
360.83	1775.59
361.04	1820.64
361.25	1968.10
361.46	1937.38
361.67	1869.80
361.88	1873.89
362.09	1869.80
362.30	1902.56
362.51	1746.92
362.72	1927.14
362.93	1824.74
363.14	1900.52
363.35	1857.51
363.56	1839.08
363.78	1857.51
363.99	1894.37
364.20	1751.01
364.41	1800.16
364.62	1877.99
364.83	1740.77
365.04	1740.77
365.25	1796.07
365.46	1927.14
365.67	1720.29
365.88	1779.68
366.09	1820.64
366.30	1808.36
366.51	1847.27
366.72	1742.82
366.93	1820.64
367.14	1808.36
367.35	1943.52
367.56	1832.93
367.77	1859.56
367.98	1773.54
368.18	1896.42
368.39	1918.95
368.60	1730.53
368.81	1925.09
369.02	1884.13
369.23	1779.68
369.44	1681.38
369.65	1767.40
369.86	1796.07
370.07	1869.80
370.28	1812.45
370.49	1824.74
370.70	1837.03
370.91	1693.67
371.12	1697.77
371.33	1855.46
371.54	1742.82
371.75	1978.34
371.96	1673.19
372.17	1787.88
372.38	1861.60
372.59	1828.84
372.80	1798.12
373.01	1851.36
373.22	1873.89
373.43	1824.74
373.64	1716.20
373.85	1929.19
374.06	1898.47
374.26	1890.28
374.47	1851.36
374.68	1904.61
374.89	1869.80
375.10	1818.60
375.31	1914.85
375.52	1861.60
375.73	1808.36
375.94	1763.30
376.15	1855.46
376.36	1748.97
376.57	1826.79
376.78	1783.78
376.99	1884.13
377.20	1861.60
377.40	1849.32
377.61	1865.70
377.82	1718.25
378.03	1910.75
378.24	1845.22
378.45	1763.30
378.66	1812.45
378.87	1705.96
379.08	1716.20
379.29	1748.97
379.50	1877.99
379.71	1822.69
379.91	1853.41
380.12	1787.88
380.33	1832.93
380.54	1808.36
380.75	1771.49
380.96	1812.45
381.17	1853.41
381.38	1873.89
381.59	1820.64
381.80	1882.08
382.00	1972.19
382.21	1771.49
382.42	1920.99
382.63	1968.10
382.84	1929.19
383.05	1834.98
383.26	1968.10
383.47	1886.18
383.68	1888.23
383.88	1785.83
384.09	1871.84
384.30	1908.71
384.51	1877.99
384.72	1779.68
384.93	1765.35
385.14	1810.40
385.35	1843.17
385.55	1732.58
385.76	1906.66
385.97	1857.51
386.18	1781.73
386.39	1744.87
386.60	1847.27
386.81	1818.60
387.02	1720.29
387.22	1767.40
387.43	1955.81
387.64	1816.55
387.85	1990.63
388.06	2172.89
388.27	4270.01
388.48	8673.15
388.68	11683.66
388.89	13844.27
389.10	14851.87
389.31	13008.70
389.52	10139.49
389.73	9179.00
389.93	8193.92
390.14	7636.88
390.35	6832.02
390.56	6246.30
390.77	5058.48
390.98	3987.40
391.18	3074.00
391.39	2496.47
391.60	2035.68
391.81	2056.16
392.02	1812.45
392.23	2011.11
392.43	1886.18
392.64	1931.23
392.85	1873.89
393.06	1947.62
393.27	1796.07
393.47	1755.11
393.68	1804.26
393.89	1861.60
394.10	1945.57
394.31	1765.35
394.52	1724.39
394.72	1863.65
394.93	1939.43
395.14	1863.65
395.35	1816.55
395.56	1791.97
395.76	1888.23
395.97	1943.52
396.18	2002.91
396.39	2035.68
396.60	2230.24
396.80	2095.07
397.01	2021.35
397.22	1970.15
397.43	2023.39
397.64	1855.46
397.84	1949.67
398.05	2007.01
398.26	1814.50
398.47	1918.95
398.67	1902.56
398.88	1791.97
399.09	1837.03
399.30	1867.75
399.51	1845.22
399.71	1748.97
399.92	1773.54
400.13	1806.31
400.34	1812.45
400.54	1808.36
400.75	1943.52
400.96	1904.61
401.17	1927.14
401.37	1884.13
401.58	1798.12
401.79	1847.27
402.00	1972.19
402.21	2109.41
402.41	2164.70
402.62	2193.37
402.83	2314.20
403.04	2275.29
403.24	2209.76
403.45	2035.68
403.66	2076.64
403.87	1988.58
404.07	2095.07
404.28	2045.92
404.49	1968.10
404.70	1986.53
404.90	1945.57
405.11	1832.93
405.32	1896.42
405.52	1816.55
405.73	1755.11
405.94	1806.31
406.15	1816.55
406.35	1834.98
406.56	1869.80
406.77	1845.22
406.98	1867.75
407.18	1775.59
407.39	1890.28
407.60	1822.69
407.80	1814.50
408.01	1812.45
408.22	1931.23
408.43	1708.01
408.63	1896.42
408.84	1847.27
409.05	1869.80
409.25	1812.45
409.46	1734.63
409.67	1785.83
409.88	1730.53
410.08	1828.84
410.29	1724.39
410.50	1857.51
410.70	1884.13
410.91	1830.88
411.12	1738.73
411.32	1796.07
411.53	1763.30
411.74	2009.06
411.95	1918.95
412.15	1929.19
412.36	1886.18
412.57	1902.56
412.77	1951.71
412.98	1884.13
413.19	1767.40
413.39	1906.66
413.60	1900.52
413.81	1810.40
414.01	1830.88
414.22	1861.60
414.43	1898.47
414.63	1877.99
414.84	1886.18
415.05	1923.04
415.25	1693.67
415.46	1738.73
415.67	1843.17
415.87	1892.32
416.08	1832.93
416.29	1794.02
416.49	1832.93
416.70	1798.12
416.91	1742.82
417.11	1867.75
417.32	1812.45
417.53	1912.80
417.73	1810.40
417.94	1798.12
418.15	1824.74
418.35	1824.74
418.56	1810.40
418.77	1957.86
418.97	1841.12
419.18	1794.02
419.38	1718.25
419.59	1845.22
419.80	1988.58
420.00	1880.04
420.21	1796.07
420.42	1908.71
420.62	1888.23
420.83	1726.44
421.04	1822.69
421.24	1806.31
421.45	1906.66
421.65	1867.75
421.86	1841.12
422.07	1834.98
422.27	1918.95
422.48	1845.22
422.69	1732.58
422.89	1839.08
423.10	1775.59
423.30	1714.15
423.51	1779.68
423.72	1918.95
423.92	1849.32
424.13	1837.03
424.33	1841.12
424.54	1824.74
424.75	1742.82
424.95	1900.52
425.16	1820.64
425.36	1820.64
425.57	1886.18
425.78	1863.65
425.98	1791.97
426.19	1777.64
426.39	1773.54
426.60	1847.27
426.81	1832.93
427.01	1898.47
427.22	1804.26
427.42	1755.11
427.63	1771.49
427.83	1828.84
428.04	2021.35
428.25	1937.38
428.45	1841.12
428.66	1927.14
428.86	1789.92
429.07	1820.64
429.28	1851.36
429.48	1877.99
429.69	1763.30
429.89	1824.74
430.10	1738.73
430.30	1851.36
430.51	1906.66
430.71	1779.68
430.92	1814.50
431.13	1832.93
431.33	1814.50
431.54	1861.60
431.74	1906.66
431.95	1998.82
432.15	1705.96
432.36	1783.78
432.56	1808.36
432.77	1966.05
432.98	1869.80
433.18	1873.89
433.39	1832.93
433.59	1783.78
433.80	1974.24
434.00	2017.25
434.21	1744.87
434.41	1771.49
434.62	1990.63
434.82	1757.16
435.03	1810.40
435.23	1880.04
435.44	1730.53
435.64	1822.69
435.85	1832.93
436.06	1824.74
436.26	1869.80
436.47	1820.64
436.67	1773.54
436.88	1769.44
437.08	1888.23
437.29	1898.47
437.49	1791.97
437.70	1896.42
437.90	1843.17
438.11	1918.95
438.31	1957.86
438.52	2017.25
438.72	2007.01
438.93	2101.22
439.13	1900.52
439.34	1943.52
439.54	1853.41
439.75	1869.80
439.95	1865.70
440.16	1746.92
440.36	1916.90
440.57	1816.55
440.77	1892.32
440.98	1812.45
441.18	1871.84
441.39	1802.21
441.59	1781.73
441.80	1990.63
442.00	1849.32
442.21	2004.96
442.41	1771.49
442.62	1855.46
442.82	1759.21
443.02	1824.74
443.23	1822.69
443.43	1806.31
443.64	1898.47
443.84	1781.73
444.05	1896.42
444.25	1845.22
444.46	1853.41
444.66	1832.93
444.87	1939.43
445.07	1789.92
445.28	1828.84
445.48	1873.89
445.69	1900.52
445.89	2031.58
446.09	1779.68
446.30	2115.55
446.50	2594.78
446.71	4057.03
446.91	5156.79
447.12	5816.23
447.32	6141.86
447.53	5613.48
447.73	4632.51
447.93	4128.70
448.14	3796.93
448.34	3602.38
448.55	3303.37
448.75	3264.46
448.96	3053.52
449.16	2719.70
449.36	2572.25
449.57	2185.18
449.77	2070.50
449.98	1908.71
450.18	2037.73
450.39	1927.14
450.59	1929.19
450.79	1800.16
451.00	1916.90
451.20	1908.71
451.41	1875.94
451.61	1857.51
451.81	1867.75
452.02	1781.73
452.22	1882.08
452.43	1818.60
452.63	1785.83
452.84	1791.97
453.04	1787.88
453.24	1796.07
453.45	1841.12
453.65	1763.30
453.86	1806.31
454.06	1865.70
454.26	1910.75
454.47	1810.40
454.67	1974.24
454.87	1849.32
455.08	1845.22
455.28	1916.90
455.49	1814.50
455.69	1800.16
455.89	1972.19
456.10	2007.01
456.30	1765.35
456.51	1841.12
456.71	1789.92
456.91	1886.18
457.12	1818.60
457.32	1894.37
457.52	1822.69
457.73	1871.84
457.93	1892.32
458.14	1816.55
458.34	1757.16
458.54	1785.83
458.75	1759.21
458.95	1908.71
459.15	1806.31
459.36	1914.85
459.56	1918.95
459.76	2023.39
459.97	1849.32
460.17	1837.03
460.37	1886.18
460.58	1810.40
460.78	1941.47
460.99	1820.64
461.19	1877.99
461.39	1855.46
461.60	1853.41
461.80	1851.36
462.00	1751.01
462.21	1890.28
462.41	1777.64
462.61	1843.17
462.82	1800.16
463.02	1822.69
463.22	1828.84
463.43	1912.80
463.63	1796.07
463.83	1871.84
464.04	1837.03
464.24	1847.27
464.44	1787.88
464.64	1800.16
464.85	1855.46
465.05	1837.03
465.25	1816.55
465.46	1802.21
465.66	1871.84
465.86	1849.32
466.07	1880.04
466.27	1837.03
466.47	1703.91
466.68	1742.82
466.88	1982.43
467.08	1865.70
467.29	1863.65
467.49	1888.23
467.69	1834.98
467.89	1867.75
468.10	1816.55
468.30	1861.60
468.50	1900.52
468.71	1804.26
468.91	1779.68
469.11	1957.86
469.31	1912.80
469.52	1832.93
469.72	1865.70
469.92	2031.58
470.13	1814.50
470.33	1863.65
470.53	1947.62
470.73	2306.01
470.94	2680.79
471.14	2820.05
471.34	3194.83
471.54	3129.30
471.75	2631.64
471.95	2494.43
472.15	2353.12
472.36	2297.82
472.56	2381.79
472.76	2373.60
472.96	2238.43
473.17	2195.42
473.37	2090.98
473.57	1959.91
473.77	1927.14
473.98	1908.71
474.18	1841.12
474.38	2033.63
474.58	1832.93
474.79	1800.16
474.99	1841.12
475.19	1832.93
475.39	1851.36
475.60	1808.36
475.80	1822.69
476.00	1841.12
476.20	1781.73
476.41	1847.27
476.61	1947.62
476.81	1869.80
477.01	1853.41
477.21	1959.91
477.42	1931.23
477.62	1777.64
477.82	1908.71
478.02	1834.98
478.23	1902.56
478.43	1718.25
478.63	1894.37
478.83	1832.93
479.03	1837.03
479.24	1939.43
479.44	1961.95
479.64	1757.16
479.84	1714.15
480.04	1826.79
480.25	1898.47
480.45	1837.03
480.65	1873.89
480.85	1888.23
481.06	1767.40
481.26	1871.84
481.46	1794.02
481.66	1808.36
481.86	1802.21
482.06	1925.09
482.27	1798.12
482.47	1824.74
482.67	1849.32
482.87	1769.44
483.07	1886.18
483.28	1796.07
483.48	1800.16
483.68	1791.97
483.88	1685.48
484.08	1730.53
484.29	1691.62
484.49	1910.75
484.69	1726.44
484.89	1931.23
485.09	1865.70
485.29	1853.41
485.50	1751.01
485.70	1800.16
485.90	1845.22
486.10	1859.56
486.30	1908.71
486.50	1914.85
486.71	1845.22
486.91	1851.36
487.11	1961.95
487.31	1748.97
487.51	1851.36
487.71	1724.39
487.91	1816.55
488.12	1822.69
488.32	1665.00
488.52	1849.32
488.72	1738.73
488.92	1771.49
489.12	1886.18
489.32	1998.82
489.53	1904.61
489.73	1716.20
489.93	1904.61
490.13	1808.36
490.33	1877.99
490.53	1869.80
490.73	1890.28
490.94	1767.40
491.14	1882.08
491.34	1920.99
491.54	2201.57
491.74	2748.37
491.94	3313.61
492.14	3626.95
492.34	3690.44
492.54	3342.28
492.75	2762.71
492.95	2811.86
493.15	2527.19
493.35	2529.24
493.55	2357.21
493.75	2377.69
493.95	2320.35
494.15	2176.99
494.35	2052.06
494.56	1994.72
494.76	1822.69
494.96	1955.81
495.16	1959.91
495.36	1855.46
495.56	1834.98
495.76	1861.60
495.96	1812.45
496.16	1824.74
496.36	1925.09
496.56	1818.60
496.77	1855.46
496.97	1837.03
497.17	1888.23
497.37	1769.44
497.57	1902.56
497.77	1837.03
497.97	1720.29
498.17	1910.75
498.37	1851.36
498.57	1822.69
498.77	1882.08
498.97	1888.23
499.17	1892.32
499.38	1834.98
499.58	1892.32
499.78	1869.80
499.98	1894.37
500.18	1839.08
500.38	1785.83
500.58	2017.25
500.78	2519.00
500.98	4542.39
501.18	6725.53
501.38	8320.90
501.58	9369.46
501.78	9107.32
501.98	7210.90
502.18	5969.83
502.38	5117.87
502.58	4786.10
502.78	4239.30
502.98	4126.66
503.18	3954.63
503.38	3567.56
503.59	3117.01
503.79	3051.47
503.99	2650.07
504.19	2418.65
504.39	2453.47
504.59	2465.75
504.79	2420.70
504.99	2314.20
505.19	2148.32
505.39	2133.98
505.59	2211.81
505.79	2125.79
505.99	1996.77
506.19	1933.28
506.39	2031.58
506.59	1898.47
506.79	1918.95
506.99	1959.91
507.19	1859.56
507.39	1832.93
507.59	1728.49
507.79	1800.16
507.99	1767.40
508.19	1841.12
508.39	1787.88
508.59	1894.37
508.79	1935.33
508.99	2019.30
509.19	1773.54
509.39	1908.71
509.59	1849.32
509.79	1818.60
509.99	1855.46
510.19	1812.45
510.39	1943.52
510.59	1849.32
510.79	1832.93
510.99	1718.25
511.19	1841.12
511.39	1988.58
511.59	1845.22
511.79	1853.41
511.99	1859.56
512.19	2021.35
512.38	1826.79
512.58	1794.02
512.78	1892.32
512.98	1947.62
513.18	1843.17
513.38	1781.73
513.58	1841.12
513.78	1775.59
513.98	1851.36
514.18	1871.84
514.38	1832.93
514.58	1920.99
514.78	1816.55
514.98	1810.40
515.18	1880.04
515.38	1794.02
515.58	1996.77
515.78	1779.68
515.98	1824.74
516.18	1886.18
516.38	1943.52
516.57	1824.74
516.77	1804.26
516.97	1859.56
517.17	1773.54
517.37	1779.68
517.57	1824.74
517.77	1736.68
517.97	1746.92
518.17	1935.33
518.37	1789.92
518.57	1804.26
518.77	1861.60
518.97	1759.21
519.16	1882.08
519.36	1908.71
519.56	1763.30
519.76	1882.08
519.96	1828.84
520.16	1916.90
520.36	1789.92
520.56	1910.75
520.76	1810.40
520.96	1818.60
521.16	1896.42
521.35	1873.89
521.55	1904.61
521.75	1861.60
521.95	1779.68
522.15	1882.08
522.35	1771.49
522.55	1822.69
522.75	1933.28
522.95	1832.93
523.14	1767.40
523.34	1937.38
523.54	1785.83
523.74	1910.75
523.94	1826.79
524.14	1724.39
524.34	1859.56
524.54	1894.37
524.73	1785.83
524.93	1853.41
525.13	1892.32
525.33	1701.86
525.53	1920.99
525.73	1908.71
525.93	1873.89
526.13	1828.84
526.32	1820.64
526.52	1871.84
526.72	1861.60
526.92	1771.49
527.12	1849.32
527.32	1761.25
527.52	1863.65
527.71	1937.38
527.91	1834.98
528.11	1820.64
528.31	1871.84
528.51	1761.25
528.71	1865.70
528.90	1785.83
529.10	1853.41
529.30	1939.43
529.50	1689.57
529.70	1875.94
529.90	1775.59
530.09	1767.40
530.29	1845.22
530.49	1769.44
530.69	1947.62
530.89	1777.64
531.09	1871.84
531.28	1806.31
531.48	1935.33
531.68	1810.40
531.88	1920.99
532.08	1865.70
532.28	1935.33
532.47	1914.85
532.67	1902.56
532.87	1912.80
533.07	1822.69
533.27	1892.32
533.46	1914.85
533.66	1875.94
533.86	1839.08
534.06	1826.79
534.26	1861.60
534.45	1845.22
534.65	1939.43
534.85	1830.88
535.05	1841.12
535.25	1931.23
535.44	1730.53
535.64	1832.93
535.84	1787.88
536.04	1867.75
536.24	1796.07
536.43	1779.68
536.63	1847.27
536.83	1755.11
537.03	1826.79
537.22	1740.77
537.42	1759.21
537.62	1806.31
537.82	1796.07
538.02	1949.67
538.21	1886.18
538.41	2045.92
538.61	1914.85
538.81	1787.88
539.00	1886.18
539.20	1746.92
539.40	1865.70
539.60	1877.99
539.79	1900.52
539.99	1742.82
540.19	1697.77
540.39	1810.40
540.58	1896.42
540.78	1886.18
540.98	1875.94
541.18	1898.47
541.37	1886.18
541.57	1832.93
541.77	1828.84
541.97	1804.26
542.16	1728.49
542.36	1796.07
542.56	1906.66
542.76	1974.24
542.95	1898.47
543.15	1937.38
543.35	1871.84
543.54	1810.40
543.74	1828.84
543.94	1972.19
544.14	1746.92
544.33	1894.37
544.53	1855.46
544.73	1783.78
544.93	1808.36
545.12	1781.73
545.32	1843.17
545.52	1767.40
545.71	1765.35
545.91	1890.28
546.11	1818.60
546.30	1808.36
546.50	1841.12
546.70	1894.37
546.90	1857.51
547.09	1734.63
547.29	1824.74
547.49	1888.23
547.68	1806.31
547.88	1802.21
548.08	1828.84
548.27	2314.20
548.47	1763.30
548.67	1763.30
548.87	1837.03
549.06	1857.51
549.26	1794.02
549.46	1871.84
549.65	1822.69
549.85	1830.88
550.05	1845.22
550.24	1710.05
550.44	1867.75
550.64	1843.17
550.83	1824.74
551.03	1892.32
551.23	1943.52
551.42	1832.93
551.62	1851.36
551.82	1767.40
552.01	1828.84
552.21	1906.66
552.41	1839.08
552.60	2004.96
552.80	1886.18
553.00	1800.16
553.19	1816.55
553.39	1949.67
553.59	1787.88
553.78	1947.62
553.98	1894.37
554.17	1781.73
554.37	1814.50
554.57	1822.69
554.76	1800.16
554.96	1810.40
555.16	1877.99
555.35	1875.94
555.55	1916.90
555.75	1841.12
555.94	1894.37
556.14	1767.40
556.33	1877.99
556.53	1847.27
556.73	1800.16
556.92	1894.37
557.12	1947.62
557.32	1880.04
557.51	1966.05
557.71	1808.36
557.90	1863.65
558.10	1947.62
558.30	1734.63
558.49	1804.26
558.69	1820.64
558.88	1882.08
559.08	1832.93
559.28	1789.92
559.47	1824.74
559.67	1869.80
559.86	1886.18
560.06	1824.74
560.26	1755.11
560.45	1853.41
560.65	1816.55
560.84	1859.56
561.04	1804.26
561.24	1845.22
561.43	1746.92
561.63	1923.04
561.82	1935.33
562.02	1855.46
562.22	1783.78
562.41	1810.40
562.61	1730.53
562.80	1802.21
563.00	1980.39
563.19	1882.08
563.39	1812.45
563.59	1896.42
563.78	1820.64
563.98	1736.68
564.17	1798.12
564.37	1785.83
564.56	1796.07
564.76	1794.02
564.96	1923.04
565.15	1892.32
565.35	2019.30
565.54	1796.07
565.74	1861.60
565.93	1857.51
566.13	1818.60
566.32	1814.50
566.52	1849.32
566.71	1818.60
566.91	1898.47
567.11	1875.94
567.30	1755.11
567.50	1888.23
567.69	1849.32
567.89	1855.46
568.08	1812.45
568.28	1894.37
568.47	1777.64
568.67	1837.03
568.86	1798.12
569.06	1837.03
569.25	1826.79
569.45	1796.07
569.64	1787.88
569.84	1832.93
570.04	1857.51
570.23	1732.58
570.43	1859.56
570.62	1777.64
570.82	1947.62
571.01	1767.40
571.21	1877.99
571.40	1783.78
571.60	1978.34
571.79	1867.75
571.99	1863.65
572.18	1814.50
572.38	1853.41
572.57	1855.46
572.77	1900.52
572.96	1998.82
573.16	1837.03
573.35	1789.92
573.55	1910.75
573.74	1822.69
573.94	1896.42
574.13	1865.70
574.33	1896.42
574.52	1945.57
574.71	1904.61
574.91	1882.08
575.10	1701.86
575.30	1851.36
575.49	1791.97
575.69	1787.88
575.88	1923.04
576.08	1902.56
576.27	1986.53
576.47	1906.66
576.66	1992.67
576.86	2015.20
577.05	1949.67
577.25	1945.57
577.44	2029.54
577.64	1791.97
577.83	1970.15
578.02	1814.50
578.22	1992.67
578.41	1972.19
578.61	1857.51
578.80	1738.73
579.00	1791.97
579.19	1880.04
579.39	1937.38
579.58	1931.23
579.77	1812.45
579.97	1959.91
580.16	1980.39
580.36	1867.75
580.55	2060.26
580.75	1798.12
580.94	1990.63
581.13	1978.34
581.33	1976.29
581.52	1880.04
581.72	2101.22
581.91	1996.77
582.11	1845.22
582.30	1877.99
582.49	1916.90
582.69	2027.49
582.88	1896.42
583.08	1925.09
583.27	1933.28
583.47	1859.56
583.66	1783.78
583.85	1746.92
584.05	1851.36
584.24	1927.14
584.44	1890.28
584.63	1943.52
584.82	2027.49
585.02	2099.17
585.21	1976.29
585.41	2039.78
585.60	1970.15
585.79	2035.68
585.99	2011.11
586.18	2099.17
586.37	2420.70
586.57	3590.09
586.76	10491.74
586.96	28501.58
587.15	42839.41
587.34	52706.52
587.54	58801.28
587.73	56102.06
587.93	39994.78
588.12	29851.19
588.31	23754.39
588.51	20498.12
588.70	18769.63
588.89	17180.41
589.09	15294.23
589.28	13227.83
589.47	11222.87
589.67	9076.60
589.86	7016.34
590.06	5162.93
590.25	3844.04
590.44	3203.02
590.64	2666.46
590.83	2355.16
591.02	2222.05
591.22	2025.44
591.41	2050.02
591.60	1984.48
591.80	2113.50
591.99	1877.99
592.18	1941.47
592.38	1892.32
592.57	1882.08
592.76	1939.43
592.96	1984.48
593.15	1851.36
593.34	1914.85
593.54	1964.00
593.73	1920.99
593.92	1927.14
594.12	1955.81
594.31	1943.52
594.50	1994.72
594.70	1996.77
594.89	2070.50
595.08	1910.75
595.28	1970.15
595.47	2066.40
595.66	1892.32
595.86	1800.16
596.05	1892.32
596.24	1837.03
596.43	2047.97
596.63	1937.38
596.82	1910.75
597.01	1937.38
597.21	1988.58
597.40	1988.58
597.59	1877.99
597.79	1871.84
597.98	1890.28
598.17	1943.52
598.36	1843.17
598.56	1845.22
598.75	1812.45
598.94	1851.36
599.14	1822.69
599.33	1828.84
599.52	1894.37
599.71	1857.51
599.91	1898.47
600.10	1763.30
600.29	1826.79
600.48	1933.28
600.68	1841.12
600.87	1818.60
601.06	1820.64
601.26	1886.18
601.45	1900.52
601.64	1875.94
601.83	1902.56
602.03	1826.79
602.22	1781.73
602.41	1886.18
602.60	1994.72
602.80	1966.05
602.99	1796.07
603.18	1843.17
603.37	1857.51
603.57	1882.08
603.76	1927.14
603.95	1880.04
604.14	1867.75
604.34	1816.55
604.53	1900.52
604.72	1832.93
604.91	1841.12
605.10	1884.13
605.30	1783.78
605.49	1984.48
605.68	1890.28
605.87	1890.28
606.07	1767.40
606.26	1767.40
606.45	1824.74
606.64	1906.66
606.84	1753.06
607.03	1861.60
607.22	1966.05
607.41	1875.94
607.60	1828.84
607.80	1929.19
607.99	1875.94
608.18	1880.04
608.37	1845.22
608.56	1830.88
608.76	1916.90
608.95	1955.81
609.14	1925.09
609.33	1964.00
609.52	2027.49
609.72	1982.43
609.91	2013.15
610.10	1863.65
610.29	1886.18
610.48	1943.52
610.68	1910.75
610.87	1890.28
611.06	1791.97
611.25	1863.65
611.44	1886.18
611.63	1865.70
611.83	1902.56
612.02	1763.30
612.21	1976.29
612.40	1718.25
612.59	1767.40
612.79	1767.40
612.98	1841.12
613.17	1949.67
613.36	1882.08
613.55	2035.68
613.74	1875.94
613.93	2015.20
614.13	2031.58
614.32	2095.07
614.51	2160.61
614.70	2013.15
614.89	1826.79
615.08	1923.04
615.28	2328.54
615.47	1839.08
615.66	1980.39
615.85	1867.75
616.04	2033.63
616.23	1959.91
616.42	1859.56
616.62	1853.41
616.81	1828.84
617.00	1853.41
617.19	1880.04
617.38	1796.07
617.57	1816.55
617.76	1910.75
617.95	1857.51
618.15	1900.52
618.34	1955.81
618.53	1734.63
618.72	1986.53
618.91	1968.10
619.10	1904.61
619.29	1826.79
619.48	1875.94
619.68	1822.69
619.87	1884.13
620.06	1806.31
620.25	1867.75
620.44	1824.74
620.63	1773.54
620.82	1867.75
621.01	1771.49
621.20	1890.28
621.39	1877.99
621.59	1902.56
621.78	1873.89
621.97	1828.84
622.16	1791.97
622.35	1789.92
622.54	1855.46
622.73	1972.19
622.92	1789.92
623.11	1898.47
623.30	1869.80
623.49	1857.51
623.68	1837.03
623.88	1867.75
624.07	1810.40
624.26	1773.54
624.45	1929.19
624.64	1773.54
624.83	1841.12
625.02	1744.87
625.21	1861.60
625.40	1875.94
625.59	1964.00
625.78	1822.69
625.97	1957.86
626.16	1894.37
626.35	1943.52
626.54	1888.23
626.74	1972.19
626.93	1832.93
627.12	1853.41
627.31	1929.19
627.50	1908.71
627.69	1873.89
627.88	1755.11
628.07	1775.59
628.26	1736.68
628.45	1800.16
628.64	1839.08
628.83	1884.13
629.02	1724.39
629.21	1822.69
629.40	1863.65
629.59	1816.55
629.78	1820.64
629.97	1855.46
630.16	1902.56
630.35	1814.50
630.54	1841.12
630.73	1757.16
630.92	1931.23
631.11	1808.36
631.30	1839.08
631.49	1884.13
631.68	1802.21
631.87	1886.18
632.06	1779.68
632.25	2050.02
632.44	1869.80
632.63	1830.88
632.82	1820.64
633.01	1857.51
633.20	1927.14
633.39	1949.67
633.58	1814.50
633.77	1906.66
633.96	1925.09
634.15	1904.61
634.34	1884.13
634.53	1912.80
634.72	1791.97
634.91	1777.64
635.10	1886.18
635.29	1855.46
635.48	1861.60
635.67	1800.16
635.86	1822.69
636.05	1951.71
636.24	1843.17
636.43	1871.84
636.62	1888.23
636.81	1742.82
637.00	1810.40
637.19	1855.46
637.38	1888.23
637.57	1808.36
637.76	1886.18
637.95	2072.54
638.14	1953.76
638.33	1959.91
638.52	1935.33
638.71	1869.80
638.89	1847.27
639.08	2039.78
639.27	1947.62
639.46	2029.54
639.65	2336.73
639.84	2412.51
640.03	2596.82
640.22	2590.68
640.41	2539.48
640.60	2230.24
640.79	2074.59
640.98	2074.59
641.17	2109.41
641.36	2015.20
641.55	1992.67
641.74	1986.53
641.92	1853.41
642.11	1945.57
642.30	1871.84
642.49	1853.41
642.68	1755.11
642.87	1851.36
643.06	1865.70
643.25	1751.01
643.44	1732.58
643.63	1820.64
643.82	1853.41
644.00	1820.64
644.19	1804.26
644.38	1787.88
644.57	1845.22
644.76	1806.31
644.95	1808.36
645.14	1839.08
645.33	1816.55
645.52	1832.93
645.71	1763.30
645.89	1796.07
646.08	1816.55
646.27	1841.12
646.46	1982.43
646.65	1710.05
646.84	1896.42
647.03	1712.10
647.22	1902.56
647.40	1826.79
647.59	1851.36
647.78	1714.15
647.97	1781.73
648.16	1773.54
648.35	1959.91
648.54	1882.08
648.73	1800.16
648.91	1910.75
649.10	1843.17
649.29	1748.97
649.48	1812.45
649.67	1798.12
649.86	1791.97
650.05	1923.04
650.23	1998.82
650.42	1904.61
650.61	2058.21
650.80	1998.82
650.99	2115.55
651.18	2015.20
651.36	1998.82
651.55	1890.28
651.74	1972.19
651.93	1867.75
652.12	1843.17
652.31	1802.21
652.49	1916.90
652.68	1818.60
652.87	1945.57
653.06	1806.31
653.25	1994.72
653.44	1787.88
653.62	1980.39
653.81	1855.46
654.00	1822.69
654.19	1914.85
654.38	2041.82
654.56	1867.75
654.75	1806.31
654.94	1890.28
655.13	1892.32
655.32	1863.65
655.51	1853.41
655.69	1810.40
655.88	1904.61
656.07	1767.40
656.26	1847.27
656.45	1787.88
656.63	1820.64
656.82	1869.80
657.01	1927.14
657.20	1775.59
657.38	1822.69
657.57	1828.84
657.76	1826.79
657.95	1859.56
658.14	1748.97
658.32	1837.03
658.51	1703.91
658.70	1863.65
658.89	1877.99
659.08	1845.22
659.26	1974.24
659.45	1892.32
659.64	1892.32
659.83	1875.94
660.01	2113.50
660.20	1871.84
660.39	1947.62
660.58	1730.53
660.76	1857.51
660.95	1791.97
661.14	1839.08
661.33	1714.15
661.51	1832.93
661.70	1789.92
661.89	1869.80
662.08	1826.79
662.26	1796.07
662.45	1779.68
662.64	1943.52
662.83	1890.28
663.01	1783.78
663.20	1759.21
663.39	1884.13
663.58	1851.36
663.76	1859.56
663.95	1931.23
664.14	1789.92
664.32	1759.21
664.51	1773.54
664.70	1679.33
664.89	1828.84
665.07	1744.87
665.26	1863.65
665.45	1767.40
665.64	1865.70
665.82	1759.21
666.01	1947.62
666.20	1826.79
666.38	1937.38
666.57	1982.43
666.76	2488.28
666.95	5545.90
667.13	13141.82
667.32	19994.32
667.51	23436.95
667.69	26031.73
667.88	25271.93
668.07	19015.39
668.25	14311.21
668.44	11732.81
668.63	9903.98
668.81	8544.13
669.00	7800.71
669.19	6918.04
669.38	6121.38
669.56	5273.52
669.75	4499.39
669.94	3715.02
670.12	3071.95
670.31	2688.98
670.50	2465.75
670.68	2125.79
670.87	2107.36
671.06	1972.19
671.24	1898.47
671.43	2103.26
671.62	1972.19
671.80	1943.52
671.99	1959.91
672.18	1886.18
672.36	1884.13
672.55	1865.70
672.74	1857.51
672.92	1796.07
673.11	1853.41
673.29	1779.68
673.48	1880.04
673.67	1777.64
673.85	1888.23
674.04	1779.68
674.23	1953.76
674.41	1978.34
674.60	1744.87
674.79	1689.57
674.97	1771.49
675.16	1834.98
675.34	1849.32
675.53	1751.01
675.72	1834.98
675.90	1961.95
676.09	1787.88
676.28	1824.74
676.46	1734.63
676.65	1837.03
676.83	1894.37
677.02	1859.56
677.21	1781.73
677.39	1839.08
677.58	1845.22
677.77	1779.68
677.95	1744.87
678.14	1798.12
678.32	1796.07
678.51	1767.40
678.70	2013.15
678.88	1773.54
679.07	1880.04
679.25	1814.50
679.44	1746.92
679.63	1804.26
679.81	1779.68
680.00	1839.08
680.18	1894.37
680.37	1990.63
680.55	1802.21
680.74	1726.44
680.93	1695.72
681.11	1785.83
681.30	1853.41
681.48	1880.04
681.67	1812.45
681.85	1775.59
682.04	1800.16
682.23	1900.52
682.41	1869.80
682.60	1796.07
682.78	1820.64
682.97	1759.21
683.15	1863.65
683.34	1890.28
683.53	1888.23
683.71	1714.15
683.90	1914.85
684.08	1849.32
684.27	1785.83
684.45	1837.03
684.64	1869.80
684.82	1705.96
685.01	1816.55
685.19	1853.41
685.38	1853.41
685.57	1796.07
685.75	1757.16
685.94	1796.07
686.12	1705.96
686.31	1804.26
686.49	1871.84
686.68	1757.16
686.86	1869.80
687.05	1826.79
687.23	1992.67
687.42	1757.16
687.60	1796.07
687.79	1779.68
687.97	1871.84
688.16	1861.60
688.34	1853.41
688.53	1732.58
688.71	1886.18
688.90	1929.19
689.08	1769.44
689.27	1771.49
689.45	1791.97
689.64	1800.16
689.82	1787.88
690.01	1841.12
690.19	1898.47
690.38	1875.94
690.56	1781.73
690.75	1748.97
690.93	1767.40
691.12	1779.68
691.30	1798.12
691.49	1798.12
691.67	1861.60
691.86	1968.10
692.04	1796.07
692.23	1787.88
692.41	1863.65
692.60	2050.02
692.78	1982.43
692.97	1880.04
693.15	1882.08
693.34	1976.29
693.52	1984.48
693.71	1834.98
693.89	1853.41
694.08	1718.25
694.26	1865.70
694.44	1837.03
694.63	1837.03
694.81	1742.82
695.00	1722.34
695.18	1896.42
695.37	1949.67
695.55	1751.01
695.74	1761.25
695.92	1800.16
696.10	1810.40
696.29	1767.40
696.47	1804.26
696.66	1767.40
696.84	1787.88
697.03	1791.97
697.21	2045.92
697.40	2455.51
697.58	1892.32
697.76	1757.16
697.95	1761.25
698.13	1757.16
698.32	1742.82
698.50	1841.12
698.68	1908.71
698.87	1873.89
699.05	1857.51
699.24	1920.99
699.42	1714.15
699.61	1738.73
699.79	1812.45
699.97	1785.83
700.16	1660.90
700.34	1767.40
700.53	1818.60
700.71	1875.94
700.89	1902.56
701.08	1740.77
701.26	1880.04
701.45	2258.91
701.63	1765.35
701.81	1861.60
702.00	1810.40
702.18	1818.60
702.37	1865.70
702.55	2066.40
702.73	1953.76
702.92	2009.06
703.10	2207.71
703.28	2088.93
703.47	1980.39
703.65	2023.39
703.84	1974.24
704.02	1910.75
704.20	2033.63
704.39	1855.46
704.57	1912.80
704.75	1886.18
704.94	1877.99
705.12	1910.75
705.30	2011.11
705.49	2992.08
705.67	7124.88
705.86	15738.64
706.04	21059.26
706.22	24850.05
706.41	26773.10
706.59	25144.96
706.77	18681.57
706.96	14106.41
707.14	12379.97
707.32	10524.51
707.51	9228.15
707.69	7925.64
707.87	6694.81
708.06	5341.10
708.24	4249.54
708.42	3254.22
708.61	2809.81
708.79	2279.39
708.97	2146.27
709.16	2039.78
709.34	1949.67
709.52	1789.92
709.71	1904.61
709.89	1904.61
710.07	1849.32
710.26	1837.03
710.44	1861.60
710.62	1910.75
710.80	1857.51
710.99	1882.08
711.17	1871.84
711.35	1796.07
711.54	1718.25
711.72	1892.32
711.90	1806.31
712.09	1910.75
712.27	1757.16
712.45	1877.99
712.63	1730.53
712.82	1824.74
713.00	1890.28
713.18	1898.47
713.37	1935.33
713.55	1857.51
713.73	1849.32
713.91	1849.32
714.10	1804.26
714.28	1851.36
714.46	1845.22
714.65	1884.13
714.83	1798.12
715.01	1791.97
715.19	1804.26
715.38	1771.49
715.56	1861.60
715.74	1746.92
715.92	1744.87
716.11	1847.27
716.29	1800.16
716.47	1755.11
716.65	1806.31
716.84	1781.73
717.02	1927.14
717.20	1724.39
717.38	1806.31
717.57	1855.46
717.75	1791.97
717.93	1820.64
718.11	1859.56
718.30	1802.21
718.48	1839.08
718.66	1865.70
718.84	1787.88
719.03	1841.12
719.21	1820.64
719.39	1925.09
719.57	1806.31
719.75	1873.89
719.94	1769.44
720.12	1759.21
720.30	1884.13
720.48	1941.47
720.67	1800.16
720.85	1826.79
721.03	1826.79
721.21	1738.73
721.39	1904.61
721.58	1894.37
721.76	1765.35
721.94	1814.50
722.12	1841.12
722.30	1953.76
722.49	1789.92
722.67	1867.75
722.85	1910.75
723.03	1695.72
723.21	1781.73
723.40	1886.18
723.58	1929.19
723.76	1822.69
723.94	1949.67
724.12	1892.32
724.30	2025.44
724.49	1935.33
724.67	1777.64
724.85	1929.19
725.03	1796.07
725.21	1832.93
725.40	1888.23
725.58	1877.99
725.76	1869.80
725.94	1871.84
726.12	1767.40
726.30	1785.83
726.49	1888.23
726.67	1869.80
726.85	1837.03
727.03	1998.82
727.21	2699.22
727.39	4065.22
727.57	5527.47
727.76	6240.16
727.94	6678.43
728.12	6576.03
728.30	5777.32
728.48	4542.39
728.66	4136.90
728.84	3690.44
729.03	3262.41
729.21	2899.92
729.39	2549.72
729.57	2293.72
729.75	2050.02
729.93	1998.82
730.11	1906.66
730.30	1865.70
730.48	1847.27
730.66	1916.90
730.84	1873.89
731.02	1822.69
731.20	1837.03
731.38	1808.36
731.56	1783.78
731.74	1837.03
731.93	1794.02
732.11	1773.54
732.29	1740.77
732.47	1873.89
732.65	1871.84
732.83	1841.12
733.01	1820.64
733.19	1761.25
733.37	1890.28
733.56	1869.80
733.74	1708.01
733.92	1945.57
734.10	1759.21
734.28	1867.75
734.46	1740.77
734.64	1791.97
734.82	1853.41
735.00	1773.54
735.18	1828.84
735.36	1849.32
735.54	1839.08
735.73	1802.21
735.91	1859.56
736.09	1810.40
736.27	1849.32
736.45	1863.65
736.63	1689.57
736.81	1785.83
736.99	1945.57
737.17	1894.37
737.35	1810.40
737.53	1886.18
737.71	1779.68
737.89	1935.33
738.07	1787.88
738.25	1738.73
738.43	1837.03
738.61	1767.40
738.80	1724.39
738.98	1763.30
739.16	1771.49
739.34	1781.73
739.52	1896.42
739.70	1834.98
739.88	1849.32
740.06	1937.38
740.24	1722.34
740.42	1843.17
740.60	1712.10
740.78	1808.36
740.96	1757.16
741.14	1791.97
741.32	1824.74
741.50	1740.77
741.68	1966.05
741.86	1863.65
742.04	1759.21
742.22	1773.54
742.40	1794.02
742.58	1859.56
742.76	1798.12
742.94	1890.28
743.12	1765.35
743.30	1871.84
743.48	1851.36
743.66	1796.07
743.84	1863.65
744.02	1779.68
744.20	1789.92
744.38	1753.06
744.56	1806.31
744.74	1871.84
744.92	1869.80
745.10	1918.95
745.28	1890.28
745.46	1900.52
745.64	1746.92
745.82	1877.99
746.00	1808.36
746.18	1849.32
746.36	1742.82
746.54	1808.36
746.72	1804.26
746.90	1806.31
747.08	1906.66
747.26	1816.55
747.44	1886.18
747.62	1859.56
747.80	1828.84
747.98	1906.66
748.15	1761.25
748.33	1974.24
748.51	1886.18
748.69	1843.17
748.87	1697.77
749.05	1847.27
749.23	1785.83
749.41	1875.94
749.59	1880.04
749.77	1906.66
749.95	1767.40
750.13	1759.21
750.31	1802.21
750.49	1787.88
750.67	1837.03
750.85	1884.13
751.03	1855.46
751.20	1927.14
751.38	1763.30
751.56	1806.31
751.74	1839.08
751.92	1816.55
752.10	1783.78
752.28	1912.80
752.46	1849.32
752.64	1757.16
752.82	1810.40
753.00	1902.56
753.18	1845.22
753.35	1794.02
753.53	1804.26
753.71	1865.70
753.89	1886.18
754.07	1824.74
754.25	1871.84
754.43	1820.64
754.61	1740.77
754.79	1861.60
754.97	1771.49
755.14	1851.36
755.32	1763.30
755.50	1816.55
755.68	1796.07
755.86	1767.40
756.04	1773.54
756.22	1714.15
756.40	1748.97
756.57	2031.58
756.75	1775.59
756.93	1875.94
757.11	1863.65
757.29	1746.92
757.47	1783.78
757.65	1769.44
757.82	1660.90
758.00	1777.64
758.18	1785.83
758.36	1791.97
758.54	1959.91
758.72	1722.34
758.90	1814.50
759.07	1812.45
759.25	1693.67
759.43	1816.55
759.61	1726.44
759.79	2430.94
759.97	1939.43
760.15	1777.64
760.32	1738.73
760.50	1816.55
760.68	2004.96
760.86	1742.82
761.04	1892.32
761.22	1826.79
761.39	1820.64
761.57	1785.83
761.75	1722.34
761.93	1880.04
762.11	1894.37
762.28	1834.98
762.46	1775.59
762.64	1853.41
762.82	1763.30
763.00	1755.11
763.18	1935.33
763.35	1789.92
763.53	1771.49
763.71	1832.93
763.89	1787.88
764.07	1800.16
764.24	1824.74
764.42	1877.99
764.60	1757.16
764.78	1841.12
764.96	1863.65
765.13	1837.03
765.31	1871.84
765.49	1845.22
765.67	1763.30
765.84	1726.44
766.02	1720.29
766.20	1775.59
766.38	1814.50
766.56	1832.93
766.73	1837.03
766.91	1814.50
767.09	1834.98
767.27	1839.08
767.44	1806.31
767.62	1783.78
767.80	1843.17
767.98	1802.21
768.15	1781.73
768.33	1820.64
768.51	1855.46
768.69	1851.36
768.87	1867.75
769.04	1826.79
769.22	1968.10
769.40	1849.32
769.58	1947.62
769.75	1867.75
769.93	1884.13
770.11	1810.40
770.28	1730.53
770.46	1863.65
770.64	1761.25
770.82	1796.07
770.99	1744.87
771.17	1855.46
771.35	1812.45
771.53	1791.97
771.70	1718.25
771.88	1765.35
772.06	1886.18
772.23	1771.49
772.41	1861.60
772.59	1843.17
772.77	1708.01
772.94	1751.01
773.12	1816.55
773.30	1818.60
773.47	1804.26
773.65	1794.02
773.83	1861.60
774.01	1730.53
774.18	1689.57
774.36	1830.88
774.54	1726.44
774.71	1814.50
774.89	1673.19
775.07	1787.88
775.24	1730.53
775.42	1787.88
775.60	1855.46
775.78	1839.08
775.95	1746.92
776.13	1669.09
776.31	1718.25
776.48	1863.65
776.66	1908.71
776.84	1724.39
777.01	1830.88
777.19	1783.78
777.37	1820.64
777.54	1920.99
777.72	1937.38
777.90	1826.79
778.07	1740.77
778.25	1992.67
778.43	1826.79
778.60	1785.83
778.78	1900.52
778.96	1957.86
779.13	1806.31
779.31	1863.65
779.49	1742.82
779.66	1865.70
779.84	1818.60
780.01	1826.79
780.19	1773.54
780.37	1849.32
780.54	1908.71
780.72	1718.25
780.90	1880.04
781.07	1794.02
781.25	1798.12
781.43	1845.22
781.60	1816.55
781.78	1853.41
781.95	1863.65
782.13	1841.12
782.31	1888.23
782.48	1609.70
782.66	1771.49
782.83	1976.29
783.01	1794.02
783.19	1822.69
783.36	1771.49
783.54	1757.16
783.72	1941.47
783.89	1744.87
784.07	1871.84
784.24	1861.60
784.42	1914.85
784.60	1771.49
784.77	1935.33
784.95	1677.29
785.12	1816.55
785.30	1806.31
785.47	1812.45
785.65	1765.35
785.83	1728.49
786.00	1697.77
786.18	1869.80
786.35	1763.30
786.53	1798.12
786.71	1755.11
786.88	1845.22
787.06	1734.63
787.23	1822.69
787.41	1720.29
787.58	1796.07
787.76	1802.21
787.94	1789.92
788.11	1804.26
788.29	1742.82
788.46	1753.06
788.64	1638.38
788.81	1781.73
788.99	1755.11
789.16	1728.49
789.34	1826.79
789.52	1824.74
789.69	1710.05
789.87	1785.83
790.04	1791.97
790.22	1859.56
790.39	1927.14
790.57	1769.44
790.74	1789.92
790.92	1898.47
791.09	1710.05
791.27	1685.48
791.44	1916.90
791.62	1851.36
791.79	1802.21
791.97	1798.12
792.15	2021.35
792.32	1832.93
792.50	1918.95
792.67	1865.70
792.85	1861.60
793.02	1791.97
793.20	1877.99
793.37	1703.91
793.55	1834.98
793.72	1695.72
793.90	1853.41
794.07	1791.97
794.25	1740.77
794.42	1791.97
794.60	1851.36
794.77	1804.26
794.95	1855.46
795.12	1882.08
795.30	1812.45
795.47	1716.20
795.65	1943.52
795.82	1771.49
796.00	1771.49
796.17	1787.88
796.34	1798.12
796.52	1802.21
796.69	1802.21
796.87	1800.16
797.04	1884.13
797.22	1904.61
797.39	1849.32
797.57	1964.00
797.74	1728.49
797.92	1826.79
798.09	1806.31
798.27	1880.04
798.44	1820.64
798.62	1763.30
798.79	1824.74
798.96	1796.07
799.14	1863.65
799.31	1935.33
799.49	1771.49
799.66	1789.92
799.84	1802.21
800.01	1748.97
800.19	1806.31
800.36	1712.10
800.53	1767.40
800.71	1777.64
800.88	1880.04
801.06	1753.06
801.23	1738.73
801.41	1724.39
801.58	1816.55
801.75	1810.40
801.93	1814.50
802.10	1839.08
802.28	1843.17
802.45	1753.06
802.63	1890.28
802.80	1882.08
802.97	1748.97
803.15	1861.60
803.32	1800.16
803.50	1826.79
803.67	1832.93
803.84	1701.86
804.02	1828.84
804.19	1753.06
804.37	1673.19
804.54	1802.21
804.71	1824.74
804.89	1775.59
805.06	1789.92
805.24	1724.39
805.41	1791.97
805.58	1734.63
805.76	2007.01
805.93	1849.32
806.10	1861.60
806.28	1865.70
806.45	1830.88
806.63	1843.17
806.80	1804.26
806.97	1906.66
807.15	1757.16
807.32	1828.84
807.49	1791.97
807.67	1712.10
807.84	1927.14
808.01	1656.81
808.19	1949.67
808.36	1996.77
808.54	1761.25
808.71	1800.16
808.88	1773.54
809.06	1918.95
809.23	1853.41
809.40	1742.82
809.58	1882.08
809.75	1798.12
809.92	1742.82
810.10	1945.57
810.27	1814.50
810.44	1920.99
810.62	1773.54
810.79	1851.36
810.96	1730.53
811.14	1791.97
811.31	1845.22
811.48	1791.97
811.66	1843.17
811.83	1861.60
812.00	1894.37
812.18	1861.60
812.35	1947.62
812.52	1785.83
812.69	1757.16
812.87	1822.69
813.04	1824.74
813.21	1828.84
813.39	1718.25
813.56	1722.34
813.73	1806.31
813.91	1787.88
814.08	1822.69
814.25	1781.73
814.42	1705.96
814.60	1783.78
814.77	1812.45
814.94	1853.41
815.12	1812.45
815.29	1935.33
815.46	1751.01
815.63	1886.18
815.81	1834.98
815.98	1800.16
816.15	1826.79
816.33	1779.68
816.50	1740.77
816.67	1789.92
816.84	1751.01
817.02	1714.15
817.19	1818.60
817.36	1767.40
817.53	1865.70
817.71	1722.34
817.88	1865.70
818.05	1847.27
818.22	1798.12
818.40	1927.14
818.57	1800.16
818.74	1837.03
818.91	1787.88
819.09	1841.12
819.26	1779.68
819.43	1824.74
819.60	1710.05
819.78	1875.94
819.95	1923.04
820.12	1744.87
820.29	1900.52
820.47	1855.46
820.64	1812.45
820.81	1710.05
820.98	1693.67
821.15	1738.73
821.33	1882.08
821.50	1693.67
821.67	1875.94
821.84	1767.40
822.02	1882.08
822.19	1806.31
822.36	1808.36
822.53	1796.07
822.70	1771.49
822.88	1738.73
823.05	1900.52
823.22	1798.12
823.39	1894.37
823.56	1789.92
823.74	1904.61
823.91	1767.40
824.08	1753.06
824.25	1814.50
824.42	1925.09
824.60	1734.63
824.77	1841.12
824.94	1804.26
825.11	1869.80
825.28	1724.39
825.45	1787.88
825.63	1761.25
825.80	1746.92
825.97	1820.64
826.14	1820.64
826.31	1708.01
826.48	1892.32
826.66	1730.53
826.83	1787.88
827.00	1773.54
827.17	1777.64
827.34	1781.73
827.51	1796.07
827.69	1746.92
827.86	1714.15
828.03	1775.59
828.20	1775.59
828.37	1746.92
828.54	1755.11
828.71	1789.92
828.89	1927.14
829.06	1804.26
829.23	1933.28
829.40	1796.07
829.57	1781.73
829.74	1902.56
829.91	1757.16
830.09	1710.05
830.26	1816.55
830.43	1943.52
830.60	1841.12
830.77	1884.13
830.94	1869.80
831.11	1796.07
831.28	1816.55
831.46	1869.80
831.63	1834.98
831.80	1824.74
831.97	1798.12
832.14	1775.59
832.31	1871.84
832.48	1804.26
832.65	1906.66
832.82	1802.21
832.99	1820.64
833.17	1753.06
833.34	1916.90
833.51	1849.32
833.68	1777.64
833.85	1867.75
834.02	1738.73
834.19	1810.40
834.36	1816.55
834.53	1853.41
834.70	1882.08
834.87	1837.03
835.04	1849.32
835.22	1802.21
835.39	1783.78
835.56	1748.97
835.73	1855.46
835.90	1808.36
836.07	1744.87
836.24	1804.26
836.41	1796.07
836.58	1755.11
836.75	1867.75
836.92	1855.46
837.09	1757.16
837.26	1777.64
837.43	1826.79
837.60	1861.60
837.77	1824.74
837.94	1931.23
838.12	1857.51
838.29	1798.12
838.46	1683.43
838.63	1804.26
838.80	1906.66
838.97	1855.46
839.14	1789.92
839.31	1802.21
839.48	1869.80
839.65	1791.97
839.82	1804.26
839.99	1800.16
840.16	1904.61
840.33	1748.97
840.50	1785.83
840.67	1742.82
840.84	1710.05
841.01	1806.31
841.18	1738.73
841.35	1775.59
841.52	1912.80
841.69	1918.95
841.86	1812.45
842.03	1816.55
842.20	1837.03
842.37	1810.40
842.54	1816.55
842.71	1796.07
842.88	1736.68
843.05	1865.70
843.22	1763.30
843.39	1808.36
843.56	1746.92
843.73	1763.30
843.90	1736.68
844.07	1794.02
844.24	1861.60
844.41	1859.56
844.58	1816.55
844.75	1767.40
844.92	1884.13
845.09	1763.30
845.26	1783.78
845.43	1859.56
845.60	1787.88
845.77	1851.36
845.94	1767.40
846.10	1841.12
846.27	1732.58
846.44	1679.33
846.61	1738.73
846.78	1798.12
846.95	1830.88
847.12	1798.12
847.29	1804.26
847.46	1806.31
847.63	1853.41
847.80	1812.45
847.97	1767.40
848.14	1984.48
848.31	1755.11
848.48	1759.21
848.65	1900.52
848.82	1791.97
848.98	1986.53
849.15	1841.12
849.32	1908.71
849.49	1824.74
849.66	1751.01
849.83	1820.64
850.00	1787.88
850.17	1818.60
850.34	1826.79
850.51	1796.07
850.68	1781.73
850.85	1929.19
851.01	1875.94
851.18	1841.12
851.35	1794.02
851.52	1859.56
851.69	1877.99
851.86	1705.96
852.03	1761.25
852.20	1859.56
852.37	1724.39
852.53	1751.01
852.70	1814.50
852.87	1863.65
853.04	1869.80
853.21	1767.40
853.38	1902.56
853.55	1908.71
853.72	1925.09
853.89	1740.77
854.05	1742.82
854.22	1761.25
854.39	1800.16
854.56	1855.46
854.73	1925.09
854.90	1804.26
855.07	1877.99
855.23	1837.03
855.40	1771.49
855.57	1761.25
855.74	1718.25
855.91	1951.71
856.08	1828.84
856.25	1783.78
856.41	1740.77
856.58	1808.36
856.75	1832.93
856.92	1726.44
857.09	1914.85
857.26	1757.16
857.42	1781.73
857.59	1869.80
857.76	1814.50
857.93	1834.98
858.10	1771.49
858.27	1738.73
858.43	1761.25
858.60	1708.01
858.77	1679.33
858.94	1800.16
859.11	1834.98
859.27	1820.64
859.44	1812.45
859.61	1888.23
859.78	1828.84
859.95	1771.49
860.12	1751.01
860.28	1976.29
860.45	1935.33
860.62	1773.54
860.79	1849.32
860.95	1814.50
861.12	1730.53
861.29	1761.25
861.46	1720.29
861.63	1734.63
861.79	1890.28
861.96	1736.68
862.13	1742.82
862.30	1834.98
862.47	1814.50
862.63	1748.97
862.80	1773.54
862.97	1828.84
863.14	1820.64
863.30	1843.17
863.47	1705.96
863.64	1912.80
863.81	1820.64
863.97	1824.74
864.14	1875.94
864.31	1777.64
864.48	1853.41
864.65	1783.78
864.81	1871.84
864.98	1841.12
865.15	1880.04
865.32	1939.43
865.48	1863.65
865.65	1923.04
865.82	1839.08
865.98	1777.64
866.15	1877.99
866.32	1871.84
866.49	1740.77
866.65	1869.80
866.82	1767.40
866.99	1734.63
867.16	1687.53
867.32	1824.74
867.49	1804.26
867.66	1787.88
867.83	1849.32
867.99	1777.64
868.16	1761.25
868.33	1736.68
868.49	1802.21
868.66	1767.40
868.83	1851.36
868.99	1818.60
869.16	1855.46
869.33	1875.94
869.50	1910.75
869.66	1798.12
869.83	1763.30
870.00	1726.44
870.16	1781.73
870.33	1767.40
870.50	1802.21
870.66	1767.40
870.83	1964.00
871.00	1871.84
871.17	1832.93
871.33	1851.36
871.50	1775.59
871.67	1818.60
871.83	1781.73
872.00	1966.05
872.17	1771.49
872.33	1906.66
872.50	1976.29
872.67	1859.56
872.83	1773.54
873.00	1847.27
873.17	1806.31
873.33	1828.84
873.50	1882.08
873.67	1744.87
873.83	1769.44
874.00	1794.02
874.16	1914.85
874.33	1875.94
874.50	1769.44
874.66	1861.60
874.83	1746.92
875.00	1902.56
875.16	1898.47
875.33	1855.46
875.50	1652.71
875.66	1767.40
875.83	1839.08
875.99	1900.52
876.16	1765.35
876.33	1769.44
876.49	1759.21
876.66	1826.79
876.83	1855.46
876.99	1726.44
877.16	1775.59
877.32	1841.12
877.49	1722.34
877.66	1880.04
877.82	1910.75
877.99	1849.32
878.15	1908.71
878.32	1771.49
878.49	1837.03
878.65	1779.68
878.82	1914.85
878.98	1867.75
879.15	1867.75
879.32	1877.99
879.48	1806.31
879.65	1853.41
879.81	1683.43
879.98	1810.40
880.15	1746.92
880.31	1851.36
880.48	1828.84
880.64	1865.70
880.81	1820.64
880.97	1902.56
881.14	1820.64
881.31	1726.44
881.47	1939.43
881.64	1761.25
881.80	1648.61
881.97	1808.36
882.13	1857.51
882.30	1701.86
882.47	1798.12
882.63	1665.00
882.80	1714.15
882.96	1748.97
883.13	1961.95
883.29	1834.98
883.46	1855.46
883.62	1945.57
883.79	1867.75
883.95	1837.03
884.12	1814.50
884.29	1941.47
884.45	1755.11
884.62	1847.27
884.78	1767.40
884.95	1861.60
885.11	1734.63
885.28	1796.07
885.44	1796.07
885.61	1849.32
885.77	1888.23
885.94	1734.63
886.10	1789.92
886.27	1863.65
886.43	1900.52
886.60	1877.99
886.76	1791.97
886.93	1777.64
887.09	1806.31
887.26	1652.71
887.42	1798.12
887.59	1873.89
887.75	1900.52
887.92	1894.37
888.08	1837.03
888.25	1933.28
888.41	1908.71
888.58	1877.99
888.74	1767.40
888.91	1810.40
>>>>>End Processed Spectral Data<<<<<
