SpectraSuite Data File
++++++++++++++++++++++++++++++++++++
Date: Wed May 04 21:13:13 CEST 2016
User: root
Dark Spectrum Present: No
Reference Spectrum Present: No
Number of Sampled Component Spectra: 1
Spectrometers: USB4C02835
Integration Time (usec): 100000 (USB4C02835)
Spectra Averaged: 1 (USB4C02835)
Boxcar Smoothing: 0 (USB4C02835)
Correct for Electrical Dark: No (USB4C02835)
Strobe/Lamp Enabled: No (USB4C02835)
Correct for Detector Non-linearity: No (USB4C02835)
Correct for Stray Light: No (USB4C02835)
Number of Pixels in Processed Spectrum: 3648
>>>>>Begin Processed Spectral Data<<<<<
177.47	1497.07
177.69	1497.07
177.91	1497.07
178.13	1542.12
178.36	1546.22
178.58	1761.25
178.80	1796.07
179.02	1710.05
179.24	1726.44
179.46	1777.64
179.68	1849.32
179.90	1832.93
180.13	1785.83
180.35	1808.36
180.57	1826.79
180.79	1822.69
181.01	1746.92
181.23	1832.93
181.45	1894.37
181.67	1861.60
181.90	1798.12
182.12	1759.21
182.34	1775.59
182.56	1904.61
182.78	1816.55
183.00	1814.50
183.22	1812.45
183.44	1804.26
183.66	2025.44
183.89	1877.99
184.11	1847.27
184.33	1849.32
184.55	1908.71
184.77	1820.64
184.99	1857.51
185.21	1736.68
185.43	1982.43
185.65	1814.50
185.87	1830.88
186.10	1910.75
186.32	1935.33
186.54	1832.93
186.76	1898.47
186.98	1906.66
187.20	1806.31
187.42	1830.88
187.64	1761.25
187.86	1812.45
188.08	1898.47
188.30	1736.68
188.52	1771.49
188.75	1873.89
188.97	1869.80
189.19	1777.64
189.41	1808.36
189.63	1861.60
189.85	1773.54
190.07	1730.53
190.29	1773.54
190.51	1837.03
190.73	1804.26
190.95	1882.08
191.17	1818.60
191.39	1716.20
191.61	1828.84
191.84	1791.97
192.06	1826.79
192.28	1675.24
192.50	1943.52
192.72	1851.36
192.94	1796.07
193.16	1884.13
193.38	1736.68
193.60	1736.68
193.82	1771.49
194.04	1857.51
194.26	1857.51
194.48	1849.32
194.70	1808.36
194.92	1837.03
195.14	1820.64
195.36	1693.67
195.58	1800.16
195.80	1837.03
196.02	1748.97
196.24	1761.25
196.46	1796.07
196.69	1816.55
196.91	1910.75
197.13	1757.16
197.35	1740.77
197.57	1908.71
197.79	1820.64
198.01	1834.98
198.23	1912.80
198.45	1869.80
198.67	1753.06
198.89	1794.02
199.11	1906.66
199.33	1814.50
199.55	1662.95
199.77	1802.21
199.99	1894.37
200.21	1767.40
200.43	1859.56
200.65	1714.15
200.87	1724.39
201.09	1800.16
201.31	1746.92
201.53	1902.56
201.75	1916.90
201.97	1767.40
202.19	1837.03
202.41	1787.88
202.63	1931.23
202.85	1794.02
203.07	1787.88
203.29	1816.55
203.51	1740.77
203.73	1751.01
203.95	1996.77
204.17	1916.90
204.39	1916.90
204.61	1820.64
204.83	1853.41
205.05	1798.12
205.27	1826.79
205.49	1927.14
205.71	1908.71
205.93	1728.49
206.15	1740.77
206.37	1816.55
206.59	1783.78
206.81	1687.53
207.03	1705.96
207.25	1820.64
207.47	1847.27
207.69	1755.11
207.91	1832.93
208.13	1880.04
208.34	1802.21
208.56	1732.58
208.78	1837.03
209.00	1769.44
209.22	1775.59
209.44	1761.25
209.66	1708.01
209.88	1865.70
210.10	1775.59
210.32	1730.53
210.54	1837.03
210.76	1716.20
210.98	1839.08
211.20	1714.15
211.42	1828.84
211.64	1855.46
211.86	1865.70
212.08	1857.51
212.30	1841.12
212.52	1787.88
212.74	1779.68
212.96	1832.93
213.17	1877.99
213.39	1927.14
213.61	1845.22
213.83	1804.26
214.05	1877.99
214.27	1931.23
214.49	1699.81
214.71	1751.01
214.93	1871.84
215.15	1857.51
215.37	1816.55
215.59	1761.25
215.81	1863.65
216.03	1873.89
216.24	1804.26
216.46	1830.88
216.68	1806.31
216.90	1853.41
217.12	1914.85
217.34	1816.55
217.56	1832.93
217.78	1904.61
218.00	1900.52
218.22	1781.73
218.44	1847.27
218.66	1810.40
218.87	1974.24
219.09	1751.01
219.31	1802.21
219.53	1820.64
219.75	1757.16
219.97	1751.01
220.19	1816.55
220.41	1794.02
220.63	1880.04
220.85	1767.40
221.06	1810.40
221.28	1832.93
221.50	1791.97
221.72	1896.42
221.94	1759.21
222.16	1800.16
222.38	1849.32
222.60	1861.60
222.82	1798.12
223.03	1787.88
223.25	1732.58
223.47	1853.41
223.69	1867.75
223.91	1873.89
224.13	1822.69
224.35	1699.81
224.57	1910.75
224.78	1939.43
225.00	1777.64
225.22	1775.59
225.44	1818.60
225.66	1873.89
225.88	1767.40
226.10	1861.60
226.32	1865.70
226.53	1800.16
226.75	1744.87
226.97	1791.97
227.19	1824.74
227.41	1802.21
227.63	1783.78
227.85	1689.57
228.06	1769.44
228.28	1832.93
228.50	1834.98
228.72	1787.88
228.94	1828.84
229.16	1718.25
229.37	1738.73
229.59	1789.92
229.81	1853.41
230.03	1814.50
230.25	1732.58
230.47	1761.25
230.69	1802.21
230.90	1845.22
231.12	1839.08
231.34	1812.45
231.56	1920.99
231.78	1785.83
232.00	1783.78
232.21	1812.45
232.43	1787.88
232.65	1650.66
232.87	1841.12
233.09	1744.87
233.30	1847.27
233.52	1791.97
233.74	1826.79
233.96	1800.16
234.18	1763.30
234.40	1736.68
234.61	1931.23
234.83	1781.73
235.05	1724.39
235.27	1980.39
235.49	1968.10
235.70	1863.65
235.92	1894.37
236.14	1783.78
236.36	2013.15
236.58	1761.25
236.79	1800.16
237.01	1789.92
237.23	1800.16
237.45	1910.75
237.67	1771.49
237.88	1865.70
238.10	1877.99
238.32	1689.57
238.54	1773.54
238.76	1746.92
238.97	1761.25
239.19	1826.79
239.41	1923.04
239.63	1929.19
239.85	1761.25
240.06	1814.50
240.28	1744.87
240.50	1808.36
240.72	1847.27
240.93	1832.93
241.15	1959.91
241.37	1775.59
241.59	1863.65
241.81	1783.78
242.02	1798.12
242.24	1875.94
242.46	1865.70
242.68	1744.87
242.89	1841.12
243.11	1873.89
243.33	1744.87
243.55	1806.31
243.76	1861.60
243.98	1810.40
244.20	1718.25
244.42	1783.78
244.64	1837.03
244.85	1812.45
245.07	1757.16
245.29	1877.99
245.51	1853.41
245.72	1918.95
245.94	1916.90
246.16	1771.49
246.38	1892.32
246.59	1748.97
246.81	1791.97
247.03	1869.80
247.24	1730.53
247.46	1800.16
247.68	1826.79
247.90	1746.92
248.11	1804.26
248.33	1886.18
248.55	1734.63
248.77	1710.05
248.98	1888.23
249.20	1972.19
249.42	1787.88
249.64	1890.28
249.85	1708.01
250.07	1785.83
250.29	1880.04
250.50	1804.26
250.72	1789.92
250.94	1824.74
251.16	1920.99
251.37	1867.75
251.59	1787.88
251.81	1910.75
252.02	1912.80
252.24	1794.02
252.46	1845.22
252.68	1837.03
252.89	1824.74
253.11	1728.49
253.33	1908.71
253.54	1890.28
253.76	1808.36
253.98	1773.54
254.20	1859.56
254.41	1732.58
254.63	1855.46
254.85	1716.20
255.06	1763.30
255.28	1740.77
255.50	1751.01
255.71	1865.70
255.93	1726.44
256.15	1810.40
256.36	1791.97
256.58	1798.12
256.80	1910.75
257.02	1814.50
257.23	1777.64
257.45	1884.13
257.67	1824.74
257.88	1773.54
258.10	1910.75
258.32	1824.74
258.53	1861.60
258.75	1916.90
258.97	1705.96
259.18	1773.54
259.40	1777.64
259.62	1837.03
259.83	1968.10
260.05	1804.26
260.27	2031.58
260.48	1918.95
260.70	1712.10
260.92	1775.59
261.13	1791.97
261.35	1849.32
261.57	1853.41
261.78	1710.05
262.00	1759.21
262.22	1863.65
262.43	1814.50
262.65	1828.84
262.86	1812.45
263.08	1923.04
263.30	1818.60
263.51	1744.87
263.73	1740.77
263.95	1914.85
264.16	1708.01
264.38	1730.53
264.60	1820.64
264.81	1865.70
265.03	1834.98
265.25	1869.80
265.46	1824.74
265.68	1927.14
265.89	1877.99
266.11	1736.68
266.33	1847.27
266.54	1806.31
266.76	1820.64
266.98	1855.46
267.19	1945.57
267.41	1882.08
267.62	1751.01
267.84	1755.11
268.06	1937.38
268.27	1820.64
268.49	1834.98
268.70	1910.75
268.92	1769.44
269.14	1734.63
269.35	1720.29
269.57	1804.26
269.79	1796.07
270.00	1818.60
270.22	1982.43
270.43	1767.40
270.65	1683.43
270.87	1800.16
271.08	1859.56
271.30	1779.68
271.51	1869.80
271.73	1847.27
271.95	1896.42
272.16	1746.92
272.38	1853.41
272.59	1732.58
272.81	1839.08
273.02	1865.70
273.24	1880.04
273.46	1853.41
273.67	1691.62
273.89	1728.49
274.10	1730.53
274.32	1912.80
274.54	1763.30
274.75	1869.80
274.97	1791.97
275.18	1796.07
275.40	1806.31
275.61	1814.50
275.83	1855.46
276.05	1791.97
276.26	1763.30
276.48	1824.74
276.69	1798.12
276.91	1726.44
277.12	1871.84
277.34	1859.56
277.55	1824.74
277.77	1816.55
277.99	1757.16
278.20	1791.97
278.42	1775.59
278.63	1730.53
278.85	1843.17
279.06	1748.97
279.28	1802.21
279.49	1824.74
279.71	1818.60
279.93	1757.16
280.14	1759.21
280.36	1791.97
280.57	1841.12
280.79	1904.61
281.00	1771.49
281.22	1753.06
281.43	1820.64
281.65	1703.91
281.86	1806.31
282.08	1800.16
282.29	1931.23
282.51	1738.73
282.73	1789.92
282.94	1681.38
283.16	1865.70
283.37	1873.89
283.59	1763.30
283.80	1857.51
284.02	1869.80
284.23	1787.88
284.45	1791.97
284.66	1746.92
284.88	1751.01
285.09	1855.46
285.31	1845.22
285.52	1902.56
285.74	1763.30
285.95	1886.18
286.17	1853.41
286.38	1882.08
286.60	1810.40
286.81	1722.34
287.03	1802.21
287.24	1748.97
287.46	1771.49
287.67	1751.01
287.89	1972.19
288.10	1849.32
288.32	1828.84
288.53	1918.95
288.75	1779.68
288.96	1912.80
289.18	1791.97
289.39	1783.78
289.61	1855.46
289.82	1923.04
290.04	1978.34
290.25	1746.92
290.47	1853.41
290.68	1779.68
290.90	1867.75
291.11	1667.05
291.33	1828.84
291.54	1794.02
291.76	1751.01
291.97	1816.55
292.18	1882.08
292.40	1705.96
292.61	1812.45
292.83	1908.71
293.04	1877.99
293.26	1837.03
293.47	1789.92
293.69	1779.68
293.90	1826.79
294.12	1892.32
294.33	1757.16
294.55	1828.84
294.76	1794.02
294.97	1970.15
295.19	1929.19
295.40	1767.40
295.62	1978.34
295.83	1834.98
296.05	1748.97
296.26	1834.98
296.48	1796.07
296.69	1849.32
296.90	1804.26
297.12	1849.32
297.33	1843.17
297.55	1781.73
297.76	1826.79
297.98	1812.45
298.19	1800.16
298.41	1832.93
298.62	1794.02
298.83	1931.23
299.05	1822.69
299.26	1763.30
299.48	1722.34
299.69	1908.71
299.90	1777.64
300.12	1769.44
300.33	1871.84
300.55	1832.93
300.76	1880.04
300.98	1726.44
301.19	1937.38
301.40	1787.88
301.62	1857.51
301.83	1814.50
302.05	1853.41
302.26	1810.40
302.47	1894.37
302.69	1744.87
302.90	1892.32
303.12	1724.39
303.33	1890.28
303.54	1912.80
303.76	1742.82
303.97	1779.68
304.19	1908.71
304.40	1767.40
304.61	1851.36
304.83	1882.08
305.04	1871.84
305.26	1843.17
305.47	1855.46
305.68	1773.54
305.90	1732.58
306.11	1794.02
306.33	1816.55
306.54	1796.07
306.75	1757.16
306.97	1800.16
307.18	1798.12
307.39	1853.41
307.61	1875.94
307.82	1769.44
308.04	1837.03
308.25	1841.12
308.46	1865.70
308.68	1812.45
308.89	1773.54
309.10	1869.80
309.32	1761.25
309.53	1798.12
309.74	1744.87
309.96	1861.60
310.17	1896.42
310.39	1742.82
310.60	1845.22
310.81	1806.31
311.03	1791.97
311.24	1904.61
311.45	1824.74
311.67	1939.43
311.88	1806.31
312.09	1802.21
312.31	1777.64
312.52	1771.49
312.73	1816.55
312.95	1837.03
313.16	1722.34
313.37	1896.42
313.59	1888.23
313.80	1806.31
314.01	1824.74
314.23	1785.83
314.44	1714.15
314.65	1761.25
314.87	1779.68
315.08	1759.21
315.29	1726.44
315.51	1822.69
315.72	1675.24
315.93	1935.33
316.15	1832.93
316.36	1834.98
316.57	1800.16
316.79	1812.45
317.00	1765.35
317.21	1753.06
317.43	1744.87
317.64	1777.64
317.85	1767.40
318.07	1814.50
318.28	1816.55
318.49	1978.34
318.70	2047.97
318.92	2033.63
319.13	1896.42
319.34	2045.92
319.56	1972.19
319.77	2000.87
319.98	1972.19
320.20	1961.95
320.41	1863.65
320.62	1871.84
320.83	1804.26
321.05	1939.43
321.26	1855.46
321.47	1787.88
321.69	1861.60
321.90	1775.59
322.11	1826.79
322.32	1888.23
322.54	1918.95
322.75	1787.88
322.96	2000.87
323.18	1734.63
323.39	1744.87
323.60	1736.68
323.81	1849.32
324.03	1699.81
324.24	1787.88
324.45	1908.71
324.66	1796.07
324.88	1855.46
325.09	1937.38
325.30	1824.74
325.52	1841.12
325.73	1863.65
325.94	1722.34
326.15	1757.16
326.37	1777.64
326.58	1822.69
326.79	1937.38
327.00	1671.14
327.22	1777.64
327.43	1734.63
327.64	1744.87
327.85	1732.58
328.07	1861.60
328.28	1959.91
328.49	1738.73
328.70	1816.55
328.92	1849.32
329.13	1837.03
329.34	1859.56
329.55	1935.33
329.76	1857.51
329.98	1785.83
330.19	1855.46
330.40	1863.65
330.61	1779.68
330.83	1816.55
331.04	1771.49
331.25	1843.17
331.46	1791.97
331.68	1789.92
331.89	1871.84
332.10	1794.02
332.31	1732.58
332.52	1871.84
332.74	1851.36
332.95	1720.29
333.16	1802.21
333.37	1855.46
333.58	1710.05
333.80	1800.16
334.01	1705.96
334.22	1818.60
334.43	1800.16
334.64	1781.73
334.86	1722.34
335.07	1710.05
335.28	1914.85
335.49	1765.35
335.70	1857.51
335.92	1953.76
336.13	1990.63
336.34	1877.99
336.55	1742.82
336.76	1900.52
336.98	1667.05
337.19	1834.98
337.40	1955.81
337.61	1916.90
337.82	1810.40
338.04	1812.45
338.25	1787.88
338.46	1834.98
338.67	1785.83
338.88	1751.01
339.09	1767.40
339.31	1785.83
339.52	1757.16
339.73	1746.92
339.94	1769.44
340.15	1892.32
340.36	1765.35
340.58	1779.68
340.79	1705.96
341.00	1845.22
341.21	1783.78
341.42	1920.99
341.63	1728.49
341.85	1923.04
342.06	1779.68
342.27	1767.40
342.48	1845.22
342.69	1818.60
342.90	1867.75
343.12	1861.60
343.33	1849.32
343.54	1800.16
343.75	1869.80
343.96	1791.97
344.17	1718.25
344.38	1798.12
344.60	1781.73
344.81	1716.20
345.02	1832.93
345.23	1867.75
345.44	1947.62
345.65	1935.33
345.86	1779.68
346.07	1800.16
346.29	1763.30
346.50	1841.12
346.71	1816.55
346.92	1912.80
347.13	1988.58
347.34	1849.32
347.55	1769.44
347.76	1785.83
347.98	1720.29
348.19	1765.35
348.40	1828.84
348.61	1738.73
348.82	1863.65
349.03	1882.08
349.24	1710.05
349.45	1998.82
349.66	1722.34
349.88	1859.56
350.09	1767.40
350.30	1880.04
350.51	1890.28
350.72	1847.27
350.93	1834.98
351.14	1767.40
351.35	1894.37
351.56	1857.51
351.77	1863.65
351.99	1904.61
352.20	1853.41
352.41	1806.31
352.62	1755.11
352.83	1812.45
353.04	1804.26
353.25	1847.27
353.46	1853.41
353.67	1910.75
353.88	1748.97
354.09	1814.50
354.30	1818.60
354.52	1857.51
354.73	1826.79
354.94	1716.20
355.15	1830.88
355.36	1900.52
355.57	1802.21
355.78	1816.55
355.99	1775.59
356.20	1888.23
356.41	1841.12
356.62	1824.74
356.83	1779.68
357.04	1925.09
357.25	1730.53
357.46	1732.58
357.68	1693.67
357.89	1804.26
358.10	1796.07
358.31	1857.51
358.52	1716.20
358.73	1716.20
358.94	1671.14
359.15	1724.39
359.36	1859.56
359.57	1755.11
359.78	1771.49
359.99	1804.26
360.20	1720.29
360.41	1832.93
360.62	1863.65
360.83	1818.60
361.04	1820.64
361.25	1820.64
361.46	1910.75
361.67	1808.36
361.88	1804.26
362.09	1898.47
362.30	1789.92
362.51	1810.40
362.72	1867.75
362.93	1904.61
363.14	1882.08
363.35	1789.92
363.56	1755.11
363.78	1890.28
363.99	1884.13
364.20	1724.39
364.41	1789.92
364.62	1955.81
364.83	1849.32
365.04	1761.25
365.25	1873.89
365.46	1927.14
365.67	1765.35
365.88	1806.31
366.09	1822.69
366.30	1724.39
366.51	1830.88
366.72	1683.43
366.93	1761.25
367.14	1791.97
367.35	1857.51
367.56	1779.68
367.77	1882.08
367.98	1767.40
368.18	1808.36
368.39	1828.84
368.60	1738.73
368.81	1904.61
369.02	1775.59
369.23	1769.44
369.44	1681.38
369.65	1761.25
369.86	1834.98
370.07	1859.56
370.28	1773.54
370.49	1818.60
370.70	1953.76
370.91	1730.53
371.12	1691.62
371.33	1933.28
371.54	1763.30
371.75	1843.17
371.96	1689.57
372.17	1814.50
372.38	1828.84
372.59	1841.12
372.80	1908.71
373.01	1796.07
373.22	1804.26
373.43	1820.64
373.64	1753.06
373.85	1974.24
374.06	1925.09
374.26	1841.12
374.47	1834.98
374.68	1859.56
374.89	1873.89
375.10	1847.27
375.31	1890.28
375.52	1851.36
375.73	1843.17
375.94	1736.68
376.15	1933.28
376.36	1738.73
376.57	1740.77
376.78	1810.40
376.99	1871.84
377.20	1900.52
377.40	1812.45
377.61	1914.85
377.82	1730.53
378.03	1931.23
378.24	1773.54
378.45	1777.64
378.66	1892.32
378.87	1724.39
379.08	1681.38
379.29	1765.35
379.50	1886.18
379.71	1847.27
379.91	1822.69
380.12	1800.16
380.33	1828.84
380.54	1914.85
380.75	1769.44
380.96	1779.68
381.17	1849.32
381.38	1943.52
381.59	1822.69
381.80	1865.70
382.00	1951.71
382.21	1877.99
382.42	1896.42
382.63	2000.87
382.84	1861.60
383.05	1918.95
383.26	1912.80
383.47	1898.47
383.68	1802.21
383.88	1929.19
384.09	1847.27
384.30	1904.61
384.51	1888.23
384.72	1765.35
384.93	1757.16
385.14	1867.75
385.35	1902.56
385.55	1734.63
385.76	1912.80
385.97	1818.60
386.18	1767.40
386.39	1812.45
386.60	1791.97
386.81	1818.60
387.02	1787.88
387.22	1845.22
387.43	1943.52
387.64	1898.47
387.85	2023.39
388.06	2129.89
388.27	4216.77
388.48	8908.66
388.68	11894.60
388.89	14018.35
389.10	15134.49
389.31	13215.54
389.52	10454.88
389.73	9281.39
389.93	8460.16
390.14	7587.72
390.35	7120.79
390.56	6148.00
390.77	5244.85
390.98	4046.79
391.18	3102.67
391.39	2441.18
391.60	2082.78
391.81	1947.62
392.02	1873.89
392.23	2019.30
392.43	1787.88
392.64	1857.51
392.85	1796.07
393.06	1988.58
393.27	1828.84
393.47	1812.45
393.68	1871.84
393.89	1828.84
394.10	1935.33
394.31	1785.83
394.52	1767.40
394.72	1763.30
394.93	1910.75
395.14	1734.63
395.35	1857.51
395.56	1753.06
395.76	1847.27
395.97	1843.17
396.18	1988.58
396.39	2019.30
396.60	2197.47
396.80	2099.17
397.01	2009.06
397.22	1951.71
397.43	1990.63
397.64	1810.40
397.84	1920.99
398.05	2086.88
398.26	1916.90
398.47	1931.23
398.67	1910.75
398.88	1849.32
399.09	1873.89
399.30	1794.02
399.51	1845.22
399.71	1755.11
399.92	1849.32
400.13	1863.65
400.34	1837.03
400.54	1787.88
400.75	1943.52
400.96	1816.55
401.17	1916.90
401.37	1853.41
401.58	1796.07
401.79	1816.55
402.00	1964.00
402.21	2127.84
402.41	2189.28
402.62	2213.85
402.83	2299.87
403.04	2250.72
403.24	2232.29
403.45	1988.58
403.66	2140.13
403.87	2076.64
404.07	2123.74
404.28	2066.40
404.49	2080.74
404.70	1857.51
404.90	1927.14
405.11	1824.74
405.32	1947.62
405.52	1794.02
405.73	1818.60
405.94	1794.02
406.15	1853.41
406.35	1851.36
406.56	1896.42
406.77	1843.17
406.98	1828.84
407.18	1812.45
407.39	1869.80
407.60	1755.11
407.80	1869.80
408.01	1802.21
408.22	1867.75
408.43	1689.57
408.63	1933.28
408.84	1828.84
409.05	1875.94
409.25	1755.11
409.46	1796.07
409.67	1769.44
409.88	1791.97
410.08	1849.32
410.29	1814.50
410.50	1849.32
410.70	1857.51
410.91	1718.25
411.12	1892.32
411.32	1796.07
411.53	1857.51
411.74	1964.00
411.95	1964.00
412.15	1923.04
412.36	1918.95
412.57	1892.32
412.77	1923.04
412.98	1841.12
413.19	1861.60
413.39	1855.46
413.60	1880.04
413.81	1918.95
414.01	1794.02
414.22	1859.56
414.43	1841.12
414.63	1857.51
414.84	1861.60
415.05	1808.36
415.25	1730.53
415.46	1802.21
415.67	1751.01
415.87	1824.74
416.08	1882.08
416.29	1818.60
416.49	1918.95
416.70	1804.26
416.91	1867.75
417.11	1755.11
417.32	1828.84
417.53	1937.38
417.73	1789.92
417.94	1841.12
418.15	1824.74
418.35	1857.51
418.56	1755.11
418.77	1974.24
418.97	1800.16
419.18	1800.16
419.38	1660.90
419.59	1818.60
419.80	1908.71
420.00	1761.25
420.21	1877.99
420.42	1865.70
420.62	1796.07
420.83	1773.54
421.04	1822.69
421.24	1800.16
421.45	1789.92
421.65	1906.66
421.86	1771.49
422.07	1841.12
422.27	1888.23
422.48	1920.99
422.69	1820.64
422.89	1804.26
423.10	1830.88
423.30	1716.20
423.51	1798.12
423.72	1693.67
423.92	1855.46
424.13	1669.09
424.33	1863.65
424.54	1847.27
424.75	1757.16
424.95	1853.41
425.16	1871.84
425.36	1730.53
425.57	1861.60
425.78	1753.06
425.98	1837.03
426.19	1808.36
426.39	1777.64
426.60	1861.60
426.81	1933.28
427.01	1906.66
427.22	1798.12
427.42	1695.72
427.63	1746.92
427.83	1861.60
428.04	1982.43
428.25	1898.47
428.45	1927.14
428.66	1902.56
428.86	1800.16
429.07	1794.02
429.28	1812.45
429.48	1779.68
429.69	1806.31
429.89	1890.28
430.10	1714.15
430.30	1861.60
430.51	1888.23
430.71	1810.40
430.92	1845.22
431.13	1769.44
431.33	1896.42
431.54	1816.55
431.74	1918.95
431.95	1978.34
432.15	1679.33
432.36	1871.84
432.56	1828.84
432.77	1939.43
432.98	1945.57
433.18	1791.97
433.39	1828.84
433.59	1767.40
433.80	1910.75
434.00	2043.87
434.21	1843.17
434.41	1781.73
434.62	1896.42
434.82	1683.43
435.03	1800.16
435.23	1832.93
435.44	1697.77
435.64	1880.04
435.85	1857.51
436.06	1941.47
436.26	1890.28
436.47	1818.60
436.67	1685.48
436.88	1820.64
437.08	1873.89
437.29	1898.47
437.49	1822.69
437.70	1935.33
437.90	1828.84
438.11	1920.99
438.31	1918.95
438.52	1986.53
438.72	2068.45
438.93	2093.02
439.13	1894.37
439.34	1929.19
439.54	1986.53
439.75	1959.91
439.95	1970.15
440.16	1769.44
440.36	1861.60
440.57	1822.69
440.77	1923.04
440.98	1837.03
441.18	1826.79
441.39	1828.84
441.59	1812.45
441.80	1951.71
442.00	1884.13
442.21	1984.48
442.41	1755.11
442.62	1884.13
442.82	1759.21
443.02	1738.73
443.23	1837.03
443.43	1843.17
443.64	1978.34
443.84	1810.40
444.05	1871.84
444.25	1886.18
444.46	1796.07
444.66	1812.45
444.87	1935.33
445.07	1796.07
445.28	1853.41
445.48	1890.28
445.69	1810.40
445.89	1961.95
446.09	1814.50
446.30	2023.39
446.50	2693.08
446.71	4167.62
446.91	5154.74
447.12	6084.52
447.32	6287.26
447.53	5726.12
447.73	4794.29
447.93	4310.97
448.14	3844.04
448.34	3581.90
448.55	3297.23
448.75	3286.99
448.96	3051.47
449.16	2736.09
449.36	2541.53
449.57	2166.75
449.77	2017.25
449.98	1925.09
450.18	1906.66
450.39	1837.03
450.59	1871.84
450.79	1851.36
451.00	1820.64
451.20	1820.64
451.41	1843.17
451.61	1867.75
451.81	1871.84
452.02	1818.60
452.22	1857.51
452.43	1814.50
452.63	1742.82
452.84	1814.50
453.04	1839.08
453.24	1808.36
453.45	1755.11
453.65	1779.68
453.86	1908.71
454.06	1855.46
454.26	1845.22
454.47	1771.49
454.67	1882.08
454.87	1906.66
455.08	1871.84
455.28	1986.53
455.49	1898.47
455.69	1730.53
455.89	1906.66
456.10	1898.47
456.30	1798.12
456.51	1845.22
456.71	1863.65
456.91	1798.12
457.12	1783.78
457.32	1906.66
457.52	1816.55
457.73	1869.80
457.93	1787.88
458.14	1753.06
458.34	1751.01
458.54	1826.79
458.75	1804.26
458.95	1970.15
459.15	1779.68
459.36	1851.36
459.56	1925.09
459.76	1959.91
459.97	1748.97
460.17	1900.52
460.37	1902.56
460.58	1857.51
460.78	1773.54
460.99	1841.12
461.19	1857.51
461.39	1824.74
461.60	1865.70
461.80	1847.27
462.00	1800.16
462.21	1816.55
462.41	1781.73
462.61	1769.44
462.82	1757.16
463.02	1859.56
463.22	1810.40
463.43	1884.13
463.63	1773.54
463.83	1886.18
464.04	1849.32
464.24	1798.12
464.44	1814.50
464.64	1855.46
464.85	1847.27
465.05	1935.33
465.25	1894.37
465.46	1843.17
465.66	1863.65
465.86	1818.60
466.07	1822.69
466.27	1834.98
466.47	1708.01
466.68	1773.54
466.88	1898.47
467.08	1837.03
467.29	1861.60
467.49	1865.70
467.69	1732.58
467.89	1873.89
468.10	1804.26
468.30	1828.84
468.50	1941.47
468.71	1976.29
468.91	1759.21
469.11	1939.43
469.31	1867.75
469.52	1781.73
469.72	1964.00
469.92	1966.05
470.13	1787.88
470.33	1796.07
470.53	1834.98
470.73	2320.35
470.94	2686.94
471.14	2947.03
471.34	3182.54
471.54	3078.10
471.75	2762.71
471.95	2557.91
472.15	2414.56
472.36	2420.70
472.56	2402.27
472.76	2328.54
472.96	2162.66
473.17	2201.57
473.37	2131.94
473.57	1957.86
473.77	1947.62
473.98	1886.18
474.18	1798.12
474.38	2056.16
474.58	1779.68
474.79	1832.93
474.99	1847.27
475.19	1906.66
475.39	1777.64
475.60	1916.90
475.80	1875.94
476.00	1857.51
476.20	1863.65
476.41	1830.88
476.61	1939.43
476.81	2015.20
477.01	1759.21
477.21	1916.90
477.42	1869.80
477.62	1714.15
477.82	1794.02
478.02	1830.88
478.23	1798.12
478.43	1841.12
478.63	1814.50
478.83	1834.98
479.03	1832.93
479.24	1929.19
479.44	1906.66
479.64	1718.25
479.84	1685.48
480.04	1794.02
480.25	1906.66
480.45	1759.21
480.65	1796.07
480.85	1910.75
481.06	1816.55
481.26	1853.41
481.46	1839.08
481.66	1796.07
481.86	1705.96
482.06	1914.85
482.27	1761.25
482.47	1877.99
482.67	1837.03
482.87	1828.84
483.07	1890.28
483.28	1791.97
483.48	1787.88
483.68	1808.36
483.88	1841.12
484.08	1681.38
484.29	1826.79
484.49	1837.03
484.69	1826.79
484.89	1959.91
485.09	1914.85
485.29	1814.50
485.50	1832.93
485.70	1828.84
485.90	1882.08
486.10	1783.78
486.30	1912.80
486.50	1877.99
486.71	1834.98
486.91	1898.47
487.11	1937.38
487.31	1736.68
487.51	1810.40
487.71	1763.30
487.91	1767.40
488.12	1843.17
488.32	1581.03
488.52	1804.26
488.72	1656.81
488.92	1888.23
489.12	1894.37
489.32	1853.41
489.53	1822.69
489.73	1787.88
489.93	1916.90
490.13	1730.53
490.33	1761.25
490.53	1908.71
490.73	1877.99
490.94	1763.30
491.14	1871.84
491.34	2019.30
491.54	2154.46
491.74	2801.62
491.94	3332.05
492.14	3631.05
492.34	3614.66
492.54	3307.47
492.75	2906.07
492.95	2750.42
493.15	2574.30
493.35	2557.91
493.55	2385.88
493.75	2392.03
493.95	2363.36
494.15	2220.00
494.35	2082.78
494.56	1966.05
494.76	1892.32
494.96	1810.40
495.16	1912.80
495.36	1871.84
495.56	1822.69
495.76	1828.84
495.96	1875.94
496.16	1765.35
496.36	1914.85
496.56	1843.17
496.77	1880.04
496.97	1812.45
497.17	1970.15
497.37	1775.59
497.57	1918.95
497.77	1828.84
497.97	1826.79
498.17	1849.32
498.37	1808.36
498.57	1820.64
498.77	1896.42
498.97	1865.70
499.17	1884.13
499.38	1839.08
499.58	1923.04
499.78	1857.51
499.98	1902.56
500.18	1834.98
500.38	1787.88
500.58	1949.67
500.78	2418.65
500.98	4773.82
501.18	6897.56
501.38	8505.21
501.58	9514.86
501.78	9222.00
501.98	7171.99
502.18	6250.40
502.38	5234.61
502.58	4800.44
502.78	4349.89
502.98	4095.94
503.18	3950.53
503.38	3717.06
503.59	3170.26
503.79	2990.03
503.99	2643.93
504.19	2496.47
504.39	2514.91
504.59	2465.75
504.79	2467.80
504.99	2412.51
505.19	2172.89
505.39	2072.54
505.59	2193.37
505.79	2121.70
505.99	2021.35
506.19	2021.35
506.39	1955.81
506.59	1886.18
506.79	1914.85
506.99	1931.23
507.19	1898.47
507.39	1871.84
507.59	1822.69
507.79	1744.87
507.99	1783.78
508.19	1867.75
508.39	1828.84
508.59	1810.40
508.79	1927.14
508.99	1966.05
509.19	1759.21
509.39	1863.65
509.59	1863.65
509.79	1808.36
509.99	1961.95
510.19	1947.62
510.39	1880.04
510.59	1912.80
510.79	1800.16
510.99	1794.02
511.19	1798.12
511.39	1949.67
511.59	1978.34
511.79	1935.33
511.99	1843.17
512.19	1955.81
512.38	1855.46
512.58	1804.26
512.78	1867.75
512.98	1927.14
513.18	1886.18
513.38	1755.11
513.58	1873.89
513.78	1816.55
513.98	1861.60
514.18	1802.21
514.38	1873.89
514.58	1812.45
514.78	1816.55
514.98	1796.07
515.18	1841.12
515.38	1769.44
515.58	1947.62
515.78	1841.12
515.98	1849.32
516.18	1890.28
516.38	1804.26
516.57	1851.36
516.77	1748.97
516.97	1800.16
517.17	1767.40
517.37	1738.73
517.57	1898.47
517.77	1789.92
517.97	1761.25
518.17	1873.89
518.37	1746.92
518.57	1781.73
518.77	1802.21
518.97	1828.84
519.16	1867.75
519.36	1935.33
519.56	1814.50
519.76	1832.93
519.96	1773.54
520.16	1912.80
520.36	1734.63
520.56	1865.70
520.76	1832.93
520.96	1841.12
521.16	1923.04
521.35	1923.04
521.55	1968.10
521.75	1800.16
521.95	1853.41
522.15	1785.83
522.35	1775.59
522.55	1804.26
522.75	1834.98
522.95	1812.45
523.14	1822.69
523.34	1834.98
523.54	1841.12
523.74	1892.32
523.94	1898.47
524.14	1695.72
524.34	1816.55
524.54	1910.75
524.73	1816.55
524.93	1888.23
525.13	1882.08
525.33	1751.01
525.53	1978.34
525.73	1851.36
525.93	1818.60
526.13	1882.08
526.32	1806.31
526.52	1916.90
526.72	1900.52
526.92	1740.77
527.12	1787.88
527.32	1730.53
527.52	1880.04
527.71	1910.75
527.91	1886.18
528.11	1769.44
528.31	1822.69
528.51	1755.11
528.71	1884.13
528.90	1806.31
529.10	1865.70
529.30	1945.57
529.50	1685.48
529.70	1884.13
529.90	1869.80
530.09	1822.69
530.29	1751.01
530.49	1796.07
530.69	2021.35
530.89	1871.84
531.09	1902.56
531.28	1814.50
531.48	1947.62
531.68	1904.61
531.88	1769.44
532.08	1861.60
532.28	1818.60
532.47	1927.14
532.67	1890.28
532.87	1845.22
533.07	1808.36
533.27	1941.47
533.46	1972.19
533.66	1845.22
533.86	1863.65
534.06	1791.97
534.26	1939.43
534.45	1882.08
534.65	1914.85
534.85	1845.22
535.05	1902.56
535.25	1828.84
535.44	1800.16
535.64	1925.09
535.84	1765.35
536.04	1808.36
536.24	1771.49
536.43	1720.29
536.63	1906.66
536.83	1865.70
537.03	1839.08
537.22	1777.64
537.42	1730.53
537.62	1855.46
537.82	1773.54
538.02	1890.28
538.21	1970.15
538.41	2021.35
538.61	1937.38
538.81	1779.68
539.00	1980.39
539.20	1828.84
539.40	1877.99
539.60	1837.03
539.79	1886.18
539.99	1888.23
540.19	1857.51
540.39	1757.16
540.58	1857.51
540.78	1886.18
540.98	1859.56
541.18	1920.99
541.37	1914.85
541.57	1863.65
541.77	1867.75
541.97	1818.60
542.16	1753.06
542.36	1812.45
542.56	1832.93
542.76	1998.82
542.95	1839.08
543.15	1857.51
543.35	1898.47
543.54	1767.40
543.74	1777.64
543.94	1888.23
544.14	1796.07
544.33	1826.79
544.53	1785.83
544.73	1877.99
544.93	1800.16
545.12	1855.46
545.32	1775.59
545.52	1812.45
545.71	1771.49
545.91	1742.82
546.11	1822.69
546.30	1808.36
546.50	1849.32
546.70	1873.89
546.90	1820.64
547.09	1722.34
547.29	1841.12
547.49	1880.04
547.68	1890.28
547.88	1763.30
548.08	1886.18
548.27	2344.92
548.47	1837.03
548.67	1877.99
548.87	1902.56
549.06	1841.12
549.26	1843.17
549.46	1927.14
549.65	1767.40
549.85	1843.17
550.05	1832.93
550.24	1806.31
550.44	1857.51
550.64	1880.04
550.83	1820.64
551.03	1988.58
551.23	1980.39
551.42	1843.17
551.62	1828.84
551.82	1814.50
552.01	1814.50
552.21	1894.37
552.41	1839.08
552.60	1945.57
552.80	1863.65
553.00	1738.73
553.19	1918.95
553.39	1910.75
553.59	1714.15
553.78	1943.52
553.98	1826.79
554.17	1736.68
554.37	1787.88
554.57	1947.62
554.76	1703.91
554.96	1791.97
555.16	1853.41
555.35	1849.32
555.55	1857.51
555.75	1880.04
555.94	1869.80
556.14	1814.50
556.33	1820.64
556.53	1859.56
556.73	1779.68
556.92	1880.04
557.12	1896.42
557.32	1935.33
557.51	1927.14
557.71	1886.18
557.90	1957.86
558.10	1964.00
558.30	1890.28
558.49	1843.17
558.69	1863.65
558.88	1886.18
559.08	1832.93
559.28	1865.70
559.47	1873.89
559.67	1945.57
559.86	1994.72
560.06	1808.36
560.26	1773.54
560.45	1822.69
560.65	1814.50
560.84	1898.47
561.04	1769.44
561.24	1871.84
561.43	1779.68
561.63	2021.35
561.82	1877.99
562.02	1951.71
562.22	1816.55
562.41	1730.53
562.61	1791.97
562.80	1777.64
563.00	2047.97
563.19	1853.41
563.39	1847.27
563.59	1841.12
563.78	1771.49
563.98	1705.96
564.17	1847.27
564.37	1759.21
564.56	1890.28
564.76	1695.72
564.96	1955.81
565.15	1871.84
565.35	2033.63
565.54	1783.78
565.74	1877.99
565.93	1863.65
566.13	1916.90
566.32	1886.18
566.52	1834.98
566.71	1832.93
566.91	1898.47
567.11	1857.51
567.30	1773.54
567.50	1898.47
567.69	1906.66
567.89	1859.56
568.08	1839.08
568.28	1884.13
568.47	1839.08
568.67	1863.65
568.86	1810.40
569.06	1912.80
569.25	1851.36
569.45	1812.45
569.64	1814.50
569.84	1796.07
570.04	1894.37
570.23	1804.26
570.43	1869.80
570.62	1865.70
570.82	1882.08
571.01	1736.68
571.21	1777.64
571.40	1804.26
571.60	1961.95
571.79	1851.36
571.99	1837.03
572.18	1734.63
572.38	1877.99
572.57	1748.97
572.77	1912.80
572.96	2090.98
573.16	1884.13
573.35	1820.64
573.55	1912.80
573.74	1898.47
573.94	1892.32
574.13	1820.64
574.33	1900.52
574.52	1861.60
574.71	1806.31
574.91	1908.71
575.10	1800.16
575.30	1877.99
575.49	1832.93
575.69	1837.03
575.88	1869.80
576.08	1943.52
576.27	1953.76
576.47	1906.66
576.66	1984.48
576.86	1972.19
577.05	1900.52
577.25	1910.75
577.44	2052.06
577.64	1789.92
577.83	1890.28
578.02	1906.66
578.22	1931.23
578.41	2017.25
578.61	1769.44
578.80	1777.64
579.00	1877.99
579.19	1849.32
579.39	1841.12
579.58	1845.22
579.77	2019.30
579.97	1994.72
580.16	1904.61
580.36	1947.62
580.55	1966.05
580.75	1855.46
580.94	1923.04
581.13	1957.86
581.33	2027.49
581.52	1880.04
581.72	2013.15
581.91	1949.67
582.11	1857.51
582.30	1929.19
582.49	1904.61
582.69	1986.53
582.88	1867.75
583.08	1847.27
583.27	2000.87
583.47	1824.74
583.66	1865.70
583.85	1777.64
584.05	1808.36
584.24	1867.75
584.44	1931.23
584.63	1931.23
584.82	1992.67
585.02	1980.39
585.21	2125.79
585.41	1970.15
585.60	1986.53
585.79	2097.12
585.99	2082.78
586.18	2090.98
586.37	2387.93
586.57	3635.14
586.76	10686.30
586.96	28671.56
587.15	43924.83
587.34	53667.02
587.54	59954.29
587.73	56888.48
587.93	40867.22
588.12	30252.59
588.31	23768.73
588.51	20809.41
588.70	18980.57
588.89	17583.86
589.09	15542.03
589.28	13295.41
589.47	11360.08
589.67	8990.58
589.86	7106.45
590.06	5101.49
590.25	3952.58
590.44	3151.82
590.64	2627.54
590.83	2250.72
591.02	2152.42
591.22	2015.20
591.41	1974.24
591.60	1939.43
591.80	2009.06
591.99	1834.98
592.18	1849.32
592.38	1947.62
592.57	1814.50
592.76	1912.80
592.96	1910.75
593.15	1908.71
593.34	1988.58
593.54	1941.47
593.73	1978.34
593.92	1941.47
594.12	1933.28
594.31	1935.33
594.50	2041.82
594.70	1918.95
594.89	2023.39
595.08	1923.04
595.28	1951.71
595.47	2119.65
595.66	1933.28
595.86	1824.74
596.05	1865.70
596.24	1781.73
596.43	2068.45
596.63	1873.89
596.82	1853.41
597.01	1931.23
597.21	1994.72
597.40	1861.60
597.59	1875.94
597.79	1853.41
597.98	1830.88
598.17	1884.13
598.36	1877.99
598.56	1890.28
598.75	1857.51
598.94	1918.95
599.14	1837.03
599.33	1857.51
599.52	1902.56
599.71	1826.79
599.91	1941.47
600.10	1853.41
600.29	1841.12
600.48	1951.71
600.68	1961.95
600.87	1851.36
601.06	1787.88
601.26	1771.49
601.45	1931.23
601.64	1796.07
601.83	1986.53
602.03	1841.12
602.22	1779.68
602.41	1871.84
602.60	2002.91
602.80	1906.66
602.99	1800.16
603.18	1796.07
603.37	1837.03
603.57	1910.75
603.76	1869.80
603.95	1916.90
604.14	1826.79
604.34	1837.03
604.53	1871.84
604.72	1910.75
604.91	1947.62
605.10	1910.75
605.30	1777.64
605.49	2025.44
605.68	1912.80
605.87	1933.28
606.07	1796.07
606.26	1802.21
606.45	1980.39
606.64	1857.51
606.84	1882.08
607.03	1873.89
607.22	1972.19
607.41	1937.38
607.60	1869.80
607.80	1904.61
607.99	1861.60
608.18	1920.99
608.37	1902.56
608.56	1896.42
608.76	1912.80
608.95	1898.47
609.14	1898.47
609.33	1931.23
609.52	2033.63
609.72	1974.24
609.91	1943.52
610.10	1845.22
610.29	1961.95
610.48	1880.04
610.68	1978.34
610.87	1890.28
611.06	1923.04
611.25	1890.28
611.44	2002.91
611.63	1857.51
611.83	1927.14
612.02	1724.39
612.21	1873.89
612.40	1708.01
612.59	1771.49
612.79	1724.39
612.98	1808.36
613.17	1994.72
613.36	1910.75
613.55	1998.82
613.74	1941.47
613.93	2023.39
614.13	2107.36
614.32	2121.70
614.51	2097.12
614.70	1918.95
614.89	1877.99
615.08	1943.52
615.28	2269.15
615.47	1841.12
615.66	1945.57
615.85	1908.71
616.04	1992.67
616.23	1916.90
616.42	1910.75
616.62	1902.56
616.81	1851.36
617.00	1853.41
617.19	1867.75
617.38	1865.70
617.57	1951.71
617.76	1877.99
617.95	1902.56
618.15	1865.70
618.34	1945.57
618.53	1769.44
618.72	1855.46
618.91	1902.56
619.10	1882.08
619.29	1826.79
619.48	1847.27
619.68	1791.97
619.87	1767.40
620.06	1779.68
620.25	1904.61
620.44	1755.11
620.63	1791.97
620.82	1826.79
621.01	1953.76
621.20	1865.70
621.39	1892.32
621.59	1884.13
621.78	1830.88
621.97	1834.98
622.16	1855.46
622.35	1920.99
622.54	1855.46
622.73	1898.47
622.92	1826.79
623.11	1816.55
623.30	1783.78
623.49	1908.71
623.68	1769.44
623.88	1884.13
624.07	1796.07
624.26	1806.31
624.45	1802.21
624.64	1810.40
624.83	1851.36
625.02	1777.64
625.21	1871.84
625.40	1923.04
625.59	1964.00
625.78	1859.56
625.97	1871.84
626.16	2011.11
626.35	1980.39
626.54	1875.94
626.74	2013.15
626.93	1849.32
627.12	1863.65
627.31	1980.39
627.50	1914.85
627.69	1826.79
627.88	1841.12
628.07	1857.51
628.26	1740.77
628.45	1837.03
628.64	1759.21
628.83	1882.08
629.02	1832.93
629.21	1914.85
629.40	1841.12
629.59	1853.41
629.78	1841.12
629.97	1798.12
630.16	1947.62
630.35	1800.16
630.54	1818.60
630.73	1810.40
630.92	1794.02
631.11	1812.45
631.30	1865.70
631.49	1845.22
631.68	1757.16
631.87	1906.66
632.06	1746.92
632.25	2033.63
632.44	1853.41
632.63	1972.19
632.82	1822.69
633.01	1908.71
633.20	2004.96
633.39	1898.47
633.58	1791.97
633.77	1890.28
633.96	1996.77
634.15	1923.04
634.34	1882.08
634.53	1777.64
634.72	1841.12
634.91	1726.44
635.10	1865.70
635.29	1931.23
635.48	1863.65
635.67	1775.59
635.86	1820.64
636.05	1994.72
636.24	1824.74
636.43	1814.50
636.62	1853.41
636.81	1730.53
637.00	1857.51
637.19	1843.17
637.38	1824.74
637.57	1886.18
637.76	1816.55
637.95	1880.04
638.14	1974.24
638.33	1994.72
638.52	1865.70
638.71	1865.70
638.89	1839.08
639.08	2064.35
639.27	2029.54
639.46	2054.11
639.65	2418.65
639.84	2406.36
640.03	2506.71
640.22	2504.67
640.41	2623.45
640.60	2236.38
640.79	2152.42
640.98	2064.35
641.17	2080.74
641.36	2095.07
641.55	2035.68
641.74	1888.23
641.92	1892.32
642.11	1859.56
642.30	1869.80
642.49	1796.07
642.68	1841.12
642.87	1867.75
643.06	1845.22
643.25	1808.36
643.44	1683.43
643.63	1861.60
643.82	1918.95
644.00	1751.01
644.19	1828.84
644.38	1785.83
644.57	1929.19
644.76	1816.55
644.95	1832.93
645.14	1820.64
645.33	1837.03
645.52	1826.79
645.71	1736.68
645.89	1744.87
646.08	1818.60
646.27	1841.12
646.46	1933.28
646.65	1808.36
646.84	1900.52
647.03	1763.30
647.22	1902.56
647.40	1888.23
647.59	1855.46
647.78	1759.21
647.97	1849.32
648.16	1767.40
648.35	1896.42
648.54	1925.09
648.73	1816.55
648.91	1832.93
649.10	1787.88
649.29	1839.08
649.48	1843.17
649.67	1867.75
649.86	1964.00
650.05	1875.94
650.23	1978.34
650.42	1923.04
650.61	2035.68
650.80	1904.61
650.99	2072.54
651.18	1968.10
651.36	2033.63
651.55	1882.08
651.74	1918.95
651.93	1855.46
652.12	1822.69
652.31	1890.28
652.49	1875.94
652.68	1800.16
652.87	1951.71
653.06	1853.41
653.25	2013.15
653.44	1804.26
653.62	2013.15
653.81	1853.41
654.00	1929.19
654.19	1845.22
654.38	1998.82
654.56	1888.23
654.75	1828.84
654.94	1863.65
655.13	1873.89
655.32	1839.08
655.51	1865.70
655.69	1800.16
655.88	1906.66
656.07	1673.19
656.26	1841.12
656.45	1746.92
656.63	1777.64
656.82	1849.32
657.01	1970.15
657.20	1794.02
657.38	1894.37
657.57	1867.75
657.76	1679.33
657.95	1896.42
658.14	1826.79
658.32	1851.36
658.51	1751.01
658.70	1837.03
658.89	1802.21
659.08	1898.47
659.26	2011.11
659.45	1828.84
659.64	1908.71
659.83	1877.99
660.01	2123.74
660.20	1916.90
660.39	1898.47
660.58	1710.05
660.76	1845.22
660.95	1808.36
661.14	1837.03
661.33	1730.53
661.51	1820.64
661.70	1785.83
661.89	1802.21
662.08	1810.40
662.26	1736.68
662.45	1773.54
662.64	1961.95
662.83	1914.85
663.01	1779.68
663.20	1730.53
663.39	1886.18
663.58	1863.65
663.76	1789.92
663.95	1861.60
664.14	1765.35
664.32	1771.49
664.51	1771.49
664.70	1753.06
664.89	1912.80
665.07	1732.58
665.26	1859.56
665.45	1769.44
665.64	1880.04
665.82	1816.55
666.01	1873.89
666.20	1779.68
666.38	1959.91
666.57	1994.72
666.76	2521.05
666.95	5572.52
667.13	13618.99
667.32	20188.88
667.51	24239.76
667.69	26381.93
667.88	26218.10
668.07	19373.78
668.25	14524.19
668.44	11943.75
668.63	10272.61
668.81	8877.94
669.00	7919.50
669.19	7079.83
669.38	6219.68
669.56	5402.54
669.75	4388.80
669.94	3741.64
670.12	3018.71
670.31	2645.98
670.50	2418.65
670.68	2172.89
670.87	1961.95
671.06	1933.28
671.24	1892.32
671.43	2015.20
671.62	2029.54
671.80	1925.09
671.99	1933.28
672.18	1910.75
672.36	1931.23
672.55	1800.16
672.74	1863.65
672.92	1816.55
673.11	1834.98
673.29	1787.88
673.48	1884.13
673.67	1849.32
673.85	1865.70
674.04	1800.16
674.23	1892.32
674.41	1949.67
674.60	1798.12
674.79	1746.92
674.97	1763.30
675.16	1955.81
675.34	1892.32
675.53	1732.58
675.72	1824.74
675.90	1890.28
676.09	1751.01
676.28	1888.23
676.46	1785.83
676.65	1914.85
676.83	1701.86
677.02	1826.79
677.21	1834.98
677.39	1871.84
677.58	1798.12
677.77	1798.12
677.95	1789.92
678.14	1775.59
678.32	1724.39
678.51	1777.64
678.70	1976.29
678.88	1757.16
679.07	1845.22
679.25	1841.12
679.44	1771.49
679.63	1720.29
679.81	1802.21
680.00	1947.62
680.18	1863.65
680.37	1925.09
680.55	1863.65
680.74	1751.01
680.93	1773.54
681.11	1896.42
681.30	1865.70
681.48	1841.12
681.67	1843.17
681.85	1824.74
682.04	1769.44
682.23	1877.99
682.41	1875.94
682.60	1828.84
682.78	1867.75
682.97	1861.60
683.15	1834.98
683.34	1888.23
683.53	1923.04
683.71	1740.77
683.90	1894.37
684.08	1851.36
684.27	1820.64
684.45	1824.74
684.64	1896.42
684.82	1865.70
685.01	1896.42
685.19	1837.03
685.38	1869.80
685.57	1834.98
685.75	1763.30
685.94	1775.59
686.12	1710.05
686.31	1773.54
686.49	1929.19
686.68	1601.51
686.86	1789.92
687.05	1822.69
687.23	1894.37
687.42	1814.50
687.60	1730.53
687.79	1951.71
687.97	1867.75
688.16	1923.04
688.34	1896.42
688.53	1701.86
688.71	1912.80
688.90	1839.08
689.08	1853.41
689.27	1798.12
689.45	1880.04
689.64	1849.32
689.82	1941.47
690.01	1779.68
690.19	1812.45
690.38	1818.60
690.56	1900.52
690.75	1734.63
690.93	1738.73
691.12	1818.60
691.30	1843.17
691.49	1810.40
691.67	1816.55
691.86	1951.71
692.04	1785.83
692.23	1800.16
692.41	1845.22
692.60	2011.11
692.78	1955.81
692.97	1861.60
693.15	1910.75
693.34	2066.40
693.52	1949.67
693.71	1789.92
693.89	1843.17
694.08	1726.44
694.26	1857.51
694.44	1896.42
694.63	1892.32
694.81	1812.45
695.00	1820.64
695.18	1880.04
695.37	1996.77
695.55	1859.56
695.74	1779.68
695.92	1712.10
696.10	1822.69
696.29	1726.44
696.47	1777.64
696.66	1798.12
696.84	1785.83
697.03	1849.32
697.21	1910.75
697.40	2406.36
697.58	1882.08
697.76	1781.73
697.95	1714.15
698.13	1718.25
698.32	1761.25
698.50	1830.88
698.68	1859.56
698.87	1777.64
699.05	1802.21
699.24	1865.70
699.42	1730.53
699.61	1837.03
699.79	1861.60
699.97	1923.04
700.16	1708.01
700.34	1796.07
700.53	1853.41
700.71	1830.88
700.89	1892.32
701.08	1816.55
701.26	1826.79
701.45	2275.29
701.63	1798.12
701.81	1875.94
702.00	1853.41
702.18	1826.79
702.37	1812.45
702.55	1953.76
702.73	2025.44
702.92	2041.82
703.10	2129.89
703.28	2099.17
703.47	1957.86
703.65	1974.24
703.84	2013.15
704.02	1906.66
704.20	1961.95
704.39	1943.52
704.57	1871.84
704.75	1908.71
704.94	2007.01
705.12	1888.23
705.30	2076.64
705.49	3020.75
705.67	7284.62
705.86	16267.02
706.04	21878.45
706.22	25622.14
706.41	27606.62
706.59	26031.73
706.77	19089.12
706.96	14597.92
707.14	12422.98
707.32	10919.77
707.51	9482.10
707.69	8173.44
707.87	6813.59
708.06	5400.49
708.24	4257.73
708.42	3293.13
708.61	2840.53
708.79	2279.39
708.97	2125.79
709.16	2076.64
709.34	1867.75
709.52	1914.85
709.71	1857.51
709.89	1822.69
710.07	1808.36
710.26	1773.54
710.44	1855.46
710.62	2007.01
710.80	1757.16
710.99	1923.04
711.17	1861.60
711.35	1753.06
711.54	1837.03
711.72	1990.63
711.90	1890.28
712.09	1890.28
712.27	1822.69
712.45	1941.47
712.63	1796.07
712.82	1888.23
713.00	1822.69
713.18	1861.60
713.37	1849.32
713.55	1906.66
713.73	1847.27
713.91	1824.74
714.10	1753.06
714.28	1822.69
714.46	1710.05
714.65	1908.71
714.83	1830.88
715.01	1781.73
715.19	1890.28
715.38	1703.91
715.56	1865.70
715.74	1769.44
715.92	1845.22
716.11	1867.75
716.29	1648.61
716.47	1791.97
716.65	1738.73
716.84	1714.15
717.02	1880.04
717.20	1748.97
717.38	1767.40
717.57	1816.55
717.75	1839.08
717.93	1761.25
718.11	1910.75
718.30	1734.63
718.48	1845.22
718.66	1906.66
718.84	1810.40
719.03	1775.59
719.21	1740.77
719.39	1908.71
719.57	1822.69
719.75	1839.08
719.94	1736.68
720.12	1804.26
720.30	1789.92
720.48	1884.13
720.67	1804.26
720.85	1744.87
721.03	1779.68
721.21	1806.31
721.39	1867.75
721.58	1828.84
721.76	1837.03
721.94	1826.79
722.12	1865.70
722.30	1816.55
722.49	1759.21
722.67	1859.56
722.85	1853.41
723.03	1746.92
723.21	1806.31
723.40	1847.27
723.58	1877.99
723.76	1853.41
723.94	1974.24
724.12	1851.36
724.30	1947.62
724.49	1988.58
724.67	1859.56
724.85	1964.00
725.03	1789.92
725.21	1832.93
725.40	1931.23
725.58	1791.97
725.76	1861.60
725.94	1875.94
726.12	1787.88
726.30	1826.79
726.49	1820.64
726.67	1808.36
726.85	1869.80
727.03	2007.01
727.21	2656.22
727.39	4272.06
727.57	5601.19
727.76	6295.46
727.94	6789.02
728.12	6803.35
728.30	5894.05
728.48	4687.80
728.66	4186.05
728.84	3704.78
729.03	3354.57
729.21	3002.32
729.39	2539.48
729.57	2213.85
729.75	2029.54
729.93	2004.96
730.11	1834.98
730.30	1849.32
730.48	1851.36
730.66	1902.56
730.84	1861.60
731.02	1828.84
731.20	1837.03
731.38	1742.82
731.56	1734.63
731.74	1728.49
731.93	1787.88
732.11	1759.21
732.29	1826.79
732.47	1818.60
732.65	1798.12
732.83	1890.28
733.01	1820.64
733.19	1791.97
733.37	1828.84
733.56	1755.11
733.74	1757.16
733.92	1914.85
734.10	1812.45
734.28	1851.36
734.46	1695.72
734.64	1714.15
734.82	1826.79
735.00	1755.11
735.18	1814.50
735.36	1826.79
735.54	1802.21
735.73	1791.97
735.91	1822.69
736.09	1863.65
736.27	1828.84
736.45	1824.74
736.63	1744.87
736.81	1785.83
736.99	1896.42
737.17	1918.95
737.35	1712.10
737.53	1839.08
737.71	1771.49
737.89	1869.80
738.07	1763.30
738.25	1730.53
738.43	1746.92
738.61	1777.64
738.80	1697.77
738.98	1720.29
739.16	1812.45
739.34	1744.87
739.52	1886.18
739.70	1781.73
739.88	1927.14
740.06	1849.32
740.24	1683.43
740.42	1898.47
740.60	1742.82
740.78	1804.26
740.96	1681.38
741.14	1761.25
741.32	1789.92
741.50	1820.64
741.68	1877.99
741.86	1996.77
742.04	1865.70
742.22	1769.44
742.40	1822.69
742.58	1847.27
742.76	1753.06
742.94	1884.13
743.12	1716.20
743.30	1834.98
743.48	1853.41
743.66	1865.70
743.84	1877.99
744.02	1828.84
744.20	1765.35
744.38	1701.86
744.56	1808.36
744.74	1896.42
744.92	1837.03
745.10	1988.58
745.28	1845.22
745.46	1927.14
745.64	1804.26
745.82	1939.43
746.00	1783.78
746.18	1841.12
746.36	1798.12
746.54	1818.60
746.72	1837.03
746.90	1757.16
747.08	1839.08
747.26	1759.21
747.44	1904.61
747.62	1884.13
747.80	1841.12
747.98	1927.14
748.15	1779.68
748.33	1929.19
748.51	1708.01
748.69	1855.46
748.87	1779.68
749.05	1851.36
749.23	1863.65
749.41	1855.46
749.59	1695.72
749.77	1914.85
749.95	1771.49
750.13	1755.11
750.31	1867.75
750.49	1744.87
750.67	1898.47
750.85	1914.85
751.03	1767.40
751.20	1955.81
751.38	1816.55
751.56	1716.20
751.74	1828.84
751.92	1851.36
752.10	1650.66
752.28	1867.75
752.46	1738.73
752.64	1775.59
752.82	1812.45
753.00	1937.38
753.18	1826.79
753.35	1843.17
753.53	1822.69
753.71	1822.69
753.89	1980.39
754.07	1804.26
754.25	1877.99
754.43	1726.44
754.61	1808.36
754.79	1824.74
754.97	1814.50
755.14	1906.66
755.32	1785.83
755.50	1830.88
755.68	1861.60
755.86	1753.06
756.04	1720.29
756.22	1730.53
756.40	1857.51
756.57	1882.08
756.75	1744.87
756.93	1863.65
757.11	1867.75
757.29	1681.38
757.47	1806.31
757.65	1744.87
757.82	1626.09
758.00	1722.34
758.18	1865.70
758.36	1720.29
758.54	1847.27
758.72	1761.25
758.90	1882.08
759.07	1882.08
759.25	1810.40
759.43	1824.74
759.61	1673.19
759.79	2406.36
759.97	1861.60
760.15	1718.25
760.32	1771.49
760.50	1771.49
760.68	1968.10
760.86	1681.38
761.04	1908.71
761.22	1847.27
761.39	1783.78
761.57	1826.79
761.75	1798.12
761.93	1882.08
762.11	1761.25
762.28	1824.74
762.46	1724.39
762.64	1849.32
762.82	1740.77
763.00	1759.21
763.18	1904.61
763.35	1746.92
763.53	1845.22
763.71	1796.07
763.89	1869.80
764.07	1794.02
764.24	1900.52
764.42	1888.23
764.60	1753.06
764.78	1855.46
764.96	1867.75
765.13	1953.76
765.31	1728.49
765.49	1837.03
765.67	1742.82
765.84	1816.55
766.02	1751.01
766.20	1691.62
766.38	1875.94
766.56	1822.69
766.73	1882.08
766.91	1783.78
767.09	1791.97
767.27	1853.41
767.44	1742.82
767.62	1791.97
767.80	1855.46
767.98	1798.12
768.15	1851.36
768.33	1802.21
768.51	1853.41
768.69	1849.32
768.87	1865.70
769.04	1822.69
769.22	1945.57
769.40	1912.80
769.58	1949.67
769.75	1849.32
769.93	1929.19
770.11	1753.06
770.28	1759.21
770.46	1816.55
770.64	1837.03
770.82	1820.64
770.99	1886.18
771.17	1906.66
771.35	1830.88
771.53	1845.22
771.70	1734.63
771.88	1783.78
772.06	1798.12
772.23	1769.44
772.41	1824.74
772.59	1802.21
772.77	1693.67
772.94	1736.68
773.12	1800.16
773.30	1767.40
773.47	1777.64
773.65	1669.09
773.83	1902.56
774.01	1837.03
774.18	1693.67
774.36	1802.21
774.54	1738.73
774.71	1773.54
774.89	1724.39
775.07	1791.97
775.24	1765.35
775.42	1796.07
775.60	1918.95
775.78	1757.16
775.95	1773.54
776.13	1769.44
776.31	1714.15
776.48	1712.10
776.66	1927.14
776.84	1787.88
777.01	1712.10
777.19	1767.40
777.37	1740.77
777.54	1808.36
777.72	1925.09
777.90	1830.88
778.07	1763.30
778.25	1953.76
778.43	1849.32
778.60	1771.49
778.78	1853.41
778.96	1849.32
779.13	1740.77
779.31	1873.89
779.49	1849.32
779.66	1839.08
779.84	1828.84
780.01	1779.68
780.19	1800.16
780.37	1877.99
780.54	1804.26
780.72	1785.83
780.90	1787.88
781.07	1726.44
781.25	1759.21
781.43	1826.79
781.60	1814.50
781.78	1884.13
781.95	1798.12
782.13	1771.49
782.31	1789.92
782.48	1695.72
782.66	1779.68
782.83	1927.14
783.01	1765.35
783.19	1759.21
783.36	1783.78
783.54	1796.07
783.72	1800.16
783.89	1748.97
784.07	1779.68
784.24	1816.55
784.42	1902.56
784.60	1775.59
784.77	1804.26
784.95	1687.53
785.12	1767.40
785.30	1826.79
785.47	1783.78
785.65	1691.62
785.83	1847.27
786.00	1777.64
786.18	1824.74
786.35	1714.15
786.53	1796.07
786.71	1857.51
786.88	1871.84
787.06	1859.56
787.23	1767.40
787.41	1779.68
787.58	1804.26
787.76	1802.21
787.94	1837.03
788.11	1884.13
788.29	1769.44
788.46	1775.59
788.64	1740.77
788.81	1839.08
788.99	1804.26
789.16	1705.96
789.34	1781.73
789.52	1705.96
789.69	1771.49
789.87	1699.81
790.04	1755.11
790.22	1796.07
790.39	1927.14
790.57	1683.43
790.74	1763.30
790.92	1806.31
791.09	1742.82
791.27	1773.54
791.44	1914.85
791.62	1810.40
791.79	1863.65
791.97	1806.31
792.15	1984.48
792.32	1869.80
792.50	1845.22
792.67	1886.18
792.85	1896.42
793.02	1867.75
793.20	1806.31
793.37	1595.37
793.55	1822.69
793.72	1720.29
793.90	1812.45
794.07	1787.88
794.25	1730.53
794.42	1759.21
794.60	1828.84
794.77	1886.18
794.95	1857.51
795.12	1832.93
795.30	1839.08
795.47	1742.82
795.65	1968.10
795.82	1873.89
796.00	1775.59
796.17	1765.35
796.34	1830.88
796.52	1800.16
796.69	1789.92
796.87	1826.79
797.04	1898.47
797.22	1880.04
797.39	1820.64
797.57	1867.75
797.74	1824.74
797.92	1810.40
798.09	1746.92
798.27	1871.84
798.44	1765.35
798.62	1834.98
798.79	1746.92
798.96	1777.64
799.14	1849.32
799.31	2004.96
799.49	1859.56
799.66	1746.92
799.84	1834.98
800.01	1777.64
800.19	1800.16
800.36	1646.57
800.53	1880.04
800.71	1843.17
800.88	1929.19
801.06	1783.78
801.23	1781.73
801.41	1804.26
801.58	1834.98
801.75	1804.26
801.93	1769.44
802.10	1853.41
802.28	1834.98
802.45	1769.44
802.63	1861.60
802.80	1902.56
802.97	1806.31
803.15	1769.44
803.32	1746.92
803.50	1847.27
803.67	1738.73
803.84	1742.82
804.02	1847.27
804.19	1761.25
804.37	1744.87
804.54	1679.33
804.71	1794.02
804.89	1794.02
805.06	1685.48
805.24	1736.68
805.41	1804.26
805.58	1748.97
805.76	1957.86
805.93	1841.12
806.10	1947.62
806.28	1828.84
806.45	1804.26
806.63	1812.45
806.80	1800.16
806.97	1843.17
807.15	1822.69
807.32	1851.36
807.49	1814.50
807.67	1806.31
807.84	1802.21
808.01	1738.73
808.19	1933.28
808.36	1902.56
808.54	1689.57
808.71	1761.25
808.88	1804.26
809.06	1832.93
809.23	1894.37
809.40	1837.03
809.58	1847.27
809.75	1794.02
809.92	1740.77
810.10	1957.86
810.27	1796.07
810.44	1855.46
810.62	1787.88
810.79	1865.70
810.96	1800.16
811.14	1753.06
811.31	1871.84
811.48	1808.36
811.66	1800.16
811.83	1853.41
812.00	1824.74
812.18	1808.36
812.35	1986.53
812.52	1806.31
812.69	1740.77
812.87	1867.75
813.04	1755.11
813.21	1781.73
813.39	1771.49
813.56	1718.25
813.73	1851.36
813.91	1828.84
814.08	1877.99
814.25	1904.61
814.42	1748.97
814.60	1755.11
814.77	1781.73
814.94	1841.12
815.12	1865.70
815.29	1910.75
815.46	1740.77
815.63	1898.47
815.81	1867.75
815.98	1787.88
816.15	1802.21
816.33	1781.73
816.50	1726.44
816.67	1816.55
816.84	1820.64
817.02	1771.49
817.19	1808.36
817.36	1931.23
817.53	1933.28
817.71	1816.55
817.88	1818.60
818.05	1798.12
818.22	1675.24
818.40	1853.41
818.57	1796.07
818.74	1849.32
818.91	1726.44
819.09	1857.51
819.26	1857.51
819.43	1765.35
819.60	1804.26
819.78	1820.64
819.95	1927.14
820.12	1681.38
820.29	1849.32
820.47	1810.40
820.64	1767.40
820.81	1740.77
820.98	1736.68
821.15	1837.03
821.33	1863.65
821.50	1712.10
821.67	1816.55
821.84	1742.82
822.02	1830.88
822.19	1873.89
822.36	1800.16
822.53	1785.83
822.70	1732.58
822.88	1834.98
823.05	1851.36
823.22	1800.16
823.39	1894.37
823.56	1781.73
823.74	1843.17
823.91	1753.06
824.08	1769.44
824.25	1777.64
824.42	1906.66
824.60	1734.63
824.77	1804.26
824.94	1771.49
825.11	1837.03
825.28	1714.15
825.45	1791.97
825.63	1832.93
825.80	1763.30
825.97	1824.74
826.14	1808.36
826.31	1763.30
826.48	1853.41
826.66	1783.78
826.83	1806.31
827.00	1761.25
827.17	1691.62
827.34	1777.64
827.51	1822.69
827.69	1701.86
827.86	1720.29
828.03	1826.79
828.20	1830.88
828.37	1804.26
828.54	1861.60
828.71	1828.84
828.89	1927.14
829.06	1869.80
829.23	1910.75
829.40	1769.44
829.57	1794.02
829.74	1857.51
829.91	1779.68
830.09	1802.21
830.26	1855.46
830.43	1918.95
830.60	1877.99
830.77	1841.12
830.94	1843.17
831.11	1851.36
831.28	1755.11
831.46	1828.84
831.63	1853.41
831.80	1857.51
831.97	1804.26
832.14	1699.81
832.31	1847.27
832.48	1796.07
832.65	1873.89
832.82	1751.01
832.99	1822.69
833.17	1759.21
833.34	1853.41
833.51	1896.42
833.68	1716.20
833.85	1896.42
834.02	1761.25
834.19	1763.30
834.36	1804.26
834.53	1740.77
834.70	1880.04
834.87	1886.18
835.04	1794.02
835.22	1748.97
835.39	1849.32
835.56	1714.15
835.73	1744.87
835.90	1853.41
836.07	1763.30
836.24	1830.88
836.41	1738.73
836.58	1744.87
836.75	1867.75
836.92	1894.37
837.09	1712.10
837.26	1900.52
837.43	1880.04
837.60	1929.19
837.77	1802.21
837.94	1880.04
838.12	1892.32
838.29	1779.68
838.46	1791.97
838.63	1718.25
838.80	1947.62
838.97	1912.80
839.14	1898.47
839.31	1810.40
839.48	1853.41
839.65	1857.51
839.82	1886.18
839.99	1816.55
840.16	1824.74
840.33	1832.93
840.50	1783.78
840.67	1800.16
840.84	1662.95
841.01	1796.07
841.18	1748.97
841.35	1791.97
841.52	1822.69
841.69	1923.04
841.86	1880.04
842.03	1728.49
842.20	1857.51
842.37	1796.07
842.54	1767.40
842.71	1816.55
842.88	1748.97
843.05	1888.23
843.22	1806.31
843.39	1837.03
843.56	1812.45
843.73	1755.11
843.90	1826.79
844.07	1742.82
844.24	1894.37
844.41	1865.70
844.58	1828.84
844.75	1855.46
844.92	1863.65
845.09	1787.88
845.26	1845.22
845.43	1886.18
845.60	1830.88
845.77	1828.84
845.94	1849.32
846.10	1884.13
846.27	1757.16
846.44	1802.21
846.61	1679.33
846.78	1841.12
846.95	1871.84
847.12	1855.46
847.29	1824.74
847.46	1812.45
847.63	1882.08
847.80	1734.63
847.97	1818.60
848.14	1945.57
848.31	1775.59
848.48	1734.63
848.65	1789.92
848.82	1767.40
848.98	1929.19
849.15	1828.84
849.32	1877.99
849.49	1845.22
849.66	1882.08
849.83	1865.70
850.00	1722.34
850.17	1839.08
850.34	1736.68
850.51	1785.83
850.68	1779.68
850.85	1980.39
851.01	1853.41
851.18	1789.92
851.35	1775.59
851.52	1867.75
851.69	1890.28
851.86	1708.01
852.03	1820.64
852.20	1839.08
852.37	1853.41
852.53	1716.20
852.70	1861.60
852.87	1763.30
853.04	1871.84
853.21	1742.82
853.38	1771.49
853.55	1877.99
853.72	1851.36
853.89	1712.10
854.05	1710.05
854.22	1744.87
854.39	1806.31
854.56	1847.27
854.73	1855.46
854.90	1734.63
855.07	1882.08
855.23	1773.54
855.40	1796.07
855.57	1755.11
855.74	1693.67
855.91	1976.29
856.08	1751.01
856.25	1769.44
856.41	1773.54
856.58	1761.25
856.75	1859.56
856.92	1783.78
857.09	1892.32
857.26	1693.67
857.42	1722.34
857.59	1857.51
857.76	1767.40
857.93	1816.55
858.10	1816.55
858.27	1720.29
858.43	1818.60
858.60	1673.19
858.77	1755.11
858.94	1791.97
859.11	1796.07
859.27	1779.68
859.44	1771.49
859.61	1964.00
859.78	1783.78
859.95	1798.12
860.12	1791.97
860.28	2031.58
860.45	1964.00
860.62	1785.83
860.79	1775.59
860.95	1800.16
861.12	1705.96
861.29	1767.40
861.46	1742.82
861.63	1794.02
861.79	1853.41
861.96	1687.53
862.13	1736.68
862.30	1873.89
862.47	1726.44
862.63	1816.55
862.80	1865.70
862.97	1822.69
863.14	1847.27
863.30	1798.12
863.47	1759.21
863.64	1939.43
863.81	1832.93
863.97	1724.39
864.14	1841.12
864.31	1826.79
864.48	1853.41
864.65	1847.27
864.81	1863.65
864.98	1824.74
865.15	1796.07
865.32	1857.51
865.48	1877.99
865.65	1884.13
865.82	1767.40
865.98	1830.88
866.15	1841.12
866.32	1775.59
866.49	1751.01
866.65	1929.19
866.82	1765.35
866.99	1736.68
867.16	1763.30
867.32	1722.34
867.49	1851.36
867.66	1843.17
867.83	1794.02
867.99	1744.87
868.16	1820.64
868.33	1712.10
868.49	1818.60
868.66	1742.82
868.83	1896.42
868.99	1826.79
869.16	1765.35
869.33	1929.19
869.50	1918.95
869.66	1791.97
869.83	1822.69
870.00	1720.29
870.16	1886.18
870.33	1812.45
870.50	1861.60
870.66	1851.36
870.83	1912.80
871.00	1873.89
871.17	1804.26
871.33	1873.89
871.50	1746.92
871.67	1814.50
871.83	1802.21
872.00	1935.33
872.17	1830.88
872.33	1904.61
872.50	1884.13
872.67	1845.22
872.83	1787.88
873.00	1851.36
873.17	1789.92
873.33	1886.18
873.50	1806.31
873.67	1748.97
873.83	1746.92
874.00	1769.44
874.16	1884.13
874.33	1824.74
874.50	1679.33
874.66	1910.75
874.83	1761.25
875.00	1857.51
875.16	1920.99
875.33	1865.70
875.50	1652.71
875.66	1808.36
875.83	1863.65
875.99	1886.18
876.16	1742.82
876.33	1714.15
876.49	1794.02
876.66	1779.68
876.83	1826.79
876.99	1726.44
877.16	1814.50
877.32	1832.93
877.49	1839.08
877.66	1890.28
877.82	1863.65
877.99	1882.08
878.15	1916.90
878.32	1816.55
878.49	1820.64
878.65	1728.49
878.82	1888.23
878.98	1769.44
879.15	1902.56
879.32	1886.18
879.48	1783.78
879.65	1794.02
879.81	1736.68
879.98	1748.97
880.15	1812.45
880.31	1918.95
880.48	1861.60
880.64	1890.28
880.81	1857.51
880.97	1822.69
881.14	1800.16
881.31	1777.64
881.47	1914.85
881.64	1781.73
881.80	1773.54
881.97	1794.02
882.13	1855.46
882.30	1789.92
882.47	1800.16
882.63	1789.92
882.80	1746.92
882.96	1824.74
883.13	1902.56
883.29	1736.68
883.46	1812.45
883.62	1902.56
883.79	1806.31
883.95	1869.80
884.12	1839.08
884.29	1828.84
884.45	1841.12
884.62	1902.56
884.78	1738.73
884.95	1900.52
885.11	1742.82
885.28	1906.66
885.44	1808.36
885.61	1871.84
885.77	1894.37
885.94	1808.36
886.10	1828.84
886.27	1787.88
886.43	1931.23
886.60	1873.89
886.76	1851.36
886.93	1742.82
887.09	1855.46
887.26	1736.68
887.42	1765.35
887.59	1877.99
887.75	1957.86
887.92	2009.06
888.08	1746.92
888.25	1849.32
888.41	1843.17
888.58	1853.41
888.74	1765.35
888.91	1728.49
>>>>>End Processed Spectral Data<<<<<
