SpectraSuite Data File
++++++++++++++++++++++++++++++++++++
Date: Wed May 04 21:12:57 CEST 2016
User: root
Dark Spectrum Present: No
Reference Spectrum Present: No
Number of Sampled Component Spectra: 1
Spectrometers: USB4C02835
Integration Time (usec): 100000 (USB4C02835)
Spectra Averaged: 1 (USB4C02835)
Boxcar Smoothing: 0 (USB4C02835)
Correct for Electrical Dark: No (USB4C02835)
Strobe/Lamp Enabled: No (USB4C02835)
Correct for Detector Non-linearity: No (USB4C02835)
Correct for Stray Light: No (USB4C02835)
Number of Pixels in Processed Spectrum: 3648
>>>>>Begin Processed Spectral Data<<<<<
177.47	1550.31
177.69	1550.31
177.91	1550.31
178.13	1550.31
178.36	1513.45
178.58	1746.92
178.80	1736.68
179.02	1740.77
179.24	1738.73
179.46	1779.68
179.68	1890.28
179.90	1771.49
180.13	1837.03
180.35	1720.29
180.57	1783.78
180.79	1890.28
181.01	1775.59
181.23	1869.80
181.45	1839.08
181.67	1839.08
181.90	1877.99
182.12	1767.40
182.34	1755.11
182.56	1777.64
182.78	1796.07
183.00	1787.88
183.22	1767.40
183.44	1753.06
183.66	1904.61
183.89	1861.60
184.11	1783.78
184.33	1677.29
184.55	1845.22
184.77	1824.74
184.99	1802.21
185.21	1810.40
185.43	1892.32
185.65	1775.59
185.87	1818.60
186.10	1908.71
186.32	1970.15
186.54	1767.40
186.76	1796.07
186.98	1839.08
187.20	1800.16
187.42	1773.54
187.64	1806.31
187.86	1812.45
188.08	1834.98
188.30	1718.25
188.52	1837.03
188.75	1845.22
188.97	1945.57
189.19	1751.01
189.41	1722.34
189.63	1804.26
189.85	1806.31
190.07	1779.68
190.29	1744.87
190.51	1834.98
190.73	1677.29
190.95	1908.71
191.17	1787.88
191.39	1753.06
191.61	1798.12
191.84	1841.12
192.06	1832.93
192.28	1687.53
192.50	2002.91
192.72	1824.74
192.94	1748.97
193.16	1865.70
193.38	1857.51
193.60	1724.39
193.82	1818.60
194.04	1900.52
194.26	1828.84
194.48	1859.56
194.70	1746.92
194.92	1720.29
195.14	1869.80
195.36	1802.21
195.58	1824.74
195.80	1845.22
196.02	1802.21
196.24	1730.53
196.46	1875.94
196.69	1685.48
196.91	1941.47
197.13	1818.60
197.35	1783.78
197.57	1978.34
197.79	1837.03
198.01	1775.59
198.23	1816.55
198.45	1777.64
198.67	1683.43
198.89	1796.07
199.11	1849.32
199.33	1740.77
199.55	1636.33
199.77	1808.36
199.99	1904.61
200.21	1787.88
200.43	1853.41
200.65	1816.55
200.87	1669.09
201.09	1822.69
201.31	1794.02
201.53	1873.89
201.75	1779.68
201.97	1791.97
202.19	1890.28
202.41	1902.56
202.63	1927.14
202.85	1855.46
203.07	1869.80
203.29	1865.70
203.51	1726.44
203.73	1748.97
203.95	2060.26
204.17	1806.31
204.39	1882.08
204.61	1826.79
204.83	1798.12
205.05	1832.93
205.27	1904.61
205.49	1902.56
205.71	1818.60
205.93	1712.10
206.15	1730.53
206.37	1787.88
206.59	1869.80
206.81	1773.54
207.03	1724.39
207.25	1710.05
207.47	1906.66
207.69	1773.54
207.91	1875.94
208.13	1923.04
208.34	1773.54
208.56	1722.34
208.78	1861.60
209.00	1755.11
209.22	1785.83
209.44	1796.07
209.66	1744.87
209.88	1779.68
210.10	1796.07
210.32	1849.32
210.54	1906.66
210.76	1814.50
210.98	1900.52
211.20	1738.73
211.42	1800.16
211.64	1890.28
211.86	1785.83
212.08	1832.93
212.30	1847.27
212.52	1769.44
212.74	1845.22
212.96	1880.04
213.17	1847.27
213.39	1828.84
213.61	1951.71
213.83	1937.38
214.05	1798.12
214.27	1873.89
214.49	1798.12
214.71	1777.64
214.93	1853.41
215.15	1888.23
215.37	1810.40
215.59	1710.05
215.81	1814.50
216.03	1886.18
216.24	1769.44
216.46	1796.07
216.68	1880.04
216.90	1785.83
217.12	1812.45
217.34	1800.16
217.56	1851.36
217.78	1959.91
218.00	1861.60
218.22	1875.94
218.44	1798.12
218.66	1816.55
218.87	1914.85
219.09	1740.77
219.31	1847.27
219.53	1865.70
219.75	1738.73
219.97	1806.31
220.19	1816.55
220.41	1787.88
220.63	1906.66
220.85	1877.99
221.06	1816.55
221.28	1783.78
221.50	1880.04
221.72	1834.98
221.94	1791.97
222.16	1896.42
222.38	1841.12
222.60	1794.02
222.82	1804.26
223.03	1861.60
223.25	1763.30
223.47	1826.79
223.69	1984.48
223.91	1871.84
224.13	1802.21
224.35	1796.07
224.57	1779.68
224.78	1849.32
225.00	1791.97
225.22	1742.82
225.44	1757.16
225.66	1834.98
225.88	1849.32
226.10	1886.18
226.32	1861.60
226.53	2002.91
226.75	1853.41
226.97	1804.26
227.19	1822.69
227.41	1746.92
227.63	1800.16
227.85	1667.05
228.06	1849.32
228.28	1886.18
228.50	1869.80
228.72	1765.35
228.94	1814.50
229.16	1681.38
229.37	1716.20
229.59	1712.10
229.81	1855.46
230.03	1824.74
230.25	1787.88
230.47	1751.01
230.69	1728.49
230.90	1859.56
231.12	1839.08
231.34	1804.26
231.56	1935.33
231.78	1783.78
232.00	1761.25
232.21	1818.60
232.43	1699.81
232.65	1656.81
232.87	1877.99
233.09	1744.87
233.30	1710.05
233.52	1816.55
233.74	1830.88
233.96	1763.30
234.18	1826.79
234.40	1806.31
234.61	1959.91
234.83	1728.49
235.05	1771.49
235.27	1929.19
235.49	1886.18
235.70	1806.31
235.92	1871.84
236.14	1781.73
236.36	2037.73
236.58	1724.39
236.79	1769.44
237.01	1746.92
237.23	1796.07
237.45	1873.89
237.67	1708.01
237.88	1810.40
238.10	1974.24
238.32	1773.54
238.54	1822.69
238.76	1789.92
238.97	1757.16
239.19	1804.26
239.41	1892.32
239.63	1875.94
239.85	1828.84
240.06	1853.41
240.28	1759.21
240.50	1822.69
240.72	1818.60
240.93	1765.35
241.15	1853.41
241.37	1771.49
241.59	1996.77
241.81	1791.97
242.02	1794.02
242.24	1863.65
242.46	1847.27
242.68	1714.15
242.89	1857.51
243.11	1841.12
243.33	1787.88
243.55	1794.02
243.76	1877.99
243.98	1826.79
244.20	1830.88
244.42	1771.49
244.64	1806.31
244.85	1712.10
245.07	1787.88
245.29	1808.36
245.51	1798.12
245.72	1824.74
245.94	1853.41
246.16	1855.46
246.38	1896.42
246.59	1826.79
246.81	1820.64
247.03	1800.16
247.24	1693.67
247.46	1804.26
247.68	1820.64
247.90	1712.10
248.11	1855.46
248.33	1855.46
248.55	1837.03
248.77	1800.16
248.98	1873.89
249.20	1900.52
249.42	1873.89
249.64	1851.36
249.85	1759.21
250.07	1787.88
250.29	1871.84
250.50	1906.66
250.72	1699.81
250.94	1804.26
251.16	1992.67
251.37	1861.60
251.59	1861.60
251.81	1814.50
252.02	1918.95
252.24	1873.89
252.46	1875.94
252.68	1800.16
252.89	1728.49
253.11	1677.29
253.33	1953.76
253.54	1902.56
253.76	1748.97
253.98	1806.31
254.20	1744.87
254.41	1665.00
254.63	1791.97
254.85	1761.25
255.06	1818.60
255.28	1808.36
255.50	1796.07
255.71	1751.01
255.93	1753.06
256.15	1769.44
256.36	1802.21
256.58	1773.54
256.80	1822.69
257.02	1837.03
257.23	1787.88
257.45	1802.21
257.67	1834.98
257.88	1791.97
258.10	1834.98
258.32	1851.36
258.53	1871.84
258.75	1916.90
258.97	1751.01
259.18	1781.73
259.40	1832.93
259.62	1927.14
259.83	1814.50
260.05	1929.19
260.27	2125.79
260.48	1894.37
260.70	1787.88
260.92	1697.77
261.13	1771.49
261.35	1798.12
261.57	1931.23
261.78	1732.58
262.00	1826.79
262.22	1914.85
262.43	1800.16
262.65	1798.12
262.86	1814.50
263.08	1984.48
263.30	1828.84
263.51	1724.39
263.73	1755.11
263.95	1906.66
264.16	1763.30
264.38	1736.68
264.60	1859.56
264.81	1839.08
265.03	1851.36
265.25	1888.23
265.46	1796.07
265.68	1841.12
265.89	1902.56
266.11	1769.44
266.33	1914.85
266.54	1873.89
266.76	1736.68
266.98	1890.28
267.19	1937.38
267.41	1843.17
267.62	1804.26
267.84	1689.57
268.06	1822.69
268.27	1875.94
268.49	1873.89
268.70	1839.08
268.92	1775.59
269.14	1728.49
269.35	1771.49
269.57	1824.74
269.79	1824.74
270.00	1814.50
270.22	1947.62
270.43	1781.73
270.65	1628.14
270.87	1804.26
271.08	1824.74
271.30	1923.04
271.51	1816.55
271.73	1796.07
271.95	1882.08
272.16	1779.68
272.38	1851.36
272.59	1767.40
272.81	1859.56
273.02	1914.85
273.24	1877.99
273.46	1906.66
273.67	1773.54
273.89	1789.92
274.10	1667.05
274.32	1824.74
274.54	1847.27
274.75	1824.74
274.97	1681.38
275.18	1863.65
275.40	1832.93
275.61	1806.31
275.83	1869.80
276.05	1783.78
276.26	1812.45
276.48	1898.47
276.69	1779.68
276.91	1751.01
277.12	1845.22
277.34	1875.94
277.55	1841.12
277.77	1841.12
277.99	1746.92
278.20	1720.29
278.42	1705.96
278.63	1763.30
278.85	1757.16
279.06	1693.67
279.28	1857.51
279.49	1810.40
279.71	1837.03
279.93	1798.12
280.14	1755.11
280.36	1771.49
280.57	1826.79
280.79	1957.86
281.00	1757.16
281.22	1761.25
281.43	1884.13
281.65	1679.33
281.86	1751.01
282.08	1890.28
282.29	1949.67
282.51	1812.45
282.73	1718.25
282.94	1734.63
283.16	1867.75
283.37	1953.76
283.59	1916.90
283.80	1849.32
284.02	1843.17
284.23	1955.81
284.45	1767.40
284.66	1703.91
284.88	1804.26
285.09	1871.84
285.31	1908.71
285.52	1853.41
285.74	1687.53
285.95	1855.46
286.17	1851.36
286.38	1961.95
286.60	1804.26
286.81	1789.92
287.03	1822.69
287.24	1751.01
287.46	1814.50
287.67	1810.40
287.89	1912.80
288.10	1769.44
288.32	1814.50
288.53	1830.88
288.75	1771.49
288.96	1826.79
289.18	1781.73
289.39	1832.93
289.61	1830.88
289.82	1929.19
290.04	1996.77
290.25	1759.21
290.47	1800.16
290.68	1787.88
290.90	1871.84
291.11	1742.82
291.33	1877.99
291.54	1859.56
291.76	1826.79
291.97	1867.75
292.18	1804.26
292.40	1775.59
292.61	1746.92
292.83	2002.91
293.04	1863.65
293.26	1720.29
293.47	1791.97
293.69	1675.24
293.90	1740.77
294.12	1869.80
294.33	1808.36
294.55	1822.69
294.76	1826.79
294.97	1906.66
295.19	1925.09
295.40	1783.78
295.62	1873.89
295.83	1787.88
296.05	1796.07
296.26	1902.56
296.48	1710.05
296.69	1837.03
296.90	1757.16
297.12	1867.75
297.33	1871.84
297.55	1877.99
297.76	1810.40
297.98	1880.04
298.19	1765.35
298.41	1832.93
298.62	1781.73
298.83	1949.67
299.05	1865.70
299.26	1785.83
299.48	1791.97
299.69	1882.08
299.90	1853.41
300.12	1726.44
300.33	1828.84
300.55	1818.60
300.76	1837.03
300.98	1804.26
301.19	1845.22
301.40	1755.11
301.62	1730.53
301.83	1877.99
302.05	1847.27
302.26	1765.35
302.47	1875.94
302.69	1738.73
302.90	1775.59
303.12	1665.00
303.33	1826.79
303.54	1888.23
303.76	1789.92
303.97	1847.27
304.19	1941.47
304.40	1730.53
304.61	1826.79
304.83	1888.23
305.04	1888.23
305.26	1877.99
305.47	1845.22
305.68	1785.83
305.90	1787.88
306.11	1830.88
306.33	1744.87
306.54	1724.39
306.75	1781.73
306.97	1695.72
307.18	1718.25
307.39	1783.78
307.61	1818.60
307.82	1861.60
308.04	1832.93
308.25	1708.01
308.46	1884.13
308.68	1798.12
308.89	1804.26
309.10	1925.09
309.32	1851.36
309.53	1775.59
309.74	1804.26
309.96	1785.83
310.17	1927.14
310.39	1800.16
310.60	1886.18
310.81	1808.36
311.03	1757.16
311.24	1892.32
311.45	1802.21
311.67	1904.61
311.88	1896.42
312.09	1769.44
312.31	1763.30
312.52	1822.69
312.73	1759.21
312.95	1724.39
313.16	1771.49
313.37	1818.60
313.59	1824.74
313.80	1800.16
314.01	1943.52
314.23	1791.97
314.44	1722.34
314.65	1710.05
314.87	1767.40
315.08	1785.83
315.29	1863.65
315.51	1746.92
315.72	1757.16
315.93	1939.43
316.15	1882.08
316.36	1718.25
316.57	1822.69
316.79	1863.65
317.00	1882.08
317.21	1857.51
317.43	1787.88
317.64	1867.75
317.85	1857.51
318.07	1757.16
318.28	1849.32
318.49	1945.57
318.70	2164.70
318.92	2033.63
319.13	1982.43
319.34	2000.87
319.56	1939.43
319.77	1986.53
319.98	1939.43
320.20	1961.95
320.41	1888.23
320.62	1900.52
320.83	1845.22
321.05	1978.34
321.26	1886.18
321.47	1787.88
321.69	1904.61
321.90	1767.40
322.11	1794.02
322.32	1787.88
322.54	1877.99
322.75	1800.16
322.96	1976.29
323.18	1746.92
323.39	1730.53
323.60	1751.01
323.81	1918.95
324.03	1736.68
324.24	1830.88
324.45	1822.69
324.66	1853.41
324.88	1757.16
325.09	1902.56
325.30	1845.22
325.52	1853.41
325.73	1849.32
325.94	1753.06
326.15	1640.42
326.37	1777.64
326.58	1812.45
326.79	1970.15
327.00	1691.62
327.22	1814.50
327.43	1800.16
327.64	1753.06
327.85	1902.56
328.07	1751.01
328.28	1861.60
328.49	1804.26
328.70	1873.89
328.92	1802.21
329.13	1710.05
329.34	1841.12
329.55	1920.99
329.76	1855.46
329.98	1712.10
330.19	1900.52
330.40	1822.69
330.61	1783.78
330.83	1843.17
331.04	1765.35
331.25	1775.59
331.46	1777.64
331.68	1738.73
331.89	1855.46
332.10	1720.29
332.31	1781.73
332.52	1806.31
332.74	1902.56
332.95	1726.44
333.16	1751.01
333.37	1814.50
333.58	1785.83
333.80	1845.22
334.01	1726.44
334.22	1787.88
334.43	1751.01
334.64	1763.30
334.86	1734.63
335.07	1751.01
335.28	1949.67
335.49	1689.57
335.70	1849.32
335.92	1884.13
336.13	1953.76
336.34	1908.71
336.55	1890.28
336.76	1775.59
336.98	1716.20
337.19	1769.44
337.40	1888.23
337.61	1925.09
337.82	1710.05
338.04	1939.43
338.25	1703.91
338.46	1726.44
338.67	1781.73
338.88	1812.45
339.09	1746.92
339.31	1826.79
339.52	1732.58
339.73	1757.16
339.94	1816.55
340.15	1820.64
340.36	1767.40
340.58	1755.11
340.79	1710.05
341.00	1923.04
341.21	1742.82
341.42	1931.23
341.63	1746.92
341.85	1898.47
342.06	1830.88
342.27	1804.26
342.48	1920.99
342.69	1708.01
342.90	1849.32
343.12	1832.93
343.33	1769.44
343.54	1837.03
343.75	1947.62
343.96	1785.83
344.17	1742.82
344.38	1851.36
344.60	1765.35
344.81	1761.25
345.02	1859.56
345.23	1877.99
345.44	2072.54
345.65	1843.17
345.86	1761.25
346.07	1798.12
346.29	1783.78
346.50	1865.70
346.71	1880.04
346.92	1896.42
347.13	1986.53
347.34	1873.89
347.55	1834.98
347.76	1814.50
347.98	1769.44
348.19	1818.60
348.40	1832.93
348.61	1791.97
348.82	1871.84
349.03	1853.41
349.24	1777.64
349.45	1955.81
349.66	1781.73
349.88	1806.31
350.09	1800.16
350.30	1875.94
350.51	1837.03
350.72	1818.60
350.93	1857.51
351.14	1781.73
351.35	1875.94
351.56	1927.14
351.77	1839.08
351.99	1880.04
352.20	1898.47
352.41	1912.80
352.62	1671.14
352.83	1822.69
353.04	1767.40
353.25	1783.78
353.46	1847.27
353.67	1859.56
353.88	1771.49
354.09	1837.03
354.30	1812.45
354.52	1845.22
354.73	1804.26
354.94	1800.16
355.15	1841.12
355.36	1918.95
355.57	1820.64
355.78	1916.90
355.99	1748.97
356.20	1834.98
356.41	1896.42
356.62	1787.88
356.83	1834.98
357.04	1814.50
357.25	1693.67
357.46	1851.36
357.68	1757.16
357.89	1710.05
358.10	1861.60
358.31	1771.49
358.52	1810.40
358.73	1714.15
358.94	1779.68
359.15	1804.26
359.36	1818.60
359.57	1863.65
359.78	1785.83
359.99	1875.94
360.20	1787.88
360.41	1742.82
360.62	1837.03
360.83	1882.08
361.04	1822.69
361.25	1896.42
361.46	1890.28
361.67	1808.36
361.88	1834.98
362.09	1900.52
362.30	1837.03
362.51	1884.13
362.72	1841.12
362.93	1873.89
363.14	1916.90
363.35	1849.32
363.56	1753.06
363.78	1834.98
363.99	1839.08
364.20	1800.16
364.41	1832.93
364.62	1904.61
364.83	1796.07
365.04	1843.17
365.25	1816.55
365.46	1939.43
365.67	1796.07
365.88	1818.60
366.09	1798.12
366.30	1800.16
366.51	1787.88
366.72	1738.73
366.93	1822.69
367.14	1779.68
367.35	1884.13
367.56	1824.74
367.77	1871.84
367.98	1804.26
368.18	1724.39
368.39	1880.04
368.60	1730.53
368.81	1822.69
369.02	1880.04
369.23	1775.59
369.44	1769.44
369.65	1767.40
369.86	1896.42
370.07	1902.56
370.28	1759.21
370.49	1769.44
370.70	1832.93
370.91	1834.98
371.12	1712.10
371.33	1951.71
371.54	1796.07
371.75	2004.96
371.96	1730.53
372.17	1863.65
372.38	1908.71
372.59	1802.21
372.80	1867.75
373.01	1800.16
373.22	1800.16
373.43	1808.36
373.64	1757.16
373.85	1890.28
374.06	1904.61
374.26	1908.71
374.47	1830.88
374.68	1880.04
374.89	1777.64
375.10	1781.73
375.31	1910.75
375.52	1871.84
375.73	1853.41
375.94	1777.64
376.15	1892.32
376.36	1832.93
376.57	1826.79
376.78	1812.45
376.99	1861.60
377.20	1904.61
377.40	1783.78
377.61	1929.19
377.82	1761.25
378.03	1894.37
378.24	1869.80
378.45	1865.70
378.66	1847.27
378.87	1685.48
379.08	1738.73
379.29	1783.78
379.50	1822.69
379.71	1802.21
379.91	1882.08
380.12	1759.21
380.33	1804.26
380.54	1824.74
380.75	1845.22
380.96	1791.97
381.17	1910.75
381.38	1904.61
381.59	1931.23
381.80	1804.26
382.00	1982.43
382.21	1826.79
382.42	1941.47
382.63	2031.58
382.84	1939.43
383.05	1890.28
383.26	1941.47
383.47	1863.65
383.68	1847.27
383.88	1861.60
384.09	1837.03
384.30	1857.51
384.51	1861.60
384.72	1718.25
384.93	1746.92
385.14	1759.21
385.35	1914.85
385.55	1763.30
385.76	1939.43
385.97	1753.06
386.18	1687.53
386.39	1810.40
386.60	1861.60
386.81	1900.52
387.02	1822.69
387.22	1791.97
387.43	1830.88
387.64	1953.76
387.85	2002.91
388.06	2211.81
388.27	4106.18
388.48	8869.75
388.68	11741.00
388.89	13905.71
389.10	14751.52
389.31	13014.84
389.52	10286.95
389.73	9148.28
389.93	8238.98
390.14	7546.76
390.35	6838.17
390.56	6252.45
390.77	5093.30
390.98	4179.90
391.18	3074.00
391.39	2502.62
391.60	1986.53
391.81	1951.71
392.02	1865.70
392.23	2052.06
392.43	1839.08
392.64	1841.12
392.85	1804.26
393.06	1939.43
393.27	1855.46
393.47	1753.06
393.68	1820.64
393.89	1796.07
394.10	1892.32
394.31	1857.51
394.52	1759.21
394.72	1779.68
394.93	1886.18
395.14	1818.60
395.35	1888.23
395.56	1767.40
395.76	1861.60
395.97	1888.23
396.18	1992.67
396.39	1964.00
396.60	2238.43
396.80	2117.60
397.01	1945.57
397.22	1947.62
397.43	1996.77
397.64	1894.37
397.84	1984.48
398.05	2029.54
398.26	1834.98
398.47	1871.84
398.67	1857.51
398.88	1751.01
399.09	1890.28
399.30	1789.92
399.51	1841.12
399.71	1769.44
399.92	1877.99
400.13	1894.37
400.34	1810.40
400.54	1794.02
400.75	1927.14
400.96	1800.16
401.17	1927.14
401.37	1875.94
401.58	1871.84
401.79	1869.80
402.00	1949.67
402.21	2179.04
402.41	2209.76
402.62	2250.72
402.83	2310.11
403.04	2222.05
403.24	2318.30
403.45	2011.11
403.66	2033.63
403.87	2097.12
404.07	2035.68
404.28	2072.54
404.49	2017.25
404.70	2004.96
404.90	1961.95
405.11	1808.36
405.32	1918.95
405.52	1755.11
405.73	1820.64
405.94	1851.36
406.15	1832.93
406.35	1886.18
406.56	1853.41
406.77	1804.26
406.98	1865.70
407.18	1765.35
407.39	1951.71
407.60	1787.88
407.80	1828.84
408.01	1751.01
408.22	1886.18
408.43	1724.39
408.63	1871.84
408.84	1900.52
409.05	1824.74
409.25	1794.02
409.46	1806.31
409.67	1810.40
409.88	1859.56
410.08	1906.66
410.29	1755.11
410.50	1812.45
410.70	1902.56
410.91	1681.38
411.12	1814.50
411.32	1896.42
411.53	1802.21
411.74	1935.33
411.95	1974.24
412.15	1861.60
412.36	1884.13
412.57	2017.25
412.77	1990.63
412.98	1859.56
413.19	1839.08
413.39	1949.67
413.60	1880.04
413.81	1914.85
414.01	1832.93
414.22	1925.09
414.43	1908.71
414.63	1861.60
414.84	1886.18
415.05	1804.26
415.25	1814.50
415.46	1865.70
415.67	1757.16
415.87	1794.02
416.08	1843.17
416.29	1771.49
416.49	1820.64
416.70	1796.07
416.91	1814.50
417.11	1820.64
417.32	1855.46
417.53	1867.75
417.73	1822.69
417.94	1828.84
418.15	1800.16
418.35	1800.16
418.56	1830.88
418.77	1984.48
418.97	1816.55
419.18	1761.25
419.38	1716.20
419.59	1798.12
419.80	1902.56
420.00	1810.40
420.21	1843.17
420.42	1904.61
420.62	1847.27
420.83	1826.79
421.04	1775.59
421.24	1714.15
421.45	1834.98
421.65	1785.83
421.86	1837.03
422.07	1824.74
422.27	1939.43
422.48	1783.78
422.69	1820.64
422.89	1730.53
423.10	1791.97
423.30	1714.15
423.51	1824.74
423.72	1834.98
423.92	1935.33
424.13	1685.48
424.33	1806.31
424.54	1775.59
424.75	1834.98
424.95	1908.71
425.16	1847.27
425.36	1834.98
425.57	1886.18
425.78	1798.12
425.98	1902.56
426.19	1871.84
426.39	1761.25
426.60	1806.31
426.81	1910.75
427.01	1875.94
427.22	1783.78
427.42	1697.77
427.63	1785.83
427.83	1884.13
428.04	1957.86
428.25	1945.57
428.45	1923.04
428.66	1916.90
428.86	1785.83
429.07	1880.04
429.28	1849.32
429.48	1771.49
429.69	1839.08
429.89	1859.56
430.10	1722.34
430.30	1853.41
430.51	1957.86
430.71	1775.59
430.92	1804.26
431.13	1849.32
431.33	1861.60
431.54	1738.73
431.74	1914.85
431.95	2013.15
432.15	1714.15
432.36	1925.09
432.56	1902.56
432.77	1941.47
432.98	1951.71
433.18	1880.04
433.39	1802.21
433.59	1771.49
433.80	1923.04
434.00	1964.00
434.21	1839.08
434.41	1748.97
434.62	1959.91
434.82	1716.20
435.03	1736.68
435.23	1888.23
435.44	1763.30
435.64	1787.88
435.85	1828.84
436.06	1894.37
436.26	1853.41
436.47	1785.83
436.67	1796.07
436.88	1843.17
437.08	1904.61
437.29	1888.23
437.49	1818.60
437.70	1916.90
437.90	1912.80
438.11	1933.28
438.31	1898.47
438.52	1945.57
438.72	1970.15
438.93	1998.82
439.13	1986.53
439.34	2009.06
439.54	1871.84
439.75	1929.19
439.95	1916.90
440.16	1839.08
440.36	1871.84
440.57	1853.41
440.77	1802.21
440.98	1830.88
441.18	1863.65
441.39	1771.49
441.59	1783.78
441.80	1996.77
442.00	1880.04
442.21	1875.94
442.41	1712.10
442.62	1865.70
442.82	1857.51
443.02	1816.55
443.23	1894.37
443.43	1837.03
443.64	1908.71
443.84	1814.50
444.05	1957.86
444.25	1820.64
444.46	1843.17
444.66	1904.61
444.87	1955.81
445.07	1791.97
445.28	1767.40
445.48	1939.43
445.69	1941.47
445.89	1972.19
446.09	1898.47
446.30	2035.68
446.50	2551.77
446.71	4179.90
446.91	5109.68
447.12	5871.53
447.32	6221.73
447.53	5857.19
447.73	4720.57
447.93	4280.25
448.14	3827.65
448.34	3612.62
448.55	3239.89
448.75	3286.99
448.96	3147.73
449.16	2756.57
449.36	2535.39
449.57	2185.18
449.77	2054.11
449.98	1894.37
450.18	1880.04
450.39	1951.71
450.59	1853.41
450.79	1812.45
451.00	1804.26
451.20	1910.75
451.41	1884.13
451.61	1826.79
451.81	1822.69
452.02	1847.27
452.22	1800.16
452.43	1861.60
452.63	1886.18
452.84	1822.69
453.04	1841.12
453.24	1769.44
453.45	1751.01
453.65	1794.02
453.86	1849.32
454.06	1812.45
454.26	1841.12
454.47	1785.83
454.67	1945.57
454.87	1845.22
455.08	1857.51
455.28	1939.43
455.49	1906.66
455.69	1724.39
455.89	1951.71
456.10	1955.81
456.30	1849.32
456.51	1841.12
456.71	1806.31
456.91	1812.45
457.12	1828.84
457.32	1892.32
457.52	1712.10
457.73	1816.55
457.93	1804.26
458.14	1720.29
458.34	1759.21
458.54	1816.55
458.75	1763.30
458.95	1898.47
459.15	1886.18
459.36	1890.28
459.56	1918.95
459.76	1996.77
459.97	1869.80
460.17	1832.93
460.37	1914.85
460.58	1822.69
460.78	1834.98
460.99	1818.60
461.19	1843.17
461.39	1800.16
461.60	1826.79
461.80	1914.85
462.00	1814.50
462.21	1845.22
462.41	1841.12
462.61	1710.05
462.82	1728.49
463.02	1925.09
463.22	1859.56
463.43	1927.14
463.63	1812.45
463.83	1896.42
464.04	1929.19
464.24	1839.08
464.44	1771.49
464.64	1767.40
464.85	1902.56
465.05	1873.89
465.25	1816.55
465.46	1783.78
465.66	1865.70
465.86	1851.36
466.07	1857.51
466.27	1794.02
466.47	1746.92
466.68	1763.30
466.88	1920.99
467.08	1849.32
467.29	1914.85
467.49	1828.84
467.69	1798.12
467.89	1916.90
468.10	1886.18
468.30	1781.73
468.50	1841.12
468.71	1908.71
468.91	1767.40
469.11	1927.14
469.31	1886.18
469.52	1783.78
469.72	1992.67
469.92	1986.53
470.13	1841.12
470.33	1865.70
470.53	1931.23
470.73	2240.48
470.94	2740.18
471.14	2871.25
471.34	3141.58
471.54	3065.81
471.75	2717.65
471.95	2478.04
472.15	2437.08
472.36	2273.25
472.56	2308.06
472.76	2252.77
472.96	2187.23
473.17	2136.03
473.37	2045.92
473.57	1970.15
473.77	1849.32
473.98	1865.70
474.18	1787.88
474.38	2050.02
474.58	1783.78
474.79	1865.70
474.99	1880.04
475.19	1898.47
475.39	1822.69
475.60	1884.13
475.80	1806.31
476.00	1882.08
476.20	1847.27
476.41	1753.06
476.61	1920.99
476.81	1953.76
477.01	1781.73
477.21	1984.48
477.42	1980.39
477.62	1802.21
477.82	1890.28
478.02	1853.41
478.23	1779.68
478.43	1808.36
478.63	1777.64
478.83	1882.08
479.03	1828.84
479.24	1916.90
479.44	1933.28
479.64	1849.32
479.84	1703.91
480.04	1759.21
480.25	1877.99
480.45	1785.83
480.65	1785.83
480.85	1992.67
481.06	1755.11
481.26	1839.08
481.46	1875.94
481.66	1822.69
481.86	1802.21
482.06	1855.46
482.27	1759.21
482.47	1791.97
482.67	1830.88
482.87	1834.98
483.07	1937.38
483.28	1830.88
483.48	1814.50
483.68	1888.23
483.88	1742.82
484.08	1681.38
484.29	1798.12
484.49	1837.03
484.69	1728.49
484.89	1880.04
485.09	1890.28
485.29	1890.28
485.50	1892.32
485.70	1822.69
485.90	1884.13
486.10	1855.46
486.30	1857.51
486.50	1912.80
486.71	1851.36
486.91	1927.14
487.11	1978.34
487.31	1832.93
487.51	1767.40
487.71	1763.30
487.91	1728.49
488.12	1730.53
488.32	1685.48
488.52	1767.40
488.72	1751.01
488.92	1863.65
489.12	1902.56
489.32	1955.81
489.53	1869.80
489.73	1796.07
489.93	1908.71
490.13	1806.31
490.33	1734.63
490.53	1804.26
490.73	1865.70
490.94	1708.01
491.14	1873.89
491.34	1949.67
491.54	2170.85
491.74	2883.54
491.94	3266.51
492.14	3622.86
492.34	3770.31
492.54	3299.28
492.75	2873.30
492.95	2793.43
493.15	2475.99
493.35	2498.52
493.55	2453.47
493.75	2299.87
493.95	2355.16
494.15	2191.33
494.35	2027.49
494.56	1994.72
494.76	1906.66
494.96	1964.00
495.16	1828.84
495.36	1791.97
495.56	1945.57
495.76	1812.45
495.96	1892.32
496.16	1779.68
496.36	1968.10
496.56	1849.32
496.77	1847.27
496.97	1822.69
497.17	1906.66
497.37	1695.72
497.57	1964.00
497.77	1884.13
497.97	1804.26
498.17	1884.13
498.37	1755.11
498.57	1865.70
498.77	1812.45
498.97	1910.75
499.17	1931.23
499.38	1845.22
499.58	1871.84
499.78	1929.19
499.98	1943.52
500.18	1828.84
500.38	1841.12
500.58	1976.29
500.78	2402.27
500.98	4784.06
501.18	6786.97
501.38	8396.67
501.58	9340.79
501.78	9301.87
501.98	7088.02
502.18	6006.69
502.38	5339.05
502.58	4743.10
502.78	4335.55
502.98	3964.87
503.18	3940.29
503.38	3639.24
503.59	3278.80
503.79	3080.14
503.99	2639.83
504.19	2443.23
504.39	2414.56
504.59	2465.75
504.79	2453.47
504.99	2439.13
505.19	2220.00
505.39	2172.89
505.59	2162.66
505.79	2160.61
505.99	2017.25
506.19	1953.76
506.39	2058.21
506.59	1841.12
506.79	1884.13
506.99	1931.23
507.19	1945.57
507.39	1912.80
507.59	1722.34
507.79	1861.60
507.99	1810.40
508.19	1820.64
508.39	1783.78
508.59	1808.36
508.79	1871.84
508.99	1974.24
509.19	1730.53
509.39	1812.45
509.59	1837.03
509.79	1804.26
509.99	1845.22
510.19	1906.66
510.39	1888.23
510.59	1806.31
510.79	1810.40
510.99	1771.49
511.19	1837.03
511.39	1882.08
511.59	1910.75
511.79	1931.23
511.99	1841.12
512.19	1918.95
512.38	1880.04
512.58	1751.01
512.78	1814.50
512.98	1861.60
513.18	1974.24
513.38	1746.92
513.58	1961.95
513.78	1789.92
513.98	1834.98
514.18	1855.46
514.38	1867.75
514.58	1845.22
514.78	1783.78
514.98	1718.25
515.18	1871.84
515.38	1779.68
515.58	1927.14
515.78	1785.83
515.98	1810.40
516.18	1800.16
516.38	1888.23
516.57	1800.16
516.77	1748.97
516.97	1888.23
517.17	1765.35
517.37	1695.72
517.57	1863.65
517.77	1857.51
517.97	1705.96
518.17	1900.52
518.37	1726.44
518.57	1843.17
518.77	1789.92
518.97	1865.70
519.16	1880.04
519.36	1955.81
519.56	1763.30
519.76	1818.60
519.96	1837.03
520.16	1904.61
520.36	1810.40
520.56	1918.95
520.76	1869.80
520.96	1779.68
521.16	1951.71
521.35	1916.90
521.55	1841.12
521.75	1820.64
521.95	1843.17
522.15	1812.45
522.35	1828.84
522.55	1773.54
522.75	1957.86
522.95	1843.17
523.14	1736.68
523.34	1843.17
523.54	1802.21
523.74	1832.93
523.94	1916.90
524.14	1681.38
524.34	1861.60
524.54	1863.65
524.73	1814.50
524.93	1849.32
525.13	1908.71
525.33	1822.69
525.53	1964.00
525.73	1910.75
525.93	1830.88
526.13	1796.07
526.32	1914.85
526.52	1884.13
526.72	1886.18
526.92	1820.64
527.12	1845.22
527.32	1789.92
527.52	1804.26
527.71	1845.22
527.91	1843.17
528.11	1826.79
528.31	1859.56
528.51	1769.44
528.71	1847.27
528.90	1898.47
529.10	1884.13
529.30	1892.32
529.50	1789.92
529.70	1814.50
529.90	1814.50
530.09	1818.60
530.29	1769.44
530.49	1794.02
530.69	2019.30
530.89	1814.50
531.09	1855.46
531.28	1800.16
531.48	1943.52
531.68	1859.56
531.88	1830.88
532.08	1884.13
532.28	1787.88
532.47	1869.80
532.67	1908.71
532.87	1918.95
533.07	1751.01
533.27	1955.81
533.46	1974.24
533.66	1898.47
533.86	1779.68
534.06	1888.23
534.26	1826.79
534.45	1820.64
534.65	1929.19
534.85	1896.42
535.05	1832.93
535.25	1953.76
535.44	1748.97
535.64	1943.52
535.84	1757.16
536.04	1849.32
536.24	1843.17
536.43	1802.21
536.63	1824.74
536.83	1777.64
537.03	1894.37
537.22	1732.58
537.42	1767.40
537.62	1820.64
537.82	1783.78
538.02	1908.71
538.21	1994.72
538.41	2047.97
538.61	1869.80
538.81	1837.03
539.00	1843.17
539.20	1755.11
539.40	1789.92
539.60	1845.22
539.79	1898.47
539.99	1912.80
540.19	1812.45
540.39	1886.18
540.58	1894.37
540.78	1851.36
540.98	1935.33
541.18	1925.09
541.37	1871.84
541.57	1869.80
541.77	1837.03
541.97	1787.88
542.16	1783.78
542.36	1775.59
542.56	1910.75
542.76	2090.98
542.95	1800.16
543.15	1826.79
543.35	1884.13
543.54	1751.01
543.74	1771.49
543.94	1943.52
544.14	1830.88
544.33	1789.92
544.53	1796.07
544.73	1834.98
544.93	1800.16
545.12	1849.32
545.32	1890.28
545.52	1839.08
545.71	1800.16
545.91	1890.28
546.11	1867.75
546.30	1763.30
546.50	1789.92
546.70	1851.36
546.90	1830.88
547.09	1669.09
547.29	1791.97
547.49	1918.95
547.68	1843.17
547.88	1712.10
548.08	1943.52
548.27	2291.68
548.47	1816.55
548.67	1775.59
548.87	1847.27
549.06	1791.97
549.26	1869.80
549.46	1775.59
549.65	1746.92
549.85	1814.50
550.05	1886.18
550.24	1740.77
550.44	1775.59
550.64	1918.95
550.83	1845.22
551.03	1949.67
551.23	1896.42
551.42	1908.71
551.62	1802.21
551.82	1884.13
552.01	1892.32
552.21	1869.80
552.41	1818.60
552.60	1900.52
552.80	1832.93
553.00	1863.65
553.19	1871.84
553.39	1988.58
553.59	1812.45
553.78	1812.45
553.98	1857.51
554.17	1808.36
554.37	1820.64
554.57	1867.75
554.76	1683.43
554.96	1759.21
555.16	1804.26
555.35	1834.98
555.55	1841.12
555.75	1841.12
555.94	1839.08
556.14	1775.59
556.33	1892.32
556.53	1837.03
556.73	1779.68
556.92	1849.32
557.12	1945.57
557.32	2041.82
557.51	2035.68
557.71	1855.46
557.90	2031.58
558.10	1886.18
558.30	1882.08
558.49	1767.40
558.69	1843.17
558.88	1882.08
559.08	1923.04
559.28	1812.45
559.47	1814.50
559.67	1855.46
559.86	1945.57
560.06	1912.80
560.26	1865.70
560.45	1865.70
560.65	1818.60
560.84	1892.32
561.04	1845.22
561.24	1865.70
561.43	1820.64
561.63	1935.33
561.82	1802.21
562.02	1902.56
562.22	1861.60
562.41	1785.83
562.61	1869.80
562.80	1761.25
563.00	2007.01
563.19	1865.70
563.39	1830.88
563.59	1820.64
563.78	1789.92
563.98	1687.53
564.17	1814.50
564.37	1761.25
564.56	1826.79
564.76	1767.40
564.96	1904.61
565.15	1744.87
565.35	2009.06
565.54	1859.56
565.74	1828.84
565.93	1847.27
566.13	1832.93
566.32	1861.60
566.52	1927.14
566.71	1839.08
566.91	1972.19
567.11	1804.26
567.30	1830.88
567.50	1849.32
567.69	1812.45
567.89	1871.84
568.08	1832.93
568.28	1925.09
568.47	1814.50
568.67	1818.60
568.86	1859.56
569.06	1902.56
569.25	1886.18
569.45	1820.64
569.64	1787.88
569.84	1814.50
570.04	1873.89
570.23	1767.40
570.43	1814.50
570.62	1890.28
570.82	1918.95
571.01	1808.36
571.21	1779.68
571.40	1771.49
571.60	1920.99
571.79	1871.84
571.99	1869.80
572.18	1800.16
572.38	1853.41
572.57	1820.64
572.77	1796.07
572.96	2041.82
573.16	1902.56
573.35	1787.88
573.55	1935.33
573.74	1863.65
573.94	1863.65
574.13	1859.56
574.33	1882.08
574.52	1861.60
574.71	1800.16
574.91	1904.61
575.10	1804.26
575.30	1857.51
575.49	1853.41
575.69	1789.92
575.88	1943.52
576.08	1865.70
576.27	1966.05
576.47	1949.67
576.66	1976.29
576.86	1976.29
577.05	1794.02
577.25	1929.19
577.44	2025.44
577.64	1828.84
577.83	1931.23
578.02	1861.60
578.22	1931.23
578.41	1972.19
578.61	1886.18
578.80	1730.53
579.00	1927.14
579.19	1769.44
579.39	1824.74
579.58	1992.67
579.77	1908.71
579.97	1986.53
580.16	1939.43
580.36	1929.19
580.55	1947.62
580.75	1828.84
580.94	1857.51
581.13	2070.50
581.33	1970.15
581.52	1820.64
581.72	2052.06
581.91	2027.49
582.11	1951.71
582.30	1970.15
582.49	1869.80
582.69	1988.58
582.88	1957.86
583.08	1871.84
583.27	1923.04
583.47	1882.08
583.66	1886.18
583.85	1787.88
584.05	1867.75
584.24	1808.36
584.44	1882.08
584.63	1920.99
584.82	1988.58
585.02	2000.87
585.21	2013.15
585.41	1972.19
585.60	1953.76
585.79	2023.39
585.99	2099.17
586.18	2068.45
586.37	2369.50
586.57	3633.10
586.76	10661.73
586.96	28587.60
587.15	42997.10
587.34	52579.55
587.54	58594.43
587.73	55733.42
587.93	39951.77
588.12	29697.59
588.31	23901.84
588.51	20250.32
588.70	18548.45
588.89	17010.43
589.09	15249.18
589.28	13227.83
589.47	10970.97
589.67	8963.96
589.86	6889.37
590.06	5056.43
590.25	3919.81
590.44	3110.86
590.64	2617.30
590.83	2320.35
591.02	2238.43
591.22	2033.63
591.41	2037.73
591.60	1949.67
591.80	2054.11
591.99	1824.74
592.18	1941.47
592.38	1929.19
592.57	1849.32
592.76	1968.10
592.96	1882.08
593.15	1834.98
593.34	1912.80
593.54	1802.21
593.73	1931.23
593.92	1914.85
594.12	2002.91
594.31	1949.67
594.50	2033.63
594.70	1982.43
594.89	2070.50
595.08	1800.16
595.28	1871.84
595.47	2076.64
595.66	2013.15
595.86	1765.35
596.05	1853.41
596.24	1880.04
596.43	1978.34
596.63	1939.43
596.82	1888.23
597.01	1920.99
597.21	2041.82
597.40	1968.10
597.59	1912.80
597.79	1953.76
597.98	1935.33
598.17	1837.03
598.36	1851.36
598.56	1857.51
598.75	1732.58
598.94	1935.33
599.14	1906.66
599.33	1832.93
599.52	1961.95
599.71	1828.84
599.91	1863.65
600.10	1941.47
600.29	1972.19
600.48	1873.89
600.68	1888.23
600.87	1871.84
601.06	1902.56
601.26	1847.27
601.45	1839.08
601.64	1826.79
601.83	1884.13
602.03	1837.03
602.22	1761.25
602.41	2037.73
602.60	2029.54
602.80	1892.32
602.99	1920.99
603.18	1810.40
603.37	1896.42
603.57	1976.29
603.76	1873.89
603.95	1884.13
604.14	1892.32
604.34	1757.16
604.53	1880.04
604.72	1900.52
604.91	1916.90
605.10	1869.80
605.30	1802.21
605.49	2047.97
605.68	1888.23
605.87	1890.28
606.07	1853.41
606.26	1863.65
606.45	1906.66
606.64	1826.79
606.84	1839.08
607.03	1837.03
607.22	1943.52
607.41	1834.98
607.60	1900.52
607.80	1951.71
607.99	1923.04
608.18	1818.60
608.37	1918.95
608.56	1804.26
608.76	1923.04
608.95	2068.45
609.14	1832.93
609.33	1974.24
609.52	1988.58
609.72	2004.96
609.91	2050.02
610.10	1949.67
610.29	1957.86
610.48	1886.18
610.68	1882.08
610.87	1857.51
611.06	1906.66
611.25	1837.03
611.44	1947.62
611.63	1884.13
611.83	1939.43
612.02	1804.26
612.21	1902.56
612.40	1798.12
612.59	1822.69
612.79	1781.73
612.98	1839.08
613.17	1927.14
613.36	1808.36
613.55	1990.63
613.74	1986.53
613.93	1937.38
614.13	2088.93
614.32	2095.07
614.51	2039.78
614.70	1904.61
614.89	1935.33
615.08	1953.76
615.28	2297.82
615.47	1847.27
615.66	1900.52
615.85	2029.54
616.04	2076.64
616.23	1918.95
616.42	1972.19
616.62	1939.43
616.81	1941.47
617.00	1906.66
617.19	1898.47
617.38	1826.79
617.57	1890.28
617.76	1871.84
617.95	1808.36
618.15	1931.23
618.34	1937.38
618.53	1753.06
618.72	1894.37
618.91	1929.19
619.10	1945.57
619.29	1779.68
619.48	1863.65
619.68	1744.87
619.87	1820.64
620.06	1730.53
620.25	1888.23
620.44	1859.56
620.63	1775.59
620.82	1824.74
621.01	1845.22
621.20	1914.85
621.39	1904.61
621.59	1871.84
621.78	1808.36
621.97	1810.40
622.16	1908.71
622.35	1877.99
622.54	1890.28
622.73	1966.05
622.92	1714.15
623.11	1908.71
623.30	1837.03
623.49	1869.80
623.68	1806.31
623.88	1904.61
624.07	1871.84
624.26	1853.41
624.45	1865.70
624.64	1875.94
624.83	1914.85
625.02	1882.08
625.21	1851.36
625.40	1816.55
625.59	1912.80
625.78	1802.21
625.97	1890.28
626.16	1966.05
626.35	1931.23
626.54	1929.19
626.74	1974.24
626.93	1849.32
627.12	1857.51
627.31	1910.75
627.50	1970.15
627.69	1892.32
627.88	1828.84
628.07	1859.56
628.26	1755.11
628.45	1834.98
628.64	1783.78
628.83	1884.13
629.02	1787.88
629.21	1888.23
629.40	1839.08
629.59	1843.17
629.78	1806.31
629.97	1812.45
630.16	1845.22
630.35	1798.12
630.54	1834.98
630.73	1783.78
630.92	1925.09
631.11	1808.36
631.30	1865.70
631.49	1923.04
631.68	1820.64
631.87	1863.65
632.06	1808.36
632.25	2017.25
632.44	1910.75
632.63	1849.32
632.82	1894.37
633.01	1964.00
633.20	1908.71
633.39	1908.71
633.58	1890.28
633.77	1923.04
633.96	1877.99
634.15	1970.15
634.34	1914.85
634.53	1923.04
634.72	1794.02
634.91	1769.44
635.10	1892.32
635.29	1937.38
635.48	1888.23
635.67	1718.25
635.86	1728.49
636.05	1869.80
636.24	1830.88
636.43	1861.60
636.62	1859.56
636.81	1705.96
637.00	1810.40
637.19	1853.41
637.38	1845.22
637.57	1884.13
637.76	1923.04
637.95	1953.76
638.14	1918.95
638.33	2004.96
638.52	1929.19
638.71	1814.50
638.89	1861.60
639.08	2066.40
639.27	2033.63
639.46	2072.54
639.65	2349.02
639.84	2465.75
640.03	2666.46
640.22	2500.57
640.41	2549.72
640.60	2226.14
640.79	2174.94
640.98	2050.02
641.17	2117.60
641.36	1972.19
641.55	2013.15
641.74	1867.75
641.92	1886.18
642.11	1828.84
642.30	1877.99
642.49	1791.97
642.68	1818.60
642.87	1845.22
643.06	1914.85
643.25	1785.83
643.44	1804.26
643.63	1816.55
643.82	1871.84
644.00	1755.11
644.19	1812.45
644.38	1781.73
644.57	1843.17
644.76	1855.46
644.95	1755.11
645.14	1810.40
645.33	1779.68
645.52	1802.21
645.71	1777.64
645.89	1728.49
646.08	1847.27
646.27	1841.12
646.46	1955.81
646.65	1744.87
646.84	1814.50
647.03	1751.01
647.22	1882.08
647.40	1861.60
647.59	1787.88
647.78	1718.25
647.97	1851.36
648.16	1730.53
648.35	1906.66
648.54	1865.70
648.73	1789.92
648.91	1955.81
649.10	1869.80
649.29	1787.88
649.48	1877.99
649.67	1808.36
649.86	1857.51
650.05	1906.66
650.23	2113.50
650.42	1908.71
650.61	2062.30
650.80	2011.11
650.99	2039.78
651.18	1949.67
651.36	1966.05
651.55	1828.84
651.74	1970.15
651.93	1847.27
652.12	1820.64
652.31	1804.26
652.49	1849.32
652.68	1806.31
652.87	1925.09
653.06	1937.38
653.25	1976.29
653.44	1847.27
653.62	1984.48
653.81	1832.93
654.00	1853.41
654.19	1888.23
654.38	1988.58
654.56	1849.32
654.75	1800.16
654.94	1873.89
655.13	1837.03
655.32	1845.22
655.51	1918.95
655.69	1753.06
655.88	1843.17
656.07	1759.21
656.26	1845.22
656.45	1697.77
656.63	1849.32
656.82	1779.68
657.01	1894.37
657.20	1771.49
657.38	1925.09
657.57	1834.98
657.76	1736.68
657.95	1992.67
658.14	1757.16
658.32	1759.21
658.51	1787.88
658.70	1871.84
658.89	1787.88
659.08	1908.71
659.26	2007.01
659.45	1781.73
659.64	1918.95
659.83	1837.03
660.01	2131.94
660.20	1853.41
660.39	1978.34
660.58	1800.16
660.76	1925.09
660.95	1800.16
661.14	1923.04
661.33	1714.15
661.51	1824.74
661.70	1880.04
661.89	1808.36
662.08	1847.27
662.26	1826.79
662.45	1816.55
662.64	1953.76
662.83	1873.89
663.01	1755.11
663.20	1847.27
663.39	2021.35
663.58	1765.35
663.76	1816.55
663.95	1859.56
664.14	1742.82
664.32	1748.97
664.51	1867.75
664.70	1716.20
664.89	1861.60
665.07	1798.12
665.26	1873.89
665.45	1824.74
665.64	1943.52
665.82	1826.79
666.01	1935.33
666.20	1779.68
666.38	1904.61
666.57	2002.91
666.76	2426.84
666.95	5760.94
667.13	13457.20
667.32	19853.01
667.51	23781.01
667.69	26140.27
667.88	25808.50
668.07	19044.06
668.25	14378.79
668.44	11802.44
668.63	10028.90
668.81	8632.19
669.00	7755.66
669.19	7055.25
669.38	5982.12
669.56	5212.08
669.75	4396.99
669.94	3780.55
670.12	3127.25
670.31	2621.40
670.50	2357.21
670.68	2217.95
670.87	2047.97
671.06	1994.72
671.24	1968.10
671.43	2002.91
671.62	1976.29
671.80	1865.70
671.99	1939.43
672.18	1812.45
672.36	1920.99
672.55	1812.45
672.74	1847.27
672.92	1814.50
673.11	1804.26
673.29	1710.05
673.48	1910.75
673.67	1826.79
673.85	1941.47
674.04	1812.45
674.23	1951.71
674.41	1882.08
674.60	1722.34
674.79	1734.63
674.97	1746.92
675.16	1771.49
675.34	1875.94
675.53	1794.02
675.72	1861.60
675.90	1914.85
676.09	1794.02
676.28	1814.50
676.46	1740.77
676.65	1933.28
676.83	1845.22
677.02	1902.56
677.21	1902.56
677.39	1832.93
677.58	1748.97
677.77	1744.87
677.95	1787.88
678.14	1804.26
678.32	1753.06
678.51	1810.40
678.70	1941.47
678.88	1810.40
679.07	1837.03
679.25	1841.12
679.44	1789.92
679.63	1693.67
679.81	1816.55
680.00	1877.99
680.18	1925.09
680.37	1978.34
680.55	1767.40
680.74	1656.81
680.93	1730.53
681.11	1812.45
681.30	1796.07
681.48	1900.52
681.67	1845.22
681.85	1777.64
682.04	1759.21
682.23	1828.84
682.41	1931.23
682.60	1763.30
682.78	1789.92
682.97	1800.16
683.15	1865.70
683.34	1859.56
683.53	1894.37
683.71	1761.25
683.90	1990.63
684.08	1869.80
684.27	1818.60
684.45	1789.92
684.64	1884.13
684.82	1726.44
685.01	1812.45
685.19	1826.79
685.38	1947.62
685.57	1849.32
685.75	1804.26
685.94	1783.78
686.12	1757.16
686.31	1751.01
686.49	1888.23
686.68	1761.25
686.86	1845.22
687.05	1843.17
687.23	1886.18
687.42	1787.88
687.60	1669.09
687.79	1873.89
687.97	1964.00
688.16	1923.04
688.34	1824.74
688.53	1730.53
688.71	1824.74
688.90	1865.70
689.08	1888.23
689.27	1830.88
689.45	1880.04
689.64	1914.85
689.82	1880.04
690.01	1791.97
690.19	1851.36
690.38	1857.51
690.56	1845.22
690.75	1808.36
690.93	1832.93
691.12	1798.12
691.30	1763.30
691.49	1816.55
691.67	1849.32
691.86	1865.70
692.04	1796.07
692.23	1783.78
692.41	1834.98
692.60	1961.95
692.78	1957.86
692.97	1910.75
693.15	1953.76
693.34	1947.62
693.52	1888.23
693.71	1886.18
693.89	1863.65
694.08	1759.21
694.26	1857.51
694.44	1941.47
694.63	1812.45
694.81	1812.45
695.00	1857.51
695.18	1877.99
695.37	2011.11
695.55	1853.41
695.74	1808.36
695.92	1736.68
696.10	1888.23
696.29	1779.68
696.47	1746.92
696.66	1673.19
696.84	1787.88
697.03	1777.64
697.21	1968.10
697.40	2527.19
697.58	1888.23
697.76	1777.64
697.95	1798.12
698.13	1767.40
698.32	1771.49
698.50	1826.79
698.68	1796.07
698.87	1789.92
699.05	1863.65
699.24	1902.56
699.42	1771.49
699.61	1845.22
699.79	1890.28
699.97	1738.73
700.16	1830.88
700.34	1816.55
700.53	1877.99
700.71	2002.91
700.89	1853.41
701.08	1834.98
701.26	1828.84
701.45	2256.86
701.63	1826.79
701.81	1843.17
702.00	1798.12
702.18	1837.03
702.37	1773.54
702.55	2050.02
702.73	1980.39
702.92	2033.63
703.10	2183.13
703.28	2109.41
703.47	1949.67
703.65	2070.50
703.84	1970.15
704.02	1894.37
704.20	1951.71
704.39	1873.89
704.57	1880.04
704.75	1882.08
704.94	1859.56
705.12	1908.71
705.30	1998.82
705.49	2985.94
705.67	7190.42
705.86	16324.36
706.04	21640.89
706.22	25398.91
706.41	27461.21
706.59	25859.70
706.77	18794.21
706.96	14378.79
707.14	12400.45
707.32	10645.34
707.51	9459.57
707.69	8150.92
707.87	6926.23
708.06	5492.65
708.24	4251.58
708.42	3356.62
708.61	2842.58
708.79	2234.33
708.97	2113.50
709.16	2045.92
709.34	1923.04
709.52	1892.32
709.71	1914.85
709.89	1970.15
710.07	1724.39
710.26	1775.59
710.44	1869.80
710.62	1990.63
710.80	1830.88
710.99	1898.47
711.17	1853.41
711.35	1757.16
711.54	1837.03
711.72	1851.36
711.90	1832.93
712.09	1826.79
712.27	1859.56
712.45	1826.79
712.63	1785.83
712.82	1884.13
713.00	1824.74
713.18	1912.80
713.37	1910.75
713.55	1918.95
713.73	1808.36
713.91	1818.60
714.10	1796.07
714.28	1796.07
714.46	1832.93
714.65	1877.99
714.83	1806.31
715.01	1800.16
715.19	1828.84
715.38	1742.82
715.56	1857.51
715.74	1767.40
715.92	1751.01
716.11	1931.23
716.29	1650.66
716.47	1904.61
716.65	1777.64
716.84	1732.58
717.02	1974.24
717.20	1726.44
717.38	1800.16
717.57	1843.17
717.75	1869.80
717.93	1781.73
718.11	1898.47
718.30	1824.74
718.48	1847.27
718.66	1865.70
718.84	1869.80
719.03	1767.40
719.21	1746.92
719.39	1892.32
719.57	1812.45
719.75	1853.41
719.94	1742.82
720.12	1773.54
720.30	1800.16
720.48	1875.94
720.67	1769.44
720.85	1759.21
721.03	1718.25
721.21	1730.53
721.39	1918.95
721.58	1816.55
721.76	1791.97
721.94	1802.21
722.12	1837.03
722.30	1898.47
722.49	1796.07
722.67	1808.36
722.85	1730.53
723.03	1744.87
723.21	1877.99
723.40	1806.31
723.58	1857.51
723.76	1857.51
723.94	1957.86
724.12	1849.32
724.30	1869.80
724.49	1947.62
724.67	1847.27
724.85	1992.67
725.03	1751.01
725.21	1914.85
725.40	1902.56
725.58	1863.65
725.76	1894.37
725.94	1824.74
726.12	1759.21
726.30	1832.93
726.49	1761.25
726.67	1742.82
726.85	1877.99
727.03	1941.47
727.21	2590.68
727.39	4210.62
727.57	5717.93
727.76	6481.82
727.94	6963.09
728.12	6870.94
728.30	5871.53
728.48	4655.03
728.66	4362.17
728.84	3758.02
729.03	3241.93
729.21	3045.33
729.39	2525.15
729.57	2310.11
729.75	2066.40
729.93	1988.58
730.11	1886.18
730.30	1886.18
730.48	1927.14
730.66	1898.47
730.84	1892.32
731.02	1845.22
731.20	1843.17
731.38	1806.31
731.56	1755.11
731.74	1744.87
731.93	1804.26
732.11	1814.50
732.29	1855.46
732.47	1857.51
732.65	1841.12
732.83	1888.23
733.01	1847.27
733.19	1771.49
733.37	1865.70
733.56	1867.75
733.74	1791.97
733.92	1814.50
734.10	1806.31
734.28	1863.65
734.46	1708.01
734.64	1828.84
734.82	1837.03
735.00	1789.92
735.18	1814.50
735.36	1787.88
735.54	1751.01
735.73	1791.97
735.91	1914.85
736.09	1869.80
736.27	1816.55
736.45	1859.56
736.63	1665.00
736.81	1738.73
736.99	1873.89
737.17	1988.58
737.35	1777.64
737.53	1828.84
737.71	1834.98
737.89	1900.52
738.07	1871.84
738.25	1779.68
738.43	1697.77
738.61	1837.03
738.80	1748.97
738.98	1775.59
739.16	1806.31
739.34	1798.12
739.52	1990.63
739.70	1834.98
739.88	1910.75
740.06	1957.86
740.24	1732.58
740.42	1855.46
740.60	1693.67
740.78	1779.68
740.96	1714.15
741.14	1824.74
741.32	1849.32
741.50	1714.15
741.68	2029.54
741.86	1830.88
742.04	1763.30
742.22	1648.61
742.40	1839.08
742.58	1900.52
742.76	1869.80
742.94	1964.00
743.12	1748.97
743.30	1841.12
743.48	1818.60
743.66	1804.26
743.84	1851.36
744.02	1816.55
744.20	1845.22
744.38	1806.31
744.56	1806.31
744.74	1925.09
744.92	1824.74
745.10	1865.70
745.28	1843.17
745.46	1923.04
745.64	1783.78
745.82	1861.60
746.00	1818.60
746.18	1798.12
746.36	1785.83
746.54	1841.12
746.72	1837.03
746.90	1740.77
747.08	1890.28
747.26	1800.16
747.44	1853.41
747.62	1894.37
747.80	1759.21
747.98	1884.13
748.15	1779.68
748.33	1939.43
748.51	1796.07
748.69	1877.99
748.87	1806.31
749.05	1845.22
749.23	1816.55
749.41	1845.22
749.59	1847.27
749.77	1888.23
749.95	1769.44
750.13	1742.82
750.31	1802.21
750.49	1851.36
750.67	1851.36
750.85	1927.14
751.03	1822.69
751.20	1996.77
751.38	1705.96
751.56	1695.72
751.74	1730.53
751.92	1832.93
752.10	1810.40
752.28	1845.22
752.46	1775.59
752.64	1773.54
752.82	1873.89
753.00	1912.80
753.18	1820.64
753.35	1800.16
753.53	1796.07
753.71	1734.63
753.89	1867.75
754.07	1826.79
754.25	1867.75
754.43	1837.03
754.61	1775.59
754.79	1902.56
754.97	1806.31
755.14	1894.37
755.32	1701.86
755.50	1828.84
755.68	1787.88
755.86	1839.08
756.04	1800.16
756.22	1667.05
756.40	1859.56
756.57	1916.90
756.75	1886.18
756.93	1902.56
757.11	1914.85
757.29	1742.82
757.47	1697.77
757.65	1681.38
757.82	1615.85
758.00	1789.92
758.18	1746.92
758.36	1695.72
758.54	1957.86
758.72	1730.53
758.90	1865.70
759.07	1802.21
759.25	1794.02
759.43	1873.89
759.61	1722.34
759.79	2316.25
759.97	1845.22
760.15	1816.55
760.32	1777.64
760.50	1849.32
760.68	1935.33
760.86	1759.21
761.04	1933.28
761.22	1882.08
761.39	1798.12
761.57	1808.36
761.75	1759.21
761.93	1933.28
762.11	1771.49
762.28	1796.07
762.46	1800.16
762.64	1843.17
762.82	1796.07
763.00	1820.64
763.18	1925.09
763.35	1761.25
763.53	1904.61
763.71	1773.54
763.89	1796.07
764.07	1857.51
764.24	1794.02
764.42	1894.37
764.60	1791.97
764.78	1886.18
764.96	1869.80
765.13	1853.41
765.31	1834.98
765.49	1867.75
765.67	1773.54
765.84	1791.97
766.02	1865.70
766.20	1722.34
766.38	1877.99
766.56	1845.22
766.73	1877.99
766.91	1757.16
767.09	1775.59
767.27	1837.03
767.44	1775.59
767.62	1884.13
767.80	1753.06
767.98	1773.54
768.15	1806.31
768.33	1904.61
768.51	1830.88
768.69	1779.68
768.87	1787.88
769.04	1832.93
769.22	1978.34
769.40	1861.60
769.58	2009.06
769.75	1816.55
769.93	1933.28
770.11	1800.16
770.28	1730.53
770.46	1892.32
770.64	1890.28
770.82	1779.68
770.99	1783.78
771.17	1771.49
771.35	1847.27
771.53	1816.55
771.70	1818.60
771.88	1953.76
772.06	1812.45
772.23	1849.32
772.41	1841.12
772.59	1818.60
772.77	1687.53
772.94	1785.83
773.12	1849.32
773.30	1828.84
773.47	1728.49
773.65	1791.97
773.83	1943.52
774.01	1718.25
774.18	1687.53
774.36	1787.88
774.54	1777.64
774.71	1785.83
774.89	1728.49
775.07	1787.88
775.24	1814.50
775.42	1738.73
775.60	1927.14
775.78	1828.84
775.95	1693.67
776.13	1673.19
776.31	1703.91
776.48	1791.97
776.66	1855.46
776.84	1806.31
777.01	1748.97
777.19	1738.73
777.37	1726.44
777.54	1781.73
777.72	1951.71
777.90	1781.73
778.07	1781.73
778.25	2023.39
778.43	1851.36
778.60	1714.15
778.78	1877.99
778.96	1828.84
779.13	1740.77
779.31	1914.85
779.49	1763.30
779.66	1861.60
779.84	1787.88
780.01	1796.07
780.19	1804.26
780.37	1867.75
780.54	1904.61
780.72	1791.97
780.90	1763.30
781.07	1798.12
781.25	1785.83
781.43	1845.22
781.60	1871.84
781.78	1884.13
781.95	1816.55
782.13	1687.53
782.31	1808.36
782.48	1654.76
782.66	1767.40
782.83	1947.62
783.01	1837.03
783.19	1871.84
783.36	1783.78
783.54	1759.21
783.72	1890.28
783.89	1783.78
784.07	1816.55
784.24	1861.60
784.42	1929.19
784.60	1820.64
784.77	1871.84
784.95	1691.62
785.12	1691.62
785.30	1843.17
785.47	1785.83
785.65	1761.25
785.83	1781.73
786.00	1763.30
786.18	1812.45
786.35	1775.59
786.53	1796.07
786.71	1886.18
786.88	1808.36
787.06	1798.12
787.23	1761.25
787.41	1703.91
787.58	1761.25
787.76	1751.01
787.94	1820.64
788.11	1755.11
788.29	1742.82
788.46	1787.88
788.64	1732.58
788.81	1832.93
788.99	1712.10
789.16	1796.07
789.34	1816.55
789.52	1830.88
789.69	1796.07
789.87	1761.25
790.04	1804.26
790.22	1861.60
790.39	1974.24
790.57	1759.21
790.74	1751.01
790.92	1875.94
791.09	1730.53
791.27	1783.78
791.44	1798.12
791.62	1834.98
791.79	1869.80
791.97	1832.93
792.15	1992.67
792.32	1826.79
792.50	1898.47
792.67	1904.61
792.85	1953.76
793.02	1855.46
793.20	1777.64
793.37	1787.88
793.55	1753.06
793.72	1775.59
793.90	1789.92
794.07	1736.68
794.25	1806.31
794.42	1791.97
794.60	1765.35
794.77	1894.37
794.95	1863.65
795.12	1834.98
795.30	1814.50
795.47	1679.33
795.65	2009.06
795.82	1816.55
796.00	1769.44
796.17	1867.75
796.34	1734.63
796.52	1818.60
796.69	1849.32
796.87	1925.09
797.04	1791.97
797.22	1867.75
797.39	1851.36
797.57	1826.79
797.74	1810.40
797.92	1853.41
798.09	1757.16
798.27	1818.60
798.44	1861.60
798.62	1808.36
798.79	1814.50
798.96	1837.03
799.14	1775.59
799.31	1978.34
799.49	1808.36
799.66	1830.88
799.84	1812.45
800.01	1775.59
800.19	1808.36
800.36	1734.63
800.53	1806.31
800.71	1824.74
800.88	1912.80
801.06	1812.45
801.23	1779.68
801.41	1765.35
801.58	1775.59
801.75	1738.73
801.93	1763.30
802.10	1839.08
802.28	1738.73
802.45	1730.53
802.63	1898.47
802.80	1902.56
802.97	1798.12
803.15	1869.80
803.32	1810.40
803.50	1718.25
803.67	1718.25
803.84	1746.92
804.02	1796.07
804.19	1837.03
804.37	1697.77
804.54	1689.57
804.71	1839.08
804.89	1763.30
805.06	1730.53
805.24	1771.49
805.41	1806.31
805.58	1769.44
805.76	1949.67
805.93	1804.26
806.10	1894.37
806.28	1808.36
806.45	1892.32
806.63	1884.13
806.80	1906.66
806.97	1908.71
807.15	1822.69
807.32	1777.64
807.49	1861.60
807.67	1775.59
807.84	1886.18
808.01	1669.09
808.19	1992.67
808.36	1910.75
808.54	1818.60
808.71	1765.35
808.88	1851.36
809.06	1906.66
809.23	1925.09
809.40	1753.06
809.58	1877.99
809.75	1755.11
809.92	1701.86
810.10	2031.58
810.27	1785.83
810.44	1787.88
810.62	1867.75
810.79	1886.18
810.96	1791.97
811.14	1783.78
811.31	1873.89
811.48	1857.51
811.66	1847.27
811.83	1832.93
812.00	1839.08
812.18	1820.64
812.35	1953.76
812.52	1787.88
812.69	1802.21
812.87	1740.77
813.04	1857.51
813.21	1890.28
813.39	1806.31
813.56	1755.11
813.73	1886.18
813.91	1724.39
814.08	1753.06
814.25	1832.93
814.42	1708.01
814.60	1802.21
814.77	1851.36
814.94	1816.55
815.12	1789.92
815.29	1892.32
815.46	1773.54
815.63	1804.26
815.81	1787.88
815.98	1720.29
816.15	1804.26
816.33	1773.54
816.50	1865.70
816.67	1791.97
816.84	1794.02
817.02	1748.97
817.19	1759.21
817.36	1859.56
817.53	1869.80
817.71	1636.33
817.88	1888.23
818.05	1826.79
818.22	1757.16
818.40	1886.18
818.57	1779.68
818.74	1791.97
818.91	1777.64
819.09	1834.98
819.26	1904.61
819.43	1781.73
819.60	1675.24
819.78	1867.75
819.95	1910.75
820.12	1718.25
820.29	1834.98
820.47	1808.36
820.64	1738.73
820.81	1804.26
820.98	1810.40
821.15	1802.21
821.33	1925.09
821.50	1726.44
821.67	1867.75
821.84	1734.63
822.02	1857.51
822.19	1882.08
822.36	1859.56
822.53	1757.16
822.70	1746.92
822.88	1744.87
823.05	1900.52
823.22	1832.93
823.39	1816.55
823.56	1882.08
823.74	1961.95
823.91	1755.11
824.08	1714.15
824.25	1712.10
824.42	1888.23
824.60	1791.97
824.77	1857.51
824.94	1794.02
825.11	1845.22
825.28	1654.76
825.45	1818.60
825.63	1867.75
825.80	1771.49
825.97	1810.40
826.14	1859.56
826.31	1722.34
826.48	1802.21
826.66	1751.01
826.83	1847.27
827.00	1783.78
827.17	1763.30
827.34	1732.58
827.51	1728.49
827.69	1767.40
827.86	1810.40
828.03	1845.22
828.20	1753.06
828.37	1769.44
828.54	1814.50
828.71	1708.01
828.89	1894.37
829.06	1812.45
829.23	1923.04
829.40	1712.10
829.57	1783.78
829.74	1865.70
829.91	1781.73
830.09	1812.45
830.26	1796.07
830.43	1916.90
830.60	1796.07
830.77	1843.17
830.94	1898.47
831.11	1894.37
831.28	1798.12
831.46	1855.46
831.63	1804.26
831.80	1832.93
831.97	1773.54
832.14	1744.87
832.31	1845.22
832.48	1841.12
832.65	1910.75
832.82	1830.88
832.99	1855.46
833.17	1777.64
833.34	1939.43
833.51	1834.98
833.68	1632.23
833.85	1914.85
834.02	1804.26
834.19	1660.90
834.36	1761.25
834.53	1759.21
834.70	1888.23
834.87	1886.18
835.04	1824.74
835.22	1677.29
835.39	1771.49
835.56	1712.10
835.73	1761.25
835.90	1859.56
836.07	1759.21
836.24	1839.08
836.41	1771.49
836.58	1699.81
836.75	1857.51
836.92	1875.94
837.09	1757.16
837.26	1882.08
837.43	1808.36
837.60	1824.74
837.77	1769.44
837.94	1898.47
838.12	1974.24
838.29	1865.70
838.46	1724.39
838.63	1718.25
838.80	1929.19
838.97	1789.92
839.14	1798.12
839.31	1849.32
839.48	1816.55
839.65	1849.32
839.82	1826.79
839.99	1789.92
840.16	1783.78
840.33	1857.51
840.50	1802.21
840.67	1779.68
840.84	1587.18
841.01	1769.44
841.18	1734.63
841.35	1763.30
841.52	1857.51
841.69	1898.47
841.86	1834.98
842.03	1865.70
842.20	1943.52
842.37	1806.31
842.54	1744.87
842.71	1953.76
842.88	1755.11
843.05	1906.66
843.22	1708.01
843.39	1890.28
843.56	1791.97
843.73	1814.50
843.90	1800.16
844.07	1845.22
844.24	1869.80
844.41	1830.88
844.58	1886.18
844.75	1828.84
844.92	1834.98
845.09	1779.68
845.26	1785.83
845.43	1804.26
845.60	1851.36
845.77	1812.45
845.94	1857.51
846.10	1847.27
846.27	1757.16
846.44	1746.92
846.61	1753.06
846.78	1871.84
846.95	1832.93
847.12	1845.22
847.29	1765.35
847.46	1771.49
847.63	1861.60
847.80	1728.49
847.97	1796.07
848.14	1966.05
848.31	1810.40
848.48	1730.53
848.65	1798.12
848.82	1771.49
848.98	1929.19
849.15	1863.65
849.32	1857.51
849.49	1914.85
849.66	1832.93
849.83	1884.13
850.00	1771.49
850.17	1804.26
850.34	1806.31
850.51	1791.97
850.68	1871.84
850.85	2039.78
851.01	1761.25
851.18	1808.36
851.35	1738.73
851.52	1834.98
851.69	1892.32
851.86	1765.35
852.03	1771.49
852.20	1906.66
852.37	1828.84
852.53	1738.73
852.70	1812.45
852.87	1800.16
853.04	1896.42
853.21	1806.31
853.38	1869.80
853.55	1826.79
853.72	1865.70
853.89	1769.44
854.05	1759.21
854.22	1787.88
854.39	1791.97
854.56	1794.02
854.73	1888.23
854.90	1777.64
855.07	1816.55
855.23	1724.39
855.40	1830.88
855.57	1816.55
855.74	1734.63
855.91	1955.81
856.08	1771.49
856.25	1740.77
856.41	1755.11
856.58	1828.84
856.75	1834.98
856.92	1746.92
857.09	1925.09
857.26	1689.57
857.42	1814.50
857.59	1886.18
857.76	1765.35
857.93	1812.45
858.10	1828.84
858.27	1665.00
858.43	1832.93
858.60	1681.38
858.77	1765.35
858.94	1810.40
859.11	1808.36
859.27	1738.73
859.44	1742.82
859.61	1937.38
859.78	1877.99
859.95	1712.10
860.12	1775.59
860.28	1937.38
860.45	1955.81
860.62	1753.06
860.79	1759.21
860.95	1744.87
861.12	1753.06
861.29	1800.16
861.46	1779.68
861.63	1810.40
861.79	1828.84
861.96	1740.77
862.13	1765.35
862.30	1873.89
862.47	1841.12
862.63	1771.49
862.80	1935.33
862.97	1841.12
863.14	1820.64
863.30	1918.95
863.47	1751.01
863.64	1929.19
863.81	1775.59
863.97	1804.26
864.14	1769.44
864.31	1794.02
864.48	1869.80
864.65	1869.80
864.81	1839.08
864.98	1843.17
865.15	1912.80
865.32	1892.32
865.48	1777.64
865.65	1890.28
865.82	1796.07
865.98	1841.12
866.15	1900.52
866.32	1822.69
866.49	1798.12
866.65	1873.89
866.82	1771.49
866.99	1888.23
867.16	1800.16
867.32	1751.01
867.49	1783.78
867.66	1789.92
867.83	1732.58
867.99	1722.34
868.16	1798.12
868.33	1771.49
868.49	1746.92
868.66	1751.01
868.83	1837.03
868.99	1841.12
869.16	1816.55
869.33	1880.04
869.50	1867.75
869.66	1804.26
869.83	1845.22
870.00	1732.58
870.16	1839.08
870.33	1832.93
870.50	1839.08
870.66	1791.97
870.83	1900.52
871.00	1834.98
871.17	1787.88
871.33	1779.68
871.50	1691.62
871.67	1763.30
871.83	1724.39
872.00	1896.42
872.17	1796.07
872.33	1929.19
872.50	1890.28
872.67	1837.03
872.83	1771.49
873.00	1841.12
873.17	1820.64
873.33	1949.67
873.50	1898.47
873.67	1777.64
873.83	1783.78
874.00	1787.88
874.16	1863.65
874.33	1828.84
874.50	1734.63
874.66	1794.02
874.83	1824.74
875.00	1828.84
875.16	1892.32
875.33	1847.27
875.50	1722.34
875.66	1853.41
875.83	1806.31
875.99	1853.41
876.16	1755.11
876.33	1783.78
876.49	1892.32
876.66	1869.80
876.83	1818.60
876.99	1705.96
877.16	1847.27
877.32	1771.49
877.49	1748.97
877.66	1837.03
877.82	1847.27
877.99	1755.11
878.15	1896.42
878.32	1783.78
878.49	1843.17
878.65	1808.36
878.82	1894.37
878.98	1777.64
879.15	1818.60
879.32	1904.61
879.48	1822.69
879.65	1812.45
879.81	1771.49
879.98	1826.79
880.15	1804.26
880.31	1918.95
880.48	1796.07
880.64	1904.61
880.81	1888.23
880.97	2017.25
881.14	1880.04
881.31	1751.01
881.47	1951.71
881.64	1755.11
881.80	1732.58
881.97	1845.22
882.13	1875.94
882.30	1746.92
882.47	1791.97
882.63	1730.53
882.80	1722.34
882.96	1781.73
883.13	1910.75
883.29	1818.60
883.46	1818.60
883.62	1949.67
883.79	1845.22
883.95	1751.01
884.12	1820.64
884.29	1873.89
884.45	1810.40
884.62	1880.04
884.78	1746.92
884.95	1961.95
885.11	1781.73
885.28	1912.80
885.44	1744.87
885.61	1783.78
885.77	1914.85
885.94	1839.08
886.10	1828.84
886.27	1759.21
886.43	1898.47
886.60	1877.99
886.76	1775.59
886.93	1716.20
887.09	1851.36
887.26	1763.30
887.42	1751.01
887.59	1869.80
887.75	1959.91
887.92	1884.13
888.08	1830.88
888.25	2015.20
888.41	1849.32
888.58	1789.92
888.74	1742.82
888.91	1755.11
>>>>>End Processed Spectral Data<<<<<
