SpectraSuite Data File
++++++++++++++++++++++++++++++++++++
Date: Wed May 04 21:13:15 CEST 2016
User: root
Dark Spectrum Present: No
Reference Spectrum Present: No
Number of Sampled Component Spectra: 1
Spectrometers: USB4C02835
Integration Time (usec): 100000 (USB4C02835)
Spectra Averaged: 1 (USB4C02835)
Boxcar Smoothing: 0 (USB4C02835)
Correct for Electrical Dark: No (USB4C02835)
Strobe/Lamp Enabled: No (USB4C02835)
Correct for Detector Non-linearity: No (USB4C02835)
Correct for Stray Light: No (USB4C02835)
Number of Pixels in Processed Spectrum: 3648
>>>>>Begin Processed Spectral Data<<<<<
177.47	1548.26
177.69	1548.26
177.91	1548.26
178.13	1548.26
178.36	1523.69
178.58	1755.11
178.80	1859.56
179.02	1773.54
179.24	1740.77
179.46	1736.68
179.68	1931.23
179.90	1757.16
180.13	1843.17
180.35	1683.43
180.57	1796.07
180.79	1851.36
181.01	1814.50
181.23	1814.50
181.45	1920.99
181.67	1806.31
181.90	1884.13
182.12	1810.40
182.34	1689.57
182.56	1865.70
182.78	1892.32
183.00	1843.17
183.22	1845.22
183.44	1722.34
183.66	1943.52
183.89	1816.55
184.11	1824.74
184.33	1912.80
184.55	1886.18
184.77	1845.22
184.99	1812.45
185.21	1791.97
185.43	1957.86
185.65	1710.05
185.87	1763.30
186.10	2027.49
186.32	1947.62
186.54	1886.18
186.76	1820.64
186.98	1857.51
187.20	1820.64
187.42	1767.40
187.64	1800.16
187.86	1880.04
188.08	1867.75
188.30	1781.73
188.52	1806.31
188.75	1918.95
188.97	1959.91
189.19	1824.74
189.41	1863.65
189.63	1855.46
189.85	1771.49
190.07	1763.30
190.29	1722.34
190.51	1849.32
190.73	1730.53
190.95	1871.84
191.17	1808.36
191.39	1720.29
191.61	1783.78
191.84	1814.50
192.06	1816.55
192.28	1656.81
192.50	2064.35
192.72	1861.60
192.94	1783.78
193.16	1871.84
193.38	1863.65
193.60	1748.97
193.82	1814.50
194.04	1861.60
194.26	1839.08
194.48	1808.36
194.70	1771.49
194.92	1767.40
195.14	1898.47
195.36	1787.88
195.58	1822.69
195.80	1783.78
196.02	1830.88
196.24	1832.93
196.46	1843.17
196.69	1777.64
196.91	2041.82
197.13	1671.14
197.35	1814.50
197.57	1890.28
197.79	1855.46
198.01	1898.47
198.23	1828.84
198.45	1843.17
198.67	1716.20
198.89	1773.54
199.11	1855.46
199.33	1695.72
199.55	1736.68
199.77	1769.44
199.99	1886.18
200.21	1810.40
200.43	1869.80
200.65	1740.77
200.87	1691.62
201.09	1761.25
201.31	1861.60
201.53	1812.45
201.75	1804.26
201.97	1822.69
202.19	1822.69
202.41	1845.22
202.63	1902.56
202.85	1812.45
203.07	1898.47
203.29	1810.40
203.51	1734.63
203.73	1748.97
203.95	1994.72
204.17	1841.12
204.39	1820.64
204.61	1814.50
204.83	1818.60
205.05	1939.43
205.27	1877.99
205.49	1978.34
205.71	1851.36
205.93	1841.12
206.15	1759.21
206.37	1769.44
206.59	1832.93
206.81	1787.88
207.03	1753.06
207.25	1765.35
207.47	1841.12
207.69	1753.06
207.91	1912.80
208.13	1892.32
208.34	1855.46
208.56	1724.39
208.78	1888.23
209.00	1791.97
209.22	1738.73
209.44	1781.73
209.66	1777.64
209.88	1775.59
210.10	1849.32
210.32	1746.92
210.54	1839.08
210.76	1814.50
210.98	1834.98
211.20	1742.82
211.42	1806.31
211.64	1871.84
211.86	1837.03
212.08	1920.99
212.30	1771.49
212.52	1806.31
212.74	1873.89
212.96	1900.52
213.17	1834.98
213.39	1822.69
213.61	1918.95
213.83	1822.69
214.05	1812.45
214.27	1892.32
214.49	1755.11
214.71	1726.44
214.93	1945.57
215.15	1787.88
215.37	1908.71
215.59	1779.68
215.81	1828.84
216.03	1877.99
216.24	1849.32
216.46	1755.11
216.68	1828.84
216.90	1771.49
217.12	1863.65
217.34	1849.32
217.56	1886.18
217.78	1949.67
218.00	1818.60
218.22	1916.90
218.44	1896.42
218.66	1820.64
218.87	1974.24
219.09	1824.74
219.31	1789.92
219.53	1804.26
219.75	1810.40
219.97	1828.84
220.19	1888.23
220.41	1808.36
220.63	1900.52
220.85	1802.21
221.06	1751.01
221.28	1837.03
221.50	1847.27
221.72	1785.83
221.94	1779.68
222.16	1849.32
222.38	1873.89
222.60	1855.46
222.82	1863.65
223.03	1869.80
223.25	1705.96
223.47	1830.88
223.69	1918.95
223.91	1839.08
224.13	1785.83
224.35	1730.53
224.57	1877.99
224.78	1908.71
225.00	1730.53
225.22	1742.82
225.44	1781.73
225.66	1920.99
225.88	1714.15
226.10	1830.88
226.32	1871.84
226.53	1923.04
226.75	1746.92
226.97	1769.44
227.19	1773.54
227.41	1722.34
227.63	1781.73
227.85	1665.00
228.06	1824.74
228.28	1812.45
228.50	1808.36
228.72	1718.25
228.94	1771.49
229.16	1648.61
229.37	1759.21
229.59	1769.44
229.81	1884.13
230.03	1808.36
230.25	1701.86
230.47	1738.73
230.69	1722.34
230.90	1832.93
231.12	1775.59
231.34	1753.06
231.56	1863.65
231.78	1742.82
232.00	1884.13
232.21	1773.54
232.43	1746.92
232.65	1748.97
232.87	1888.23
233.09	1742.82
233.30	1771.49
233.52	1892.32
233.74	1820.64
233.96	1753.06
234.18	1791.97
234.40	1730.53
234.61	1996.77
234.83	1720.29
235.05	1828.84
235.27	1974.24
235.49	1898.47
235.70	1857.51
235.92	1882.08
236.14	1806.31
236.36	1894.37
236.58	1806.31
236.79	1808.36
237.01	1796.07
237.23	1800.16
237.45	1988.58
237.67	1736.68
237.88	1787.88
238.10	1912.80
238.32	1742.82
238.54	1757.16
238.76	1843.17
238.97	1800.16
239.19	1800.16
239.41	1837.03
239.63	1914.85
239.85	1863.65
240.06	1832.93
240.28	1748.97
240.50	1847.27
240.72	1865.70
240.93	1841.12
241.15	1871.84
241.37	1828.84
241.59	1892.32
241.81	1847.27
242.02	1808.36
242.24	1832.93
242.46	1820.64
242.68	1830.88
242.89	1845.22
243.11	1863.65
243.33	1816.55
243.55	1843.17
243.76	1927.14
243.98	1759.21
244.20	1812.45
244.42	1781.73
244.64	1808.36
244.85	1685.48
245.07	1679.33
245.29	1816.55
245.51	1863.65
245.72	1779.68
245.94	1877.99
246.16	1832.93
246.38	1877.99
246.59	1814.50
246.81	1814.50
247.03	1769.44
247.24	1755.11
247.46	1824.74
247.68	1830.88
247.90	1820.64
248.11	1791.97
248.33	1880.04
248.55	1841.12
248.77	1841.12
248.98	1824.74
249.20	1880.04
249.42	1798.12
249.64	1806.31
249.85	1734.63
250.07	1837.03
250.29	1826.79
250.50	1812.45
250.72	1685.48
250.94	1814.50
251.16	1984.48
251.37	1820.64
251.59	1855.46
251.81	1791.97
252.02	1914.85
252.24	1765.35
252.46	1904.61
252.68	1822.69
252.89	1753.06
253.11	1751.01
253.33	1916.90
253.54	1894.37
253.76	1705.96
253.98	1837.03
254.20	1869.80
254.41	1746.92
254.63	1787.88
254.85	1773.54
255.06	1828.84
255.28	1884.13
255.50	1773.54
255.71	1746.92
255.93	1718.25
256.15	1812.45
256.36	1890.28
256.58	1812.45
256.80	1834.98
257.02	1732.58
257.23	1808.36
257.45	1843.17
257.67	1785.83
257.88	1771.49
258.10	1820.64
258.32	1882.08
258.53	1796.07
258.75	1927.14
258.97	1779.68
259.18	1789.92
259.40	1798.12
259.62	1959.91
259.83	1873.89
260.05	1796.07
260.27	2113.50
260.48	1851.36
260.70	1708.01
260.92	1845.22
261.13	1873.89
261.35	1802.21
261.57	1845.22
261.78	1703.91
262.00	1763.30
262.22	1857.51
262.43	1787.88
262.65	1853.41
262.86	1804.26
263.08	1888.23
263.30	1791.97
263.51	1724.39
263.73	1767.40
263.95	1912.80
264.16	1789.92
264.38	1755.11
264.60	1677.29
264.81	1773.54
265.03	1855.46
265.25	1894.37
265.46	1736.68
265.68	1867.75
265.89	1781.73
266.11	1710.05
266.33	1906.66
266.54	1865.70
266.76	1863.65
266.98	1828.84
267.19	1929.19
267.41	1843.17
267.62	1787.88
267.84	1753.06
268.06	1865.70
268.27	1798.12
268.49	1910.75
268.70	1890.28
268.92	1890.28
269.14	1742.82
269.35	1771.49
269.57	1759.21
269.79	1894.37
270.00	1814.50
270.22	1814.50
270.43	1716.20
270.65	1640.42
270.87	1798.12
271.08	1935.33
271.30	1843.17
271.51	1923.04
271.73	1820.64
271.95	1857.51
272.16	1783.78
272.38	1871.84
272.59	1734.63
272.81	1849.32
273.02	1816.55
273.24	1873.89
273.46	1843.17
273.67	1783.78
273.89	1718.25
274.10	1763.30
274.32	1882.08
274.54	1826.79
274.75	1857.51
274.97	1806.31
275.18	1853.41
275.40	1849.32
275.61	1773.54
275.83	1839.08
276.05	1689.57
276.26	1785.83
276.48	1816.55
276.69	1785.83
276.91	1660.90
277.12	1898.47
277.34	1892.32
277.55	1873.89
277.77	1798.12
277.99	1802.21
278.20	1759.21
278.42	1710.05
278.63	1767.40
278.85	1695.72
279.06	1755.11
279.28	1824.74
279.49	1877.99
279.71	1863.65
279.93	1761.25
280.14	1857.51
280.36	1722.34
280.57	1806.31
280.79	1869.80
281.00	1771.49
281.22	1757.16
281.43	1920.99
281.65	1697.77
281.86	1753.06
282.08	1857.51
282.29	1947.62
282.51	1781.73
282.73	1796.07
282.94	1748.97
283.16	1880.04
283.37	1961.95
283.59	1796.07
283.80	1828.84
284.02	1843.17
284.23	1777.64
284.45	1796.07
284.66	1761.25
284.88	1718.25
285.09	1808.36
285.31	1861.60
285.52	1843.17
285.74	1726.44
285.95	1839.08
286.17	1828.84
286.38	1886.18
286.60	1787.88
286.81	1771.49
287.03	1822.69
287.24	1865.70
287.46	1896.42
287.67	1839.08
287.89	1931.23
288.10	1869.80
288.32	1785.83
288.53	1845.22
288.75	1791.97
288.96	1904.61
289.18	1753.06
289.39	1837.03
289.61	1837.03
289.82	1939.43
290.04	1951.71
290.25	1800.16
290.47	1834.98
290.68	1757.16
290.90	1847.27
291.11	1689.57
291.33	1923.04
291.54	1732.58
291.76	1783.78
291.97	1773.54
292.18	1867.75
292.40	1796.07
292.61	1804.26
292.83	2025.44
293.04	1816.55
293.26	1896.42
293.47	1773.54
293.69	1820.64
293.90	1740.77
294.12	1925.09
294.33	1841.12
294.55	1873.89
294.76	1916.90
294.97	1890.28
295.19	1980.39
295.40	1820.64
295.62	1794.02
295.83	1849.32
296.05	1771.49
296.26	1865.70
296.48	1722.34
296.69	1826.79
296.90	1845.22
297.12	1824.74
297.33	1904.61
297.55	1720.29
297.76	1912.80
297.98	1824.74
298.19	1761.25
298.41	1845.22
298.62	1701.86
298.83	1845.22
299.05	1841.12
299.26	1757.16
299.48	1728.49
299.69	1847.27
299.90	1779.68
300.12	1804.26
300.33	1796.07
300.55	1820.64
300.76	1804.26
300.98	1697.77
301.19	1902.56
301.40	1716.20
301.62	1767.40
301.83	1828.84
302.05	1849.32
302.26	1761.25
302.47	1769.44
302.69	1812.45
302.90	1914.85
303.12	1705.96
303.33	1880.04
303.54	1900.52
303.76	1765.35
303.97	1787.88
304.19	1988.58
304.40	1695.72
304.61	1841.12
304.83	1955.81
305.04	1890.28
305.26	1828.84
305.47	1718.25
305.68	1861.60
305.90	1693.67
306.11	1863.65
306.33	1863.65
306.54	1806.31
306.75	1765.35
306.97	1693.67
307.18	1773.54
307.39	1822.69
307.61	1853.41
307.82	1720.29
308.04	1804.26
308.25	1791.97
308.46	1826.79
308.68	1851.36
308.89	1910.75
309.10	1918.95
309.32	1775.59
309.53	1796.07
309.74	1828.84
309.96	1800.16
310.17	1834.98
310.39	1746.92
310.60	1759.21
310.81	1820.64
311.03	1748.97
311.24	1794.02
311.45	1882.08
311.67	1931.23
311.88	1783.78
312.09	1779.68
312.31	1767.40
312.52	1863.65
312.73	1839.08
312.95	1730.53
313.16	1816.55
313.37	1877.99
313.59	1796.07
313.80	1923.04
314.01	1964.00
314.23	1802.21
314.44	1746.92
314.65	1751.01
314.87	1765.35
315.08	1791.97
315.29	1779.68
315.51	1765.35
315.72	1730.53
315.93	1902.56
316.15	1869.80
316.36	1783.78
316.57	1863.65
316.79	1855.46
317.00	1759.21
317.21	1791.97
317.43	1791.97
317.64	1857.51
317.85	1771.49
318.07	1695.72
318.28	1789.92
318.49	2035.68
318.70	2035.68
318.92	1943.52
319.13	1951.71
319.34	2060.26
319.56	1951.71
319.77	1943.52
319.98	1966.05
320.20	1937.38
320.41	1808.36
320.62	1837.03
320.83	1746.92
321.05	1937.38
321.26	1738.73
321.47	1742.82
321.69	1863.65
321.90	1763.30
322.11	1791.97
322.32	1787.88
322.54	1882.08
322.75	1789.92
322.96	1888.23
323.18	1810.40
323.39	1751.01
323.60	1802.21
323.81	1869.80
324.03	1832.93
324.24	1871.84
324.45	1785.83
324.66	1791.97
324.88	1867.75
325.09	1873.89
325.30	1810.40
325.52	1804.26
325.73	1832.93
325.94	1710.05
326.15	1767.40
326.37	1794.02
326.58	1908.71
326.79	1906.66
327.00	1746.92
327.22	1765.35
327.43	1785.83
327.64	1796.07
327.85	1935.33
328.07	1806.31
328.28	1933.28
328.49	1720.29
328.70	1839.08
328.92	1767.40
329.13	1767.40
329.34	1804.26
329.55	1933.28
329.76	1910.75
329.98	1787.88
330.19	1855.46
330.40	1837.03
330.61	1871.84
330.83	1877.99
331.04	1783.78
331.25	1800.16
331.46	1796.07
331.68	1742.82
331.89	1826.79
332.10	1810.40
332.31	1763.30
332.52	1841.12
332.74	1947.62
332.95	1734.63
333.16	1800.16
333.37	1812.45
333.58	1785.83
333.80	1820.64
334.01	1660.90
334.22	1767.40
334.43	1757.16
334.64	1843.17
334.86	1751.01
335.07	1724.39
335.28	1869.80
335.49	1748.97
335.70	1820.64
335.92	1816.55
336.13	1947.62
336.34	1834.98
336.55	1853.41
336.76	1880.04
336.98	1634.28
337.19	1775.59
337.40	1865.70
337.61	2023.39
337.82	1798.12
338.04	1830.88
338.25	1773.54
338.46	1771.49
338.67	1888.23
338.88	1718.25
339.09	1718.25
339.31	1755.11
339.52	1701.86
339.73	1771.49
339.94	1933.28
340.15	1857.51
340.36	1783.78
340.58	1814.50
340.79	1742.82
341.00	1877.99
341.21	1800.16
341.42	1847.27
341.63	1812.45
341.85	1890.28
342.06	1800.16
342.27	1740.77
342.48	1808.36
342.69	1773.54
342.90	1884.13
343.12	1914.85
343.33	1781.73
343.54	1843.17
343.75	1918.95
343.96	1861.60
344.17	1777.64
344.38	1800.16
344.60	1742.82
344.81	1814.50
345.02	1714.15
345.23	1884.13
345.44	1955.81
345.65	1884.13
345.86	1824.74
346.07	1877.99
346.29	1736.68
346.50	1914.85
346.71	1896.42
346.92	1920.99
347.13	1933.28
347.34	1779.68
347.55	1814.50
347.76	1818.60
347.98	1746.92
348.19	1814.50
348.40	1920.99
348.61	1751.01
348.82	1834.98
349.03	1855.46
349.24	1783.78
349.45	1914.85
349.66	1759.21
349.88	1834.98
350.09	1832.93
350.30	1861.60
350.51	1869.80
350.72	1820.64
350.93	1849.32
351.14	1734.63
351.35	1830.88
351.56	1873.89
351.77	1834.98
351.99	1855.46
352.20	1884.13
352.41	1818.60
352.62	1724.39
352.83	1785.83
353.04	1873.89
353.25	1843.17
353.46	1920.99
353.67	1843.17
353.88	1650.66
354.09	1818.60
354.30	1796.07
354.52	1802.21
354.73	1861.60
354.94	1820.64
355.15	1783.78
355.36	1898.47
355.57	1779.68
355.78	1832.93
355.99	1751.01
356.20	1726.44
356.41	1845.22
356.62	1816.55
356.83	1785.83
357.04	1855.46
357.25	1798.12
357.46	1775.59
357.68	1642.47
357.89	1777.64
358.10	1828.84
358.31	1794.02
358.52	1832.93
358.73	1798.12
358.94	1769.44
359.15	1660.90
359.36	1869.80
359.57	1841.12
359.78	1822.69
359.99	1845.22
360.20	1718.25
360.41	1742.82
360.62	1810.40
360.83	1837.03
361.04	1810.40
361.25	1861.60
361.46	1871.84
361.67	1847.27
361.88	1865.70
362.09	1861.60
362.30	1861.60
362.51	1808.36
362.72	1851.36
362.93	1804.26
363.14	1877.99
363.35	1873.89
363.56	1796.07
363.78	1900.52
363.99	1898.47
364.20	1726.44
364.41	1880.04
364.62	1906.66
364.83	1804.26
365.04	1818.60
365.25	1824.74
365.46	1931.23
365.67	1834.98
365.88	1800.16
366.09	1773.54
366.30	1773.54
366.51	1812.45
366.72	1662.95
366.93	1841.12
367.14	1824.74
367.35	1859.56
367.56	1845.22
367.77	1931.23
367.98	1822.69
368.18	1923.04
368.39	1791.97
368.60	1787.88
368.81	1925.09
369.02	1843.17
369.23	1865.70
369.44	1691.62
369.65	1787.88
369.86	1857.51
370.07	1916.90
370.28	1753.06
370.49	1884.13
370.70	1927.14
370.91	1732.58
371.12	1796.07
371.33	1892.32
371.54	1742.82
371.75	1949.67
371.96	1689.57
372.17	1853.41
372.38	1800.16
372.59	1837.03
372.80	1832.93
373.01	1798.12
373.22	1834.98
373.43	1783.78
373.64	1722.34
373.85	1900.52
374.06	1978.34
374.26	1877.99
374.47	1791.97
374.68	1863.65
374.89	1904.61
375.10	1865.70
375.31	1923.04
375.52	1802.21
375.73	1808.36
375.94	1720.29
376.15	1867.75
376.36	1716.20
376.57	1787.88
376.78	1716.20
376.99	1855.46
377.20	1947.62
377.40	1777.64
377.61	1877.99
377.82	1695.72
378.03	1933.28
378.24	1816.55
378.45	1855.46
378.66	1816.55
378.87	1662.95
379.08	1775.59
379.29	1814.50
379.50	1900.52
379.71	1808.36
379.91	1927.14
380.12	1808.36
380.33	1830.88
380.54	1824.74
380.75	1837.03
380.96	1763.30
381.17	1843.17
381.38	1806.31
381.59	1869.80
381.80	1841.12
382.00	1986.53
382.21	1849.32
382.42	1990.63
382.63	2015.20
382.84	1900.52
383.05	1947.62
383.26	1951.71
383.47	1880.04
383.68	1855.46
383.88	1888.23
384.09	1841.12
384.30	1941.47
384.51	1767.40
384.72	1736.68
384.93	1771.49
385.14	1818.60
385.35	1841.12
385.55	1777.64
385.76	1916.90
385.97	1843.17
386.18	1771.49
386.39	1748.97
386.60	1849.32
386.81	1806.31
387.02	1849.32
387.22	1753.06
387.43	1828.84
387.64	1955.81
387.85	1914.85
388.06	2197.47
388.27	4294.59
388.48	8867.70
388.68	11870.03
388.89	13944.62
389.10	14956.32
389.31	12912.44
389.52	10418.02
389.73	9381.74
389.93	8359.81
390.14	7702.41
390.35	6981.53
390.56	6401.95
390.77	5191.60
390.98	4057.03
391.18	3028.95
391.39	2519.00
391.60	1988.58
391.81	2009.06
392.02	1789.92
392.23	1988.58
392.43	1849.32
392.64	1863.65
392.85	1853.41
393.06	1955.81
393.27	1820.64
393.47	1775.59
393.68	1832.93
393.89	1738.73
394.10	1867.75
394.31	1802.21
394.52	1830.88
394.72	1789.92
394.93	1914.85
395.14	1728.49
395.35	1849.32
395.56	1837.03
395.76	1798.12
395.97	1880.04
396.18	1937.38
396.39	1945.57
396.60	2185.18
396.80	2072.54
397.01	1943.52
397.22	1957.86
397.43	1941.47
397.64	1871.84
397.84	1918.95
398.05	2119.65
398.26	1757.16
398.47	1920.99
398.67	1923.04
398.88	1818.60
399.09	1880.04
399.30	1863.65
399.51	1902.56
399.71	1744.87
399.92	1875.94
400.13	1869.80
400.34	1818.60
400.54	1890.28
400.75	1927.14
400.96	1837.03
401.17	1923.04
401.37	1880.04
401.58	1828.84
401.79	1886.18
402.00	1902.56
402.21	2170.85
402.41	2228.19
402.62	2187.23
402.83	2318.30
403.04	2220.00
403.24	2222.05
403.45	2070.50
403.66	2076.64
403.87	1996.77
404.07	2031.58
404.28	2047.97
404.49	1980.39
404.70	1859.56
404.90	1884.13
405.11	1867.75
405.32	1882.08
405.52	1812.45
405.73	1789.92
405.94	1791.97
406.15	1884.13
406.35	1783.78
406.56	1920.99
406.77	1873.89
406.98	1814.50
407.18	1810.40
407.39	1949.67
407.60	1767.40
407.80	1849.32
408.01	1763.30
408.22	1880.04
408.43	1798.12
408.63	1855.46
408.84	1867.75
409.05	1806.31
409.25	1775.59
409.46	1755.11
409.67	1800.16
409.88	1804.26
410.08	1820.64
410.29	1841.12
410.50	1865.70
410.70	1880.04
410.91	1810.40
411.12	1818.60
411.32	1888.23
411.53	1843.17
411.74	1912.80
411.95	2004.96
412.15	1998.82
412.36	1943.52
412.57	1908.71
412.77	1955.81
412.98	1851.36
413.19	1818.60
413.39	1841.12
413.60	1865.70
413.81	1898.47
414.01	1787.88
414.22	1853.41
414.43	1816.55
414.63	1763.30
414.84	1918.95
415.05	1839.08
415.25	1763.30
415.46	1871.84
415.67	1880.04
415.87	1816.55
416.08	1869.80
416.29	1787.88
416.49	1808.36
416.70	1755.11
416.91	1808.36
417.11	1820.64
417.32	1888.23
417.53	1908.71
417.73	1918.95
417.94	1822.69
418.15	1830.88
418.35	1818.60
418.56	1859.56
418.77	1990.63
418.97	1783.78
419.18	1865.70
419.38	1740.77
419.59	1812.45
419.80	1908.71
420.00	1806.31
420.21	1859.56
420.42	1890.28
420.62	1775.59
420.83	1847.27
421.04	1808.36
421.24	1857.51
421.45	1859.56
421.65	1892.32
421.86	1841.12
422.07	1824.74
422.27	1816.55
422.48	1828.84
422.69	1701.86
422.89	1843.17
423.10	1755.11
423.30	1822.69
423.51	1826.79
423.72	1863.65
423.92	1867.75
424.13	1808.36
424.33	1798.12
424.54	1875.94
424.75	1837.03
424.95	1941.47
425.16	1832.93
425.36	1779.68
425.57	1822.69
425.78	1886.18
425.98	1830.88
426.19	1826.79
426.39	1695.72
426.60	1882.08
426.81	1908.71
427.01	1765.35
427.22	1806.31
427.42	1748.97
427.63	1796.07
427.83	1912.80
428.04	1945.57
428.25	1812.45
428.45	1863.65
428.66	1877.99
428.86	1796.07
429.07	1808.36
429.28	1853.41
429.48	1837.03
429.69	1730.53
429.89	1855.46
430.10	1847.27
430.30	1914.85
430.51	1830.88
430.71	1824.74
430.92	1843.17
431.13	1863.65
431.33	1867.75
431.54	1845.22
431.74	1943.52
431.95	1953.76
432.15	1785.83
432.36	1847.27
432.56	1847.27
432.77	1959.91
432.98	1949.67
433.18	1877.99
433.39	1820.64
433.59	1810.40
433.80	1896.42
434.00	1949.67
434.21	1890.28
434.41	1787.88
434.62	1937.38
434.82	1822.69
435.03	1839.08
435.23	1877.99
435.44	1712.10
435.64	1818.60
435.85	1826.79
436.06	1869.80
436.26	1849.32
436.47	1798.12
436.67	1714.15
436.88	1787.88
437.08	1894.37
437.29	1947.62
437.49	1810.40
437.70	1916.90
437.90	1751.01
438.11	1920.99
438.31	1894.37
438.52	2045.92
438.72	1976.29
438.93	2121.70
439.13	1988.58
439.34	1972.19
439.54	1837.03
439.75	1929.19
439.95	1990.63
440.16	1812.45
440.36	1863.65
440.57	1804.26
440.77	1857.51
440.98	1808.36
441.18	1855.46
441.39	1769.44
441.59	1816.55
441.80	1888.23
442.00	1845.22
442.21	1861.60
442.41	1755.11
442.62	1966.05
442.82	1769.44
443.02	1767.40
443.23	1816.55
443.43	1892.32
443.64	1984.48
443.84	1783.78
444.05	1894.37
444.25	1722.34
444.46	1796.07
444.66	1882.08
444.87	1951.71
445.07	1726.44
445.28	1779.68
445.48	1920.99
445.69	1880.04
445.89	1951.71
446.09	1824.74
446.30	2131.94
446.50	2494.43
446.71	4159.42
446.91	5126.07
447.12	6043.56
447.32	6145.95
447.53	5582.76
447.73	4558.78
447.93	4102.08
448.14	3758.02
448.34	3645.38
448.55	3229.65
448.75	3282.89
448.96	3067.86
449.16	2809.81
449.36	2521.05
449.57	2252.77
449.77	2066.40
449.98	1931.23
450.18	1869.80
450.39	1863.65
450.59	1834.98
450.79	1812.45
451.00	1800.16
451.20	1935.33
451.41	1830.88
451.61	1902.56
451.81	1898.47
452.02	1779.68
452.22	1834.98
452.43	1810.40
452.63	1751.01
452.84	1826.79
453.04	1748.97
453.24	1857.51
453.45	1834.98
453.65	1843.17
453.86	1812.45
454.06	1875.94
454.26	1828.84
454.47	1800.16
454.67	1927.14
454.87	1830.88
455.08	1812.45
455.28	1982.43
455.49	1955.81
455.69	1818.60
455.89	1951.71
456.10	1951.71
456.30	1832.93
456.51	1843.17
456.71	1779.68
456.91	1859.56
457.12	1830.88
457.32	1804.26
457.52	1697.77
457.73	1912.80
457.93	1951.71
458.14	1710.05
458.34	1755.11
458.54	1857.51
458.75	1871.84
458.95	1900.52
459.15	1818.60
459.36	1861.60
459.56	1834.98
459.76	1959.91
459.97	1841.12
460.17	1769.44
460.37	1867.75
460.58	1830.88
460.78	1882.08
460.99	1847.27
461.19	1853.41
461.39	1755.11
461.60	1785.83
461.80	1851.36
462.00	1771.49
462.21	1861.60
462.41	1753.06
462.61	1796.07
462.82	1828.84
463.02	1894.37
463.22	1865.70
463.43	1875.94
463.63	1877.99
463.83	1943.52
464.04	1839.08
464.24	1923.04
464.44	1828.84
464.64	1839.08
464.85	1863.65
465.05	1908.71
465.25	1910.75
465.46	1775.59
465.66	1861.60
465.86	1855.46
466.07	1849.32
466.27	1892.32
466.47	1679.33
466.68	1755.11
466.88	1857.51
467.08	1900.52
467.29	1918.95
467.49	1867.75
467.69	1863.65
467.89	1834.98
468.10	1800.16
468.30	1806.31
468.50	1945.57
468.71	1931.23
468.91	1769.44
469.11	1916.90
469.31	1849.32
469.52	1814.50
469.72	1970.15
469.92	2009.06
470.13	1869.80
470.33	1779.68
470.53	2004.96
470.73	2320.35
470.94	2621.40
471.14	2910.16
471.34	3133.39
471.54	3104.72
471.75	2820.05
471.95	2494.43
472.15	2410.46
472.36	2349.02
472.56	2336.73
472.76	2344.92
472.96	2297.82
473.17	2263.01
473.37	2099.17
473.57	1890.28
473.77	1949.67
473.98	1939.43
474.18	1726.44
474.38	2019.30
474.58	1810.40
474.79	1818.60
474.99	1861.60
475.19	1896.42
475.39	1773.54
475.60	1908.71
475.80	1859.56
476.00	1847.27
476.20	1869.80
476.41	1837.03
476.61	1970.15
476.81	1863.65
477.01	1791.97
477.21	1957.86
477.42	1945.57
477.62	1777.64
477.82	1957.86
478.02	1800.16
478.23	1839.08
478.43	1773.54
478.63	1730.53
478.83	1830.88
479.03	1849.32
479.24	1812.45
479.44	1923.04
479.64	1812.45
479.84	1712.10
480.04	1769.44
480.25	1753.06
480.45	1753.06
480.65	1796.07
480.85	1927.14
481.06	1826.79
481.26	1935.33
481.46	1904.61
481.66	1806.31
481.86	1779.68
482.06	1894.37
482.27	1828.84
482.47	1820.64
482.67	1830.88
482.87	1751.01
483.07	1904.61
483.28	1867.75
483.48	1748.97
483.68	1826.79
483.88	1794.02
484.08	1652.71
484.29	1742.82
484.49	1812.45
484.69	1742.82
484.89	1955.81
485.09	1923.04
485.29	1837.03
485.50	1861.60
485.70	1787.88
485.90	1896.42
486.10	1861.60
486.30	1853.41
486.50	1916.90
486.71	1896.42
486.91	1888.23
487.11	1933.28
487.31	1820.64
487.51	1933.28
487.71	1751.01
487.91	1736.68
488.12	1757.16
488.32	1656.81
488.52	1791.97
488.72	1736.68
488.92	1880.04
489.12	1896.42
489.32	1910.75
489.53	1886.18
489.73	1794.02
489.93	1920.99
490.13	1810.40
490.33	1718.25
490.53	1796.07
490.73	1966.05
490.94	1755.11
491.14	1871.84
491.34	1959.91
491.54	2125.79
491.74	2852.82
491.94	3440.59
492.14	3704.78
492.34	3768.26
492.54	3356.62
492.75	2951.12
492.95	2758.61
493.15	2549.72
493.35	2510.81
493.55	2422.75
493.75	2326.49
493.95	2338.78
494.15	2189.28
494.35	2076.64
494.56	1984.48
494.76	1945.57
494.96	1916.90
495.16	1851.36
495.36	1859.56
495.56	1871.84
495.76	1845.22
495.96	1763.30
496.16	1859.56
496.36	1896.42
496.56	1806.31
496.77	1896.42
496.97	1791.97
497.17	1902.56
497.37	1837.03
497.57	1841.12
497.77	1861.60
497.97	1720.29
498.17	1882.08
498.37	1839.08
498.57	1837.03
498.77	1841.12
498.97	1800.16
499.17	1949.67
499.38	1910.75
499.58	1877.99
499.78	1972.19
499.98	1912.80
500.18	1703.91
500.38	1804.26
500.58	2002.91
500.78	2498.52
500.98	4741.05
501.18	6811.54
501.38	8617.85
501.58	9467.76
501.78	9322.35
501.98	7317.39
502.18	5998.50
502.38	5144.50
502.58	4661.18
502.78	4184.00
502.98	3950.53
503.18	4003.78
503.38	3645.38
503.59	3112.91
503.79	2967.51
503.99	2754.52
504.19	2576.34
504.39	2459.61
504.59	2484.19
504.79	2445.27
504.99	2463.71
505.19	2179.04
505.39	2045.92
505.59	2172.89
505.79	2068.45
505.99	1986.53
506.19	2009.06
506.39	2029.54
506.59	1814.50
506.79	1910.75
506.99	2011.11
507.19	1783.78
507.39	1855.46
507.59	1796.07
507.79	1800.16
507.99	1781.73
508.19	1902.56
508.39	1837.03
508.59	1832.93
508.79	1931.23
508.99	1929.19
509.19	1810.40
509.39	1865.70
509.59	1794.02
509.79	1751.01
509.99	1847.27
510.19	1898.47
510.39	1873.89
510.59	1785.83
510.79	1808.36
510.99	1677.29
511.19	1843.17
511.39	1896.42
511.59	1992.67
511.79	1900.52
511.99	1873.89
512.19	1914.85
512.38	1884.13
512.58	1775.59
512.78	1845.22
512.98	1837.03
513.18	1845.22
513.38	1777.64
513.58	1927.14
513.78	1755.11
513.98	1892.32
514.18	1880.04
514.38	1748.97
514.58	1892.32
514.78	1804.26
514.98	1763.30
515.18	1869.80
515.38	1806.31
515.58	2000.87
515.78	1798.12
515.98	1853.41
516.18	1832.93
516.38	1923.04
516.57	1810.40
516.77	1746.92
516.97	1820.64
517.17	1800.16
517.37	1732.58
517.57	1894.37
517.77	1834.98
517.97	1851.36
518.17	1943.52
518.37	1798.12
518.57	1806.31
518.77	1771.49
518.97	1785.83
519.16	1853.41
519.36	1953.76
519.56	1837.03
519.76	1908.71
519.96	1812.45
520.16	1929.19
520.36	1839.08
520.56	1892.32
520.76	1816.55
520.96	1882.08
521.16	1863.65
521.35	1873.89
521.55	2023.39
521.75	1896.42
521.95	1830.88
522.15	1808.36
522.35	1800.16
522.55	1849.32
522.75	1992.67
522.95	1769.44
523.14	1728.49
523.34	1791.97
523.54	1810.40
523.74	1869.80
523.94	1904.61
524.14	1697.77
524.34	1914.85
524.54	1843.17
524.73	1839.08
524.93	1898.47
525.13	1785.83
525.33	1779.68
525.53	1970.15
525.73	1880.04
525.93	1933.28
526.13	1726.44
526.32	1761.25
526.52	1830.88
526.72	1834.98
526.92	1812.45
527.12	1796.07
527.32	1771.49
527.52	1918.95
527.71	1847.27
527.91	1869.80
528.11	1796.07
528.31	1830.88
528.51	1769.44
528.71	1800.16
528.90	1886.18
529.10	1851.36
529.30	1957.86
529.50	1738.73
529.70	1884.13
529.90	1837.03
530.09	1787.88
530.29	1716.20
530.49	1841.12
530.69	2082.78
530.89	1855.46
531.09	1814.50
531.28	1841.12
531.48	1888.23
531.68	1806.31
531.88	1806.31
532.08	1914.85
532.28	1861.60
532.47	1933.28
532.67	1953.76
532.87	1900.52
533.07	1832.93
533.27	1923.04
533.46	1828.84
533.66	1892.32
533.86	1898.47
534.06	1851.36
534.26	1861.60
534.45	1763.30
534.65	1939.43
534.85	1869.80
535.05	1787.88
535.25	1943.52
535.44	1746.92
535.64	1918.95
535.84	1910.75
536.04	1841.12
536.24	1845.22
536.43	1865.70
536.63	1855.46
536.83	1794.02
537.03	1882.08
537.22	1746.92
537.42	1740.77
537.62	1863.65
537.82	1759.21
538.02	1888.23
538.21	1896.42
538.41	2050.02
538.61	1839.08
538.81	1873.89
539.00	1916.90
539.20	1687.53
539.40	1839.08
539.60	1900.52
539.79	1949.67
539.99	1834.98
540.19	1810.40
540.39	1830.88
540.58	1837.03
540.78	1898.47
540.98	1861.60
541.18	1968.10
541.37	1900.52
541.57	1810.40
541.77	1898.47
541.97	1861.60
542.16	1736.68
542.36	1828.84
542.56	1779.68
542.76	1961.95
542.95	1925.09
543.15	1839.08
543.35	1816.55
543.54	1794.02
543.74	1816.55
543.94	1865.70
544.14	1794.02
544.33	1857.51
544.53	1869.80
544.73	1828.84
544.93	1834.98
545.12	1865.70
545.32	1880.04
545.52	1867.75
545.71	1830.88
545.91	1851.36
546.11	1796.07
546.30	1712.10
546.50	1818.60
546.70	1865.70
546.90	1865.70
547.09	1648.61
547.29	1875.94
547.49	1865.70
547.68	1888.23
547.88	1861.60
548.08	1884.13
548.27	2310.11
548.47	1804.26
548.67	1806.31
548.87	1908.71
549.06	1740.77
549.26	1808.36
549.46	1845.22
549.65	1820.64
549.85	1847.27
550.05	1984.48
550.24	1740.77
550.44	1802.21
550.64	1843.17
550.83	1859.56
551.03	1851.36
551.23	1957.86
551.42	1959.91
551.62	1830.88
551.82	1900.52
552.01	1808.36
552.21	1902.56
552.41	1785.83
552.60	1884.13
552.80	1828.84
553.00	1851.36
553.19	1918.95
553.39	1869.80
553.59	1728.49
553.78	1849.32
553.98	1865.70
554.17	1746.92
554.37	1820.64
554.57	1877.99
554.76	1761.25
554.96	1783.78
555.16	1849.32
555.35	1804.26
555.55	1810.40
555.75	1910.75
555.94	1886.18
556.14	1701.86
556.33	1861.60
556.53	1830.88
556.73	1943.52
556.92	1865.70
557.12	1980.39
557.32	2017.25
557.51	1951.71
557.71	1808.36
557.90	1900.52
558.10	1890.28
558.30	1814.50
558.49	1812.45
558.69	1839.08
558.88	1906.66
559.08	1871.84
559.28	1834.98
559.47	1765.35
559.67	1900.52
559.86	2013.15
560.06	1865.70
560.26	1779.68
560.45	1904.61
560.65	1869.80
560.84	1968.10
561.04	1880.04
561.24	1818.60
561.43	1734.63
561.63	1877.99
561.82	1800.16
562.02	1873.89
562.22	1796.07
562.41	1800.16
562.61	1822.69
562.80	1802.21
563.00	2013.15
563.19	1867.75
563.39	1869.80
563.59	1886.18
563.78	1796.07
563.98	1763.30
564.17	1796.07
564.37	1679.33
564.56	1873.89
564.76	1712.10
564.96	1951.71
565.15	1869.80
565.35	2025.44
565.54	1806.31
565.74	1925.09
565.93	1873.89
566.13	1837.03
566.32	1935.33
566.52	1927.14
566.71	1847.27
566.91	1853.41
567.11	1826.79
567.30	1712.10
567.50	1847.27
567.69	1908.71
567.89	1834.98
568.08	1851.36
568.28	1863.65
568.47	1765.35
568.67	1875.94
568.86	1806.31
569.06	1935.33
569.25	1841.12
569.45	1767.40
569.64	1853.41
569.84	1867.75
570.04	1935.33
570.23	1769.44
570.43	1845.22
570.62	1875.94
570.82	1896.42
571.01	1748.97
571.21	1824.74
571.40	1837.03
571.60	1871.84
571.79	1871.84
571.99	1900.52
572.18	1742.82
572.38	1894.37
572.57	1812.45
572.77	1861.60
572.96	1990.63
573.16	1959.91
573.35	1816.55
573.55	1966.05
573.74	1900.52
573.94	1751.01
574.13	1894.37
574.33	1853.41
574.52	1851.36
574.71	1927.14
574.91	1861.60
575.10	1781.73
575.30	1812.45
575.49	1742.82
575.69	1800.16
575.88	1837.03
576.08	1890.28
576.27	1910.75
576.47	1882.08
576.66	2004.96
576.86	1998.82
577.05	1943.52
577.25	1929.19
577.44	2021.35
577.64	1781.73
577.83	1894.37
578.02	1837.03
578.22	1955.81
578.41	1964.00
578.61	1873.89
578.80	1736.68
579.00	1869.80
579.19	1890.28
579.39	1847.27
579.58	1929.19
579.77	1877.99
579.97	1931.23
580.16	1972.19
580.36	1957.86
580.55	1955.81
580.75	1910.75
580.94	1849.32
581.13	1978.34
581.33	1992.67
581.52	1906.66
581.72	2144.22
581.91	1998.82
582.11	1857.51
582.30	1923.04
582.49	1859.56
582.69	2000.87
582.88	1896.42
583.08	1951.71
583.27	1931.23
583.47	1896.42
583.66	1828.84
583.85	1828.84
584.05	1880.04
584.24	1910.75
584.44	1798.12
584.63	2021.35
584.82	2029.54
585.02	2097.12
585.21	2025.44
585.41	1992.67
585.60	2031.58
585.79	2158.56
585.99	2090.98
586.18	2080.74
586.37	2422.75
586.57	3629.00
586.76	10803.04
586.96	28792.39
587.15	43304.30
587.34	53759.18
587.54	59409.53
587.73	56491.17
587.93	40420.76
588.12	29965.88
588.31	23899.80
588.51	20612.81
588.70	18714.34
588.89	17250.04
589.09	15318.81
589.28	13518.64
589.47	11147.09
589.67	9172.85
589.86	7069.59
590.06	4990.90
590.25	4020.16
590.44	3200.98
590.64	2576.34
590.83	2263.01
591.02	2197.47
591.22	2037.73
591.41	1978.34
591.60	1857.51
591.80	2052.06
591.99	1873.89
592.18	1888.23
592.38	1869.80
592.57	1867.75
592.76	1912.80
592.96	1918.95
593.15	1873.89
593.34	1968.10
593.54	1888.23
593.73	1867.75
593.92	1974.24
594.12	1861.60
594.31	1951.71
594.50	1943.52
594.70	1988.58
594.89	2037.73
595.08	1744.87
595.28	1931.23
595.47	2033.63
595.66	1920.99
595.86	1826.79
596.05	1820.64
596.24	1828.84
596.43	1972.19
596.63	2019.30
596.82	1898.47
597.01	1908.71
597.21	1914.85
597.40	1939.43
597.59	1845.22
597.79	1847.27
597.98	1939.43
598.17	1890.28
598.36	1877.99
598.56	1923.04
598.75	1896.42
598.94	1920.99
599.14	1955.81
599.33	1841.12
599.52	1937.38
599.71	1914.85
599.91	1927.14
600.10	1916.90
600.29	1826.79
600.48	1869.80
600.68	1898.47
600.87	1849.32
601.06	1755.11
601.26	1877.99
601.45	1894.37
601.64	1816.55
601.83	1920.99
602.03	1783.78
602.22	1757.16
602.41	1943.52
602.60	1988.58
602.80	1916.90
602.99	1918.95
603.18	1832.93
603.37	1873.89
603.57	1781.73
603.76	1920.99
603.95	1929.19
604.14	1843.17
604.34	1740.77
604.53	1888.23
604.72	1843.17
604.91	1890.28
605.10	1933.28
605.30	1693.67
605.49	1972.19
605.68	1875.94
605.87	1865.70
606.07	1794.02
606.26	1918.95
606.45	1855.46
606.64	1841.12
606.84	1837.03
607.03	1863.65
607.22	1849.32
607.41	1910.75
607.60	1882.08
607.80	1908.71
607.99	1851.36
608.18	1845.22
608.37	1898.47
608.56	1808.36
608.76	1918.95
608.95	1966.05
609.14	1877.99
609.33	1943.52
609.52	2009.06
609.72	1871.84
609.91	1918.95
610.10	1906.66
610.29	1943.52
610.48	1955.81
610.68	1845.22
610.87	1853.41
611.06	1966.05
611.25	1810.40
611.44	1964.00
611.63	1867.75
611.83	1925.09
612.02	1763.30
612.21	1847.27
612.40	1779.68
612.59	1724.39
612.79	1832.93
612.98	1898.47
613.17	1984.48
613.36	1796.07
613.55	1949.67
613.74	1886.18
613.93	2021.35
614.13	2074.59
614.32	2074.59
614.51	2066.40
614.70	2029.54
614.89	1894.37
615.08	1914.85
615.28	2265.05
615.47	1873.89
615.66	1964.00
615.85	1908.71
616.04	1992.67
616.23	1916.90
616.42	1892.32
616.62	1980.39
616.81	1937.38
617.00	1837.03
617.19	1898.47
617.38	1857.51
617.57	1841.12
617.76	1933.28
617.95	1939.43
618.15	1816.55
618.34	1912.80
618.53	1783.78
618.72	1869.80
618.91	1951.71
619.10	1906.66
619.29	1853.41
619.48	1832.93
619.68	1814.50
619.87	1841.12
620.06	1736.68
620.25	1861.60
620.44	1873.89
620.63	1839.08
620.82	1925.09
621.01	1857.51
621.20	1888.23
621.39	1816.55
621.59	1826.79
621.78	1755.11
621.97	1898.47
622.16	1826.79
622.35	1871.84
622.54	1914.85
622.73	1927.14
622.92	1771.49
623.11	1900.52
623.30	1808.36
623.49	1918.95
623.68	1789.92
623.88	1882.08
624.07	1871.84
624.26	1753.06
624.45	1923.04
624.64	1861.60
624.83	1746.92
625.02	1832.93
625.21	1851.36
625.40	1863.65
625.59	1892.32
625.78	1892.32
625.97	1953.76
626.16	2002.91
626.35	1992.67
626.54	1949.67
626.74	2084.83
626.93	1968.10
627.12	1824.74
627.31	1939.43
627.50	1902.56
627.69	1910.75
627.88	1863.65
628.07	1849.32
628.26	1734.63
628.45	1798.12
628.64	1767.40
628.83	1894.37
629.02	1726.44
629.21	1839.08
629.40	1910.75
629.59	1888.23
629.78	1818.60
629.97	1900.52
630.16	1933.28
630.35	1826.79
630.54	1832.93
630.73	1808.36
630.92	1808.36
631.11	1824.74
631.30	1812.45
631.49	1882.08
631.68	1902.56
631.87	1845.22
632.06	1800.16
632.25	2021.35
632.44	1855.46
632.63	1923.04
632.82	1906.66
633.01	1871.84
633.20	1961.95
633.39	1914.85
633.58	1888.23
633.77	1982.43
633.96	1970.15
634.15	1822.69
634.34	1908.71
634.53	1855.46
634.72	1834.98
634.91	1888.23
635.10	1933.28
635.29	1906.66
635.48	1861.60
635.67	1773.54
635.86	1763.30
636.05	1906.66
636.24	1869.80
636.43	1861.60
636.62	1851.36
636.81	1640.42
637.00	1859.56
637.19	1873.89
637.38	1812.45
637.57	1783.78
637.76	1935.33
637.95	1941.47
638.14	1939.43
638.33	1896.42
638.52	1898.47
638.71	1884.13
638.89	1871.84
639.08	2037.73
639.27	1941.47
639.46	2076.64
639.65	2359.26
639.84	2480.09
640.03	2660.31
640.22	2553.82
640.41	2562.01
640.60	2156.51
640.79	2240.48
640.98	2076.64
641.17	2058.21
641.36	2082.78
641.55	2052.06
641.74	1947.62
641.92	1865.70
642.11	1900.52
642.30	1832.93
642.49	1841.12
642.68	1761.25
642.87	1843.17
643.06	1822.69
643.25	1853.41
643.44	1798.12
643.63	1824.74
643.82	1902.56
644.00	1751.01
644.19	1904.61
644.38	1779.68
644.57	1882.08
644.76	1826.79
644.95	1777.64
645.14	1794.02
645.33	1767.40
645.52	1785.83
645.71	1763.30
645.89	1763.30
646.08	1794.02
646.27	1822.69
646.46	1943.52
646.65	1738.73
646.84	1818.60
647.03	1769.44
647.22	1847.27
647.40	1869.80
647.59	1871.84
647.78	1714.15
647.97	1744.87
648.16	1880.04
648.35	1861.60
648.54	1957.86
648.73	1794.02
648.91	1888.23
649.10	1902.56
649.29	1839.08
649.48	1771.49
649.67	1828.84
649.86	1837.03
650.05	1871.84
650.23	2072.54
650.42	1955.81
650.61	2119.65
650.80	2041.82
650.99	2101.22
651.18	2074.59
651.36	1937.38
651.55	1857.51
651.74	1865.70
651.93	1875.94
652.12	1896.42
652.31	1882.08
652.49	1880.04
652.68	1877.99
652.87	1961.95
653.06	1882.08
653.25	2007.01
653.44	1939.43
653.62	1961.95
653.81	1867.75
654.00	1828.84
654.19	1908.71
654.38	1998.82
654.56	1810.40
654.75	1826.79
654.94	1902.56
655.13	1804.26
655.32	1791.97
655.51	1861.60
655.69	1695.72
655.88	1880.04
656.07	1822.69
656.26	1816.55
656.45	1775.59
656.63	1826.79
656.82	1855.46
657.01	1839.08
657.20	1843.17
657.38	1882.08
657.57	1843.17
657.76	1691.62
657.95	1886.18
658.14	1765.35
658.32	1826.79
658.51	1720.29
658.70	1847.27
658.89	1892.32
659.08	1806.31
659.26	1914.85
659.45	1816.55
659.64	1839.08
659.83	1890.28
660.01	2097.12
660.20	1863.65
660.39	2000.87
660.58	1740.77
660.76	1890.28
660.95	1787.88
661.14	1857.51
661.33	1730.53
661.51	1824.74
661.70	1808.36
661.89	1806.31
662.08	1900.52
662.26	1775.59
662.45	1847.27
662.64	1920.99
662.83	1837.03
663.01	1716.20
663.20	1859.56
663.39	1906.66
663.58	1783.78
663.76	1798.12
663.95	1886.18
664.14	1820.64
664.32	1710.05
664.51	1771.49
664.70	1759.21
664.89	1789.92
665.07	1703.91
665.26	1882.08
665.45	1826.79
665.64	1923.04
665.82	1884.13
666.01	1943.52
666.20	1867.75
666.38	1941.47
666.57	1910.75
666.76	2439.13
666.95	5560.24
667.13	13475.63
667.32	19816.15
667.51	23842.45
667.69	26414.70
667.88	26080.88
668.07	19418.84
668.25	14473.00
668.44	12021.58
668.63	10088.29
668.81	8910.71
669.00	7847.82
669.19	7018.39
669.38	6160.29
669.56	5248.94
669.75	4564.92
669.94	3674.06
670.12	3024.85
670.31	2641.88
670.50	2404.32
670.68	2174.94
670.87	2004.96
671.06	1947.62
671.24	1906.66
671.43	2043.87
671.62	1976.29
671.80	1886.18
671.99	1951.71
672.18	1826.79
672.36	1927.14
672.55	1822.69
672.74	1812.45
672.92	1847.27
673.11	1837.03
673.29	1759.21
673.48	1814.50
673.67	1812.45
673.85	1933.28
674.04	1802.21
674.23	1732.58
674.41	1961.95
674.60	1789.92
674.79	1695.72
674.97	1746.92
675.16	1931.23
675.34	1834.98
675.53	1865.70
675.72	1851.36
675.90	1902.56
676.09	1857.51
676.28	1804.26
676.46	1769.44
676.65	1908.71
676.83	1837.03
677.02	1828.84
677.21	1787.88
677.39	1759.21
677.58	1777.64
677.77	1724.39
677.95	1794.02
678.14	1810.40
678.32	1789.92
678.51	1767.40
678.70	1937.38
678.88	1806.31
679.07	1845.22
679.25	1808.36
679.44	1783.78
679.63	1785.83
679.81	1849.32
680.00	1957.86
680.18	1896.42
680.37	1837.03
680.55	1834.98
680.74	1740.77
680.93	1660.90
681.11	1865.70
681.30	1796.07
681.48	1859.56
681.67	1806.31
681.85	1769.44
682.04	1773.54
682.23	1855.46
682.41	1843.17
682.60	1773.54
682.78	1834.98
682.97	1765.35
683.15	1834.98
683.34	1845.22
683.53	1906.66
683.71	1753.06
683.90	1933.28
684.08	1892.32
684.27	1839.08
684.45	1869.80
684.64	1906.66
684.82	1740.77
685.01	1869.80
685.19	1804.26
685.38	1920.99
685.57	1820.64
685.75	1746.92
685.94	1857.51
686.12	1699.81
686.31	1771.49
686.49	1896.42
686.68	1783.78
686.86	1877.99
687.05	1753.06
687.23	1941.47
687.42	1771.49
687.60	1718.25
687.79	1880.04
687.97	1935.33
688.16	1853.41
688.34	1814.50
688.53	1742.82
688.71	1847.27
688.90	1908.71
689.08	1789.92
689.27	1660.90
689.45	1851.36
689.64	1794.02
689.82	1820.64
690.01	1857.51
690.19	1853.41
690.38	1857.51
690.56	1931.23
690.75	1863.65
690.93	1822.69
691.12	1791.97
691.30	1861.60
691.49	1857.51
691.67	1816.55
691.86	1931.23
692.04	1839.08
692.23	1800.16
692.41	1916.90
692.60	2113.50
692.78	1982.43
692.97	1884.13
693.15	1914.85
693.34	1968.10
693.52	1892.32
693.71	1789.92
693.89	1757.16
694.08	1726.44
694.26	1839.08
694.44	1914.85
694.63	1904.61
694.81	1746.92
695.00	1716.20
695.18	1877.99
695.37	1951.71
695.55	1828.84
695.74	1779.68
695.92	1703.91
696.10	1902.56
696.29	1761.25
696.47	1816.55
696.66	1763.30
696.84	1759.21
697.03	1791.97
697.21	1902.56
697.40	2521.05
697.58	1845.22
697.76	1744.87
697.95	1751.01
698.13	1861.60
698.32	1816.55
698.50	1796.07
698.68	1837.03
698.87	1888.23
699.05	1951.71
699.24	1757.16
699.42	1740.77
699.61	1894.37
699.79	1791.97
699.97	1708.01
700.16	1718.25
700.34	1744.87
700.53	1857.51
700.71	1941.47
700.89	1888.23
701.08	1806.31
701.26	1849.32
701.45	2271.20
701.63	1748.97
701.81	1794.02
702.00	1812.45
702.18	1791.97
702.37	1894.37
702.55	2050.02
702.73	2084.83
702.92	2025.44
703.10	2146.27
703.28	2113.50
703.47	1978.34
703.65	2009.06
703.84	1974.24
704.02	1855.46
704.20	1953.76
704.39	1904.61
704.57	1834.98
704.75	1923.04
704.94	1918.95
705.12	1886.18
705.30	1945.57
705.49	2942.93
705.67	7262.10
705.86	16215.82
706.04	21712.56
706.22	25194.11
706.41	27430.49
706.59	25919.09
706.77	18892.51
706.96	14389.03
707.14	12398.40
707.32	10684.25
707.51	9545.58
707.69	8150.92
707.87	6711.19
708.06	5547.95
708.24	4224.96
708.42	3360.72
708.61	2848.72
708.79	2222.05
708.97	2144.22
709.16	2066.40
709.34	1894.37
709.52	1884.13
709.71	1890.28
709.89	1927.14
710.07	1828.84
710.26	1810.40
710.44	1867.75
710.62	1941.47
710.80	1873.89
710.99	1873.89
711.17	1890.28
711.35	1712.10
711.54	1812.45
711.72	1914.85
711.90	1863.65
712.09	1791.97
712.27	1871.84
712.45	1890.28
712.63	1855.46
712.82	1845.22
713.00	1839.08
713.18	1820.64
713.37	1800.16
713.55	1898.47
713.73	1783.78
713.91	1920.99
714.10	1767.40
714.28	1857.51
714.46	1806.31
714.65	1857.51
714.83	1935.33
715.01	1785.83
715.19	1775.59
715.38	1816.55
715.56	1746.92
715.74	1777.64
715.92	1767.40
716.11	1937.38
716.29	1716.20
716.47	1812.45
716.65	1802.21
716.84	1816.55
717.02	1869.80
717.20	1689.57
717.38	1783.78
717.57	1914.85
717.75	1828.84
717.93	1869.80
718.11	1894.37
718.30	1832.93
718.48	1802.21
718.66	1802.21
718.84	1855.46
719.03	1814.50
719.21	1783.78
719.39	1888.23
719.57	1822.69
719.75	1890.28
719.94	1701.86
720.12	1882.08
720.30	1837.03
720.48	2004.96
720.67	1820.64
720.85	1736.68
721.03	1843.17
721.21	1841.12
721.39	1867.75
721.58	1841.12
721.76	1796.07
721.94	1855.46
722.12	1869.80
722.30	1945.57
722.49	1744.87
722.67	1900.52
722.85	1759.21
723.03	1687.53
723.21	1781.73
723.40	1804.26
723.58	1863.65
723.76	1918.95
723.94	1943.52
724.12	1988.58
724.30	1970.15
724.49	1984.48
724.67	1906.66
724.85	1939.43
725.03	1701.86
725.21	1929.19
725.40	1970.15
725.58	1759.21
725.76	1902.56
725.94	1877.99
726.12	1779.68
726.30	1824.74
726.49	1849.32
726.67	1886.18
726.85	1904.61
727.03	1945.57
727.21	2639.83
727.39	4163.52
727.57	5584.81
727.76	6391.71
727.94	6725.53
728.12	6883.22
728.30	5908.39
728.48	4605.88
728.66	4222.91
728.84	3872.71
729.03	3270.61
729.21	2826.20
729.39	2564.06
729.57	2201.57
729.75	2084.83
729.93	2025.44
730.11	1900.52
730.30	1908.71
730.48	1787.88
730.66	1949.67
730.84	1904.61
731.02	1796.07
731.20	1855.46
731.38	1920.99
731.56	1771.49
731.74	1677.29
731.93	1855.46
732.11	1814.50
732.29	1910.75
732.47	1810.40
732.65	1816.55
732.83	1910.75
733.01	1785.83
733.19	1810.40
733.37	1820.64
733.56	1834.98
733.74	1763.30
733.92	1929.19
734.10	1812.45
734.28	1845.22
734.46	1720.29
734.64	1832.93
734.82	1789.92
735.00	1753.06
735.18	1798.12
735.36	1810.40
735.54	1812.45
735.73	1898.47
735.91	1841.12
736.09	1789.92
736.27	1824.74
736.45	1871.84
736.63	1705.96
736.81	1861.60
736.99	1877.99
737.17	1935.33
737.35	1880.04
737.53	1882.08
737.71	1791.97
737.89	1873.89
738.07	1763.30
738.25	1753.06
738.43	1724.39
738.61	1761.25
738.80	1820.64
738.98	1724.39
739.16	1783.78
739.34	1789.92
739.52	1855.46
739.70	1818.60
739.88	1914.85
740.06	1943.52
740.24	1705.96
740.42	1882.08
740.60	1708.01
740.78	1708.01
740.96	1820.64
741.14	1738.73
741.32	1812.45
741.50	1734.63
741.68	2013.15
741.86	1877.99
742.04	1734.63
742.22	1736.68
742.40	1822.69
742.58	1886.18
742.76	1738.73
742.94	1841.12
743.12	1722.34
743.30	1804.26
743.48	1816.55
743.66	1814.50
743.84	1800.16
744.02	1767.40
744.20	1849.32
744.38	1785.83
744.56	1724.39
744.74	1904.61
744.92	1806.31
745.10	1908.71
745.28	1791.97
745.46	1974.24
745.64	1765.35
745.82	1873.89
746.00	1742.82
746.18	1863.65
746.36	1728.49
746.54	1847.27
746.72	1865.70
746.90	1816.55
747.08	1945.57
747.26	1818.60
747.44	1857.51
747.62	1857.51
747.80	1900.52
747.98	1931.23
748.15	1902.56
748.33	1984.48
748.51	1820.64
748.69	1972.19
748.87	1820.64
749.05	1832.93
749.23	1861.60
749.41	1871.84
749.59	1791.97
749.77	1826.79
749.95	1771.49
750.13	1763.30
750.31	1800.16
750.49	1794.02
750.67	1851.36
750.85	1912.80
751.03	1871.84
751.20	1888.23
751.38	1871.84
751.56	1802.21
751.74	1785.83
751.92	1814.50
752.10	1761.25
752.28	1861.60
752.46	1810.40
752.64	1841.12
752.82	1804.26
753.00	1892.32
753.18	1818.60
753.35	1869.80
753.53	1857.51
753.71	1814.50
753.89	1853.41
754.07	1775.59
754.25	1920.99
754.43	1826.79
754.61	1769.44
754.79	1853.41
754.97	1802.21
755.14	1923.04
755.32	1765.35
755.50	1849.32
755.68	1767.40
755.86	1779.68
756.04	1755.11
756.22	1695.72
756.40	1873.89
756.57	1984.48
756.75	1818.60
756.93	1873.89
757.11	1861.60
757.29	1714.15
757.47	1746.92
757.65	1757.16
757.82	1660.90
758.00	1861.60
758.18	1746.92
758.36	1761.25
758.54	1918.95
758.72	1722.34
758.90	1892.32
759.07	1779.68
759.25	1767.40
759.43	1804.26
759.61	1687.53
759.79	2430.94
759.97	1906.66
760.15	1751.01
760.32	1781.73
760.50	1796.07
760.68	1894.37
760.86	1744.87
761.04	1923.04
761.22	1794.02
761.39	1759.21
761.57	1791.97
761.75	1769.44
761.93	1869.80
762.11	1847.27
762.28	1794.02
762.46	1746.92
762.64	1839.08
762.82	1728.49
763.00	1746.92
763.18	1953.76
763.35	1703.91
763.53	1828.84
763.71	1771.49
763.89	1816.55
764.07	1867.75
764.24	1857.51
764.42	1847.27
764.60	1796.07
764.78	1834.98
764.96	1892.32
765.13	1869.80
765.31	1755.11
765.49	1806.31
765.67	1724.39
765.84	1796.07
766.02	1812.45
766.20	1681.38
766.38	1828.84
766.56	1820.64
766.73	1789.92
766.91	1755.11
767.09	1855.46
767.27	1849.32
767.44	1812.45
767.62	1925.09
767.80	1802.21
767.98	1767.40
768.15	1796.07
768.33	1863.65
768.51	1834.98
768.69	1789.92
768.87	1828.84
769.04	1771.49
769.22	1955.81
769.40	1894.37
769.58	2002.91
769.75	1837.03
769.93	1877.99
770.11	1824.74
770.28	1755.11
770.46	1880.04
770.64	1755.11
770.82	1820.64
770.99	1769.44
771.17	1855.46
771.35	1828.84
771.53	1871.84
771.70	1851.36
771.88	1796.07
772.06	1822.69
772.23	1718.25
772.41	1845.22
772.59	1742.82
772.77	1759.21
772.94	1783.78
773.12	1861.60
773.30	1867.75
773.47	1894.37
773.65	1697.77
773.83	1966.05
774.01	1789.92
774.18	1726.44
774.36	1808.36
774.54	1785.83
774.71	1816.55
774.89	1816.55
775.07	1779.68
775.24	1734.63
775.42	1716.20
775.60	1968.10
775.78	1787.88
775.95	1759.21
776.13	1742.82
776.31	1761.25
776.48	1882.08
776.66	1888.23
776.84	1845.22
777.01	1800.16
777.19	1771.49
777.37	1783.78
777.54	1894.37
777.72	2039.78
777.90	1775.59
778.07	1740.77
778.25	1976.29
778.43	1834.98
778.60	1808.36
778.78	1875.94
778.96	1902.56
779.13	1730.53
779.31	1812.45
779.49	1755.11
779.66	1845.22
779.84	1800.16
780.01	1775.59
780.19	1730.53
780.37	1877.99
780.54	1853.41
780.72	1779.68
780.90	1830.88
781.07	1804.26
781.25	1812.45
781.43	1935.33
781.60	1742.82
781.78	1847.27
781.95	1873.89
782.13	1724.39
782.31	1773.54
782.48	1763.30
782.66	1843.17
782.83	1959.91
783.01	1863.65
783.19	1796.07
783.36	1791.97
783.54	1744.87
783.72	1857.51
783.89	1796.07
784.07	1773.54
784.24	1816.55
784.42	1953.76
784.60	1888.23
784.77	1877.99
784.95	1705.96
785.12	1738.73
785.30	1802.21
785.47	1814.50
785.65	1773.54
785.83	1859.56
786.00	1798.12
786.18	1871.84
786.35	1755.11
786.53	1798.12
786.71	1834.98
786.88	1871.84
787.06	1828.84
787.23	1791.97
787.41	1710.05
787.58	1832.93
787.76	1763.30
787.94	1724.39
788.11	1824.74
788.29	1806.31
788.46	1748.97
788.64	1732.58
788.81	1783.78
788.99	1755.11
789.16	1767.40
789.34	1806.31
789.52	1806.31
789.69	1814.50
789.87	1718.25
790.04	1724.39
790.22	1859.56
790.39	1941.47
790.57	1679.33
790.74	1791.97
790.92	1867.75
791.09	1630.18
791.27	1818.60
791.44	1861.60
791.62	1800.16
791.79	1781.73
791.97	1877.99
792.15	2047.97
792.32	1796.07
792.50	1871.84
792.67	1806.31
792.85	1931.23
793.02	1796.07
793.20	1806.31
793.37	1791.97
793.55	1853.41
793.72	1742.82
793.90	1900.52
794.07	1847.27
794.25	1806.31
794.42	1810.40
794.60	1810.40
794.77	1894.37
794.95	1808.36
795.12	1824.74
795.30	1839.08
795.47	1699.81
795.65	2052.06
795.82	1810.40
796.00	1767.40
796.17	1837.03
796.34	1693.67
796.52	1837.03
796.69	1826.79
796.87	1855.46
797.04	1830.88
797.22	1894.37
797.39	1781.73
797.57	1832.93
797.74	1820.64
797.92	1748.97
798.09	1730.53
798.27	1849.32
798.44	1761.25
798.62	1765.35
798.79	1875.94
798.96	1855.46
799.14	1814.50
799.31	1916.90
799.49	1824.74
799.66	1822.69
799.84	1718.25
800.01	1794.02
800.19	1865.70
800.36	1677.29
800.53	1808.36
800.71	1837.03
800.88	1941.47
801.06	1869.80
801.23	1763.30
801.41	1730.53
801.58	1734.63
801.75	1810.40
801.93	1818.60
802.10	1759.21
802.28	1779.68
802.45	1730.53
802.63	1906.66
802.80	1851.36
802.97	1796.07
803.15	1757.16
803.32	1779.68
803.50	1798.12
803.67	1722.34
803.84	1746.92
804.02	1796.07
804.19	1734.63
804.37	1730.53
804.54	1697.77
804.71	1812.45
804.89	1746.92
805.06	1779.68
805.24	1730.53
805.41	1730.53
805.58	1751.01
805.76	1964.00
805.93	1800.16
806.10	1910.75
806.28	1822.69
806.45	1853.41
806.63	1759.21
806.80	1857.51
806.97	1839.08
807.15	1757.16
807.32	1824.74
807.49	1767.40
807.67	1763.30
807.84	1802.21
808.01	1775.59
808.19	1986.53
808.36	1886.18
808.54	1810.40
808.71	1710.05
808.88	1837.03
809.06	1927.14
809.23	1855.46
809.40	1822.69
809.58	1902.56
809.75	1824.74
809.92	1830.88
810.10	1923.04
810.27	1798.12
810.44	1806.31
810.62	1808.36
810.79	1912.80
810.96	1847.27
811.14	1808.36
811.31	1800.16
811.48	1859.56
811.66	1802.21
811.83	1812.45
812.00	1851.36
812.18	1828.84
812.35	1939.43
812.52	1785.83
812.69	1746.92
812.87	1832.93
813.04	1726.44
813.21	1775.59
813.39	1787.88
813.56	1681.38
813.73	1849.32
813.91	1718.25
814.08	1789.92
814.25	1828.84
814.42	1726.44
814.60	1841.12
814.77	1791.97
814.94	1800.16
815.12	1832.93
815.29	1935.33
815.46	1734.63
815.63	1804.26
815.81	1873.89
815.98	1802.21
816.15	1806.31
816.33	1800.16
816.50	1767.40
816.67	1837.03
816.84	1720.29
817.02	1746.92
817.19	1806.31
817.36	1757.16
817.53	1839.08
817.71	1763.30
817.88	1898.47
818.05	1771.49
818.22	1826.79
818.40	1890.28
818.57	1802.21
818.74	1839.08
818.91	1822.69
819.09	1820.64
819.26	1902.56
819.43	1871.84
819.60	1755.11
819.78	1849.32
819.95	1910.75
820.12	1810.40
820.29	1890.28
820.47	1900.52
820.64	1755.11
820.81	1753.06
820.98	1812.45
821.15	1798.12
821.33	1857.51
821.50	1779.68
821.67	1855.46
821.84	1789.92
822.02	1828.84
822.19	1912.80
822.36	1779.68
822.53	1753.06
822.70	1679.33
822.88	1759.21
823.05	1871.84
823.22	1800.16
823.39	1814.50
823.56	1726.44
823.74	1902.56
823.91	1736.68
824.08	1761.25
824.25	1783.78
824.42	1992.67
824.60	1751.01
824.77	1775.59
824.94	1841.12
825.11	1849.32
825.28	1757.16
825.45	1834.98
825.63	1820.64
825.80	1804.26
825.97	1837.03
826.14	1789.92
826.31	1728.49
826.48	1830.88
826.66	1748.97
826.83	1763.30
827.00	1736.68
827.17	1755.11
827.34	1777.64
827.51	1773.54
827.69	1734.63
827.86	1710.05
828.03	1794.02
828.20	1716.20
828.37	1732.58
828.54	1867.75
828.71	1748.97
828.89	1886.18
829.06	1789.92
829.23	1877.99
829.40	1796.07
829.57	1699.81
829.74	1820.64
829.91	1810.40
830.09	1746.92
830.26	1832.93
830.43	1861.60
830.60	1851.36
830.77	1877.99
830.94	1966.05
831.11	1896.42
831.28	1837.03
831.46	1849.32
831.63	1783.78
831.80	1845.22
831.97	1751.01
832.14	1730.53
832.31	1832.93
832.48	1929.19
832.65	1847.27
832.82	1828.84
832.99	1804.26
833.17	1744.87
833.34	1927.14
833.51	1828.84
833.68	1687.53
833.85	1869.80
834.02	1751.01
834.19	1837.03
834.36	1769.44
834.53	1765.35
834.70	1779.68
834.87	1875.94
835.04	1775.59
835.22	1710.05
835.39	1828.84
835.56	1689.57
835.73	1828.84
835.90	1834.98
836.07	1746.92
836.24	1830.88
836.41	1765.35
836.58	1791.97
836.75	1923.04
836.92	1771.49
837.09	1765.35
837.26	1832.93
837.43	1779.68
837.60	1877.99
837.77	1759.21
837.94	1918.95
838.12	1923.04
838.29	1839.08
838.46	1693.67
838.63	1748.97
838.80	1959.91
838.97	1849.32
839.14	1783.78
839.31	1857.51
839.48	1798.12
839.65	1765.35
839.82	1830.88
839.99	1865.70
840.16	1800.16
840.33	1761.25
840.50	1865.70
840.67	1728.49
840.84	1671.14
841.01	1798.12
841.18	1800.16
841.35	1808.36
841.52	1857.51
841.69	1871.84
841.86	1830.88
842.03	1769.44
842.20	1873.89
842.37	1828.84
842.54	1820.64
842.71	1771.49
842.88	1701.86
843.05	1880.04
843.22	1765.35
843.39	1855.46
843.56	1779.68
843.73	1849.32
843.90	1826.79
844.07	1828.84
844.24	1869.80
844.41	1910.75
844.58	1753.06
844.75	1783.78
844.92	1890.28
845.09	1812.45
845.26	1761.25
845.43	1775.59
845.60	1728.49
845.77	1882.08
845.94	1857.51
846.10	1816.55
846.27	1681.38
846.44	1769.44
846.61	1806.31
846.78	1847.27
846.95	1871.84
847.12	1773.54
847.29	1726.44
847.46	1759.21
847.63	1841.12
847.80	1740.77
847.97	1812.45
848.14	1953.76
848.31	1904.61
848.48	1722.34
848.65	1845.22
848.82	1761.25
848.98	1970.15
849.15	1816.55
849.32	1847.27
849.49	1863.65
849.66	1931.23
849.83	1783.78
850.00	1755.11
850.17	1834.98
850.34	1820.64
850.51	1765.35
850.68	1681.38
850.85	1974.24
851.01	1806.31
851.18	1804.26
851.35	1830.88
851.52	1824.74
851.69	1896.42
851.86	1855.46
852.03	1794.02
852.20	1857.51
852.37	1732.58
852.53	1673.19
852.70	1791.97
852.87	1783.78
853.04	1753.06
853.21	1841.12
853.38	1806.31
853.55	1834.98
853.72	1863.65
853.89	1730.53
854.05	1683.43
854.22	1802.21
854.39	1769.44
854.56	1910.75
854.73	1894.37
854.90	1734.63
855.07	1781.73
855.23	1822.69
855.40	1726.44
855.57	1832.93
855.74	1689.57
855.91	1912.80
856.08	1720.29
856.25	1699.81
856.41	1701.86
856.58	1765.35
856.75	1824.74
856.92	1736.68
857.09	1845.22
857.26	1705.96
857.42	1834.98
857.59	1853.41
857.76	1765.35
857.93	1841.12
858.10	1845.22
858.27	1785.83
858.43	1746.92
858.60	1673.19
858.77	1675.24
858.94	1814.50
859.11	1824.74
859.27	1757.16
859.44	1808.36
859.61	1972.19
859.78	1796.07
859.95	1740.77
860.12	1816.55
860.28	1888.23
860.45	1951.71
860.62	1755.11
860.79	1812.45
860.95	1789.92
861.12	1708.01
861.29	1808.36
861.46	1738.73
861.63	1746.92
861.79	1794.02
861.96	1771.49
862.13	1744.87
862.30	1882.08
862.47	1789.92
862.63	1708.01
862.80	1918.95
862.97	1816.55
863.14	1853.41
863.30	1888.23
863.47	1748.97
863.64	1949.67
863.81	1853.41
863.97	1843.17
864.14	1810.40
864.31	1775.59
864.48	1820.64
864.65	1812.45
864.81	1935.33
864.98	1826.79
865.15	1853.41
865.32	1925.09
865.48	1900.52
865.65	1927.14
865.82	1802.21
865.98	1767.40
866.15	1912.80
866.32	1794.02
866.49	1755.11
866.65	1855.46
866.82	1734.63
866.99	1814.50
867.16	1796.07
867.32	1751.01
867.49	1820.64
867.66	1796.07
867.83	1787.88
867.99	1681.38
868.16	1794.02
868.33	1722.34
868.49	1771.49
868.66	1751.01
868.83	1853.41
868.99	1789.92
869.16	1869.80
869.33	1818.60
869.50	1869.80
869.66	1779.68
869.83	1857.51
870.00	1787.88
870.16	1927.14
870.33	1759.21
870.50	1875.94
870.66	1857.51
870.83	1920.99
871.00	1751.01
871.17	1791.97
871.33	1888.23
871.50	1857.51
871.67	1779.68
871.83	1705.96
872.00	1900.52
872.17	1748.97
872.33	1849.32
872.50	1877.99
872.67	1783.78
872.83	1837.03
873.00	1861.60
873.17	1769.44
873.33	1888.23
873.50	1828.84
873.67	1896.42
873.83	1726.44
874.00	1783.78
874.16	1751.01
874.33	1808.36
874.50	1677.29
874.66	1791.97
874.83	1794.02
875.00	1892.32
875.16	1892.32
875.33	1800.16
875.50	1718.25
875.66	1837.03
875.83	1800.16
875.99	1888.23
876.16	1726.44
876.33	1703.91
876.49	1806.31
876.66	1873.89
876.83	1841.12
876.99	1759.21
877.16	1732.58
877.32	1794.02
877.49	1810.40
877.66	1757.16
877.82	1869.80
877.99	1837.03
878.15	1890.28
878.32	1867.75
878.49	1892.32
878.65	1820.64
878.82	1867.75
878.98	1773.54
879.15	1861.60
879.32	1927.14
879.48	1890.28
879.65	1816.55
879.81	1812.45
879.98	1718.25
880.15	1800.16
880.31	1808.36
880.48	1810.40
880.64	1875.94
880.81	1832.93
880.97	1912.80
881.14	1818.60
881.31	1751.01
881.47	1951.71
881.64	1718.25
881.80	1748.97
881.97	1810.40
882.13	1863.65
882.30	1751.01
882.47	1812.45
882.63	1724.39
882.80	1746.92
882.96	1775.59
883.13	1886.18
883.29	1834.98
883.46	1861.60
883.62	1890.28
883.79	1810.40
883.95	1830.88
884.12	1814.50
884.29	1808.36
884.45	1820.64
884.62	1925.09
884.78	1746.92
884.95	1894.37
885.11	1748.97
885.28	1810.40
885.44	1724.39
885.61	1783.78
885.77	1898.47
885.94	1855.46
886.10	1839.08
886.27	1767.40
886.43	1880.04
886.60	1884.13
886.76	1753.06
886.93	1783.78
887.09	1828.84
887.26	1685.48
887.42	1847.27
887.59	1894.37
887.75	1855.46
887.92	1890.28
888.08	1808.36
888.25	1941.47
888.41	1812.45
888.58	1773.54
888.74	1699.81
888.91	1828.84
>>>>>End Processed Spectral Data<<<<<
